2024/8/1 	 14:03:48 
 This file comes from Vt only measurement 	 1.000000E-1 
 Voltage Sensitivity 	 0.000000E+0 
 Sampling rate 	 200 
 Number of samples per channel 	 -1 
 No filter from Labview 	 	 	 
 	 
 ***End_of_Header*** 
 	 Time 	  Voltage 	 Filtered Voltage 	 
	0.000000	0.452116
	0.005000	0.399496
	0.010000	0.432384
	0.015000	0.478426
	0.020000	0.448827
	0.025000	0.392919
	0.030000	0.429095
	0.035000	0.481715
	0.040000	0.452116
	0.045000	0.402785
	0.050000	0.425806
	0.055000	0.478426
	0.060000	0.448827
	0.065000	0.402785
	0.070000	0.432384
	0.075000	0.481715
	0.080000	0.452116
	0.085000	0.402785
	0.090000	0.438961
	0.095000	0.485003
	0.100000	0.452116
	0.105000	0.409363
	0.110000	0.435672
	0.115000	0.485003
	0.120000	0.452116
	0.125000	0.406074
	0.130000	0.438961
	0.135000	0.485003
	0.140000	0.455405
	0.145000	0.406074
	0.150000	0.442250
	0.155000	0.485003
	0.160000	0.448827
	0.165000	0.406074
	0.170000	0.438961
	0.175000	0.485003
	0.180000	0.452116
	0.185000	0.409363
	0.190000	0.438961
	0.195000	0.485003
	0.200000	0.452116
	0.205000	0.406074
	0.210000	0.438961
	0.215000	0.488292
	0.220000	0.455405
	0.225000	0.409363
	0.230000	0.438961
	0.235000	0.488292
	0.240000	0.452116
	0.245000	0.409363
	0.250000	0.435672
	0.255000	0.485003
	0.260000	0.455405
	0.265000	0.406074
	0.270000	0.442250
	0.275000	0.485003
	0.280000	0.455405
	0.285000	0.402785
	0.290000	0.442250
	0.295000	0.485003
	0.300000	0.452116
	0.305000	0.406074
	0.310000	0.435672
	0.315000	0.485003
	0.320000	0.452116
	0.325000	0.406074
	0.330000	0.438961
	0.335000	0.485003
	0.340000	0.455405
	0.345000	0.406074
	0.350000	0.442250
	0.355000	0.485003
	0.360000	0.455405
	0.365000	0.409363
	0.370000	0.442250
	0.375000	0.485003
	0.380000	0.458694
	0.385000	0.409363
	0.390000	0.442250
	0.395000	0.488292
	0.400000	0.455405
	0.405000	0.412651
	0.410000	0.438961
	0.415000	0.488292
	0.420000	0.455405
	0.425000	0.409363
	0.430000	0.442250
	0.435000	0.491581
	0.440000	0.455405
	0.445000	0.409363
	0.450000	0.438961
	0.455000	0.485003
	0.460000	0.452116
	0.465000	0.406074
	0.470000	0.442250
	0.475000	0.488292
	0.480000	0.458694
	0.485000	0.409363
	0.490000	0.438961
	0.495000	0.488292
	0.500000	0.455405
	0.505000	0.412651
	0.510000	0.442250
	0.515000	0.488292
	0.520000	0.455405
	0.525000	0.409363
	0.530000	0.445539
	0.535000	0.485003
	0.540000	0.455405
	0.545000	0.406074
	0.550000	0.442250
	0.555000	0.485003
	0.560000	0.452116
	0.565000	0.409363
	0.570000	0.442250
	0.575000	0.485003
	0.580000	0.458694
	0.585000	0.406074
	0.590000	0.438961
	0.595000	0.488292
	0.600000	0.455405
	0.605000	0.409363
	0.610000	0.442250
	0.615000	0.488292
	0.620000	0.458694
	0.625000	0.406074
	0.630000	0.438961
	0.635000	0.488292
	0.640000	0.455405
	0.645000	0.409363
	0.650000	0.438961
	0.655000	0.491581
	0.660000	0.458694
	0.665000	0.402785
	0.670000	0.442250
	0.675000	0.488292
	0.680000	0.455405
	0.685000	0.406074
	0.690000	0.442250
	0.695000	0.491581
	0.700000	0.455405
	0.705000	0.409363
	0.710000	0.445539
	0.715000	0.488292
	0.720000	0.458694
	0.725000	0.412651
	0.730000	0.442250
	0.735000	0.485003
	0.740000	0.455405
	0.745000	0.406074
	0.750000	0.438961
	0.755000	0.488292
	0.760000	0.458694
	0.765000	0.409363
	0.770000	0.445539
	0.775000	0.491581
	0.780000	0.455405
	0.785000	0.406074
	0.790000	0.442250
	0.795000	0.488292
	0.800000	0.455405
	0.805000	0.412651
	0.810000	0.445539
	0.815000	0.485003
	0.820000	0.455405
	0.825000	0.409363
	0.830000	0.445539
	0.835000	0.488292
	0.840000	0.458694
	0.845000	0.409363
	0.850000	0.445539
	0.855000	0.488292
	0.860000	0.455405
	0.865000	0.412651
	0.870000	0.438961
	0.875000	0.488292
	0.880000	0.458694
	0.885000	0.412651
	0.890000	0.438961
	0.895000	0.485003
	0.900000	0.455405
	0.905000	0.406074
	0.910000	0.438961
	0.915000	0.485003
	0.920000	0.452116
	0.925000	0.412651
	0.930000	0.438961
	0.935000	0.488292
	0.940000	0.448827
	0.945000	0.409363
	0.950000	0.442250
	0.955000	0.488292
	0.960000	0.455405
	0.965000	0.409363
	0.970000	0.445539
	0.975000	0.491581
	0.980000	0.458694
	0.985000	0.412651
	0.990000	0.442250
	0.995000	0.491581
	1.000000	0.458694
	1.005000	0.412651
	1.010000	0.445539
	1.015000	0.491581
	1.020000	0.448827
	1.025000	0.409363
	1.030000	0.442250
	1.035000	0.488292
	1.040000	0.458694
	1.045000	0.409363
	1.050000	0.442250
	1.055000	0.491581
	1.060000	0.458694
	1.065000	0.409363
	1.070000	0.442250
	1.075000	0.488292
	1.080000	0.458694
	1.085000	0.406074
	1.090000	0.445539
	1.095000	0.488292
	1.100000	0.458694
	1.105000	0.409363
	1.110000	0.448827
	1.115000	0.491581
	1.120000	0.452116
	1.125000	0.412651
	1.130000	0.445539
	1.135000	0.485003
	1.140000	0.455405
	1.145000	0.406074
	1.150000	0.445539
	1.155000	0.488292
	1.160000	0.455405
	1.165000	0.409363
	1.170000	0.448827
	1.175000	0.491581
	1.180000	0.458694
	1.185000	0.406074
	1.190000	0.445539
	1.195000	0.491581
	1.200000	0.455405
	1.205000	0.409363
	1.210000	0.448827
	1.215000	0.491581
	1.220000	0.455405
	1.225000	0.409363
	1.230000	0.448827
	1.235000	0.491581
	1.240000	0.455405
	1.245000	0.409363
	1.250000	0.445539
	1.255000	0.488292
	1.260000	0.458694
	1.265000	0.409363
	1.270000	0.445539
	1.275000	0.491581
	1.280000	0.452116
	1.285000	0.412651
	1.290000	0.442250
	1.295000	0.488292
	1.300000	0.458694
	1.305000	0.412651
	1.310000	0.442250
	1.315000	0.491581
	1.320000	0.458694
	1.325000	0.412651
	1.330000	0.448827
	1.335000	0.491581
	1.340000	0.455405
	1.345000	0.409363
	1.350000	0.445539
	1.355000	0.491581
	1.360000	0.458694
	1.365000	0.412651
	1.370000	0.442250
	1.375000	0.491581
	1.380000	0.455405
	1.385000	0.409363
	1.390000	0.445539
	1.395000	0.491581
	1.400000	0.455405
	1.405000	0.412651
	1.410000	0.442250
	1.415000	0.491581
	1.420000	0.458694
	1.425000	0.412651
	1.430000	0.442250
	1.435000	0.491581
	1.440000	0.455405
	1.445000	0.409363
	1.450000	0.448827
	1.455000	0.491581
	1.460000	0.458694
	1.465000	0.415940
	1.470000	0.448827
	1.475000	0.485003
	1.480000	0.461982
	1.485000	0.412651
	1.490000	0.445539
	1.495000	0.494869
	1.500000	0.452116
	1.505000	0.409363
	1.510000	0.445539
	1.515000	0.491581
	1.520000	0.461982
	1.525000	0.409363
	1.530000	0.445539
	1.535000	0.488292
	1.540000	0.455405
	1.545000	0.415940
	1.550000	0.445539
	1.555000	0.491581
	1.560000	0.458694
	1.565000	0.412651
	1.570000	0.445539
	1.575000	0.491581
	1.580000	0.461982
	1.585000	0.415940
	1.590000	0.448827
	1.595000	0.488292
	1.600000	0.458694
	1.605000	0.419229
	1.610000	0.445539
	1.615000	0.491581
	1.620000	0.458694
	1.625000	0.412651
	1.630000	0.448827
	1.635000	0.491581
	1.640000	0.455405
	1.645000	0.409363
	1.650000	0.445539
	1.655000	0.491581
	1.660000	0.458694
	1.665000	0.412651
	1.670000	0.445539
	1.675000	0.491581
	1.680000	0.458694
	1.685000	0.409363
	1.690000	0.448827
	1.695000	0.494869
	1.700000	0.455405
	1.705000	0.412651
	1.710000	0.448827
	1.715000	0.488292
	1.720000	0.452116
	1.725000	0.412651
	1.730000	0.452116
	1.735000	0.491581
	1.740000	0.455405
	1.745000	0.412651
	1.750000	0.448827
	1.755000	0.494869
	1.760000	0.461982
	1.765000	0.409363
	1.770000	0.445539
	1.775000	0.491581
	1.780000	0.458694
	1.785000	0.412651
	1.790000	0.448827
	1.795000	0.494869
	1.800000	0.458694
	1.805000	0.412651
	1.810000	0.452116
	1.815000	0.494869
	1.820000	0.458694
	1.825000	0.406074
	1.830000	0.445539
	1.835000	0.491581
	1.840000	0.455405
	1.845000	0.412651
	1.850000	0.448827
	1.855000	0.491581
	1.860000	0.455405
	1.865000	0.409363
	1.870000	0.448827
	1.875000	0.491581
	1.880000	0.458694
	1.885000	0.412651
	1.890000	0.452116
	1.895000	0.494869
	1.900000	0.455405
	1.905000	0.412651
	1.910000	0.445539
	1.915000	0.494869
	1.920000	0.458694
	1.925000	0.412651
	1.930000	0.445539
	1.935000	0.491581
	1.940000	0.461982
	1.945000	0.409363
	1.950000	0.445539
	1.955000	0.491581
	1.960000	0.455405
	1.965000	0.406074
	1.970000	0.445539
	1.975000	0.491581
	1.980000	0.452116
	1.985000	0.409363
	1.990000	0.445539
	1.995000	0.491581
	2.000000	0.452116
	2.005000	0.412651
	2.010000	0.442250
	2.015000	0.494869
	2.020000	0.455405
	2.025000	0.415940
	2.030000	0.452116
	2.035000	0.498158
	2.040000	0.465271
	2.045000	0.415940
	2.050000	0.458694
	2.055000	0.501447
	2.060000	0.468560
	2.065000	0.425806
	2.070000	0.465271
	2.075000	0.504736
	2.080000	0.468560
	2.085000	0.429095
	2.090000	0.465271
	2.095000	0.511313
	2.100000	0.478426
	2.105000	0.435672
	2.110000	0.465271
	2.115000	0.508024
	2.120000	0.471848
	2.125000	0.425806
	2.130000	0.458694
	2.135000	0.501447
	2.140000	0.465271
	2.145000	0.425806
	2.150000	0.455405
	2.155000	0.501447
	2.160000	0.468560
	2.165000	0.422518
	2.170000	0.455405
	2.175000	0.504736
	2.180000	0.468560
	2.185000	0.425806
	2.190000	0.458694
	2.195000	0.504736
	2.200000	0.471848
	2.205000	0.425806
	2.210000	0.458694
	2.215000	0.504736
	2.220000	0.465271
	2.225000	0.419229
	2.230000	0.452116
	2.235000	0.498158
	2.240000	0.461982
	2.245000	0.422518
	2.250000	0.452116
	2.255000	0.498158
	2.260000	0.461982
	2.265000	0.412651
	2.270000	0.448827
	2.275000	0.491581
	2.280000	0.458694
	2.285000	0.419229
	2.290000	0.448827
	2.295000	0.491581
	2.300000	0.461982
	2.305000	0.412651
	2.310000	0.448827
	2.315000	0.494869
	2.320000	0.455405
	2.325000	0.409363
	2.330000	0.448827
	2.335000	0.491581
	2.340000	0.455405
	2.345000	0.409363
	2.350000	0.445539
	2.355000	0.488292
	2.360000	0.455405
	2.365000	0.409363
	2.370000	0.448827
	2.375000	0.498158
	2.380000	0.452116
	2.385000	0.412651
	2.390000	0.448827
	2.395000	0.491581
	2.400000	0.448827
	2.405000	0.415940
	2.410000	0.445539
	2.415000	0.491581
	2.420000	0.455405
	2.425000	0.415940
	2.430000	0.448827
	2.435000	0.491581
	2.440000	0.452116
	2.445000	0.409363
	2.450000	0.445539
	2.455000	0.491581
	2.460000	0.455405
	2.465000	0.412651
	2.470000	0.445539
	2.475000	0.491581
	2.480000	0.455405
	2.485000	0.412651
	2.490000	0.448827
	2.495000	0.488292
	2.500000	0.452116
	2.505000	0.412651
	2.510000	0.448827
	2.515000	0.488292
	2.520000	0.448827
	2.525000	0.409363
	2.530000	0.448827
	2.535000	0.491581
	2.540000	0.455405
	2.545000	0.406074
	2.550000	0.442250
	2.555000	0.491581
	2.560000	0.455405
	2.565000	0.412651
	2.570000	0.442250
	2.575000	0.491581
	2.580000	0.448827
	2.585000	0.406074
	2.590000	0.445539
	2.595000	0.488292
	2.600000	0.458694
	2.605000	0.409363
	2.610000	0.448827
	2.615000	0.491581
	2.620000	0.455405
	2.625000	0.415940
	2.630000	0.445539
	2.635000	0.488292
	2.640000	0.452116
	2.645000	0.412651
	2.650000	0.445539
	2.655000	0.485003
	2.660000	0.452116
	2.665000	0.412651
	2.670000	0.445539
	2.675000	0.491581
	2.680000	0.455405
	2.685000	0.412651
	2.690000	0.442250
	2.695000	0.485003
	2.700000	0.452116
	2.705000	0.409363
	2.710000	0.445539
	2.715000	0.488292
	2.720000	0.452116
	2.725000	0.409363
	2.730000	0.445539
	2.735000	0.488292
	2.740000	0.448827
	2.745000	0.415940
	2.750000	0.445539
	2.755000	0.488292
	2.760000	0.448827
	2.765000	0.412651
	2.770000	0.445539
	2.775000	0.488292
	2.780000	0.452116
	2.785000	0.406074
	2.790000	0.445539
	2.795000	0.488292
	2.800000	0.445539
	2.805000	0.409363
	2.810000	0.448827
	2.815000	0.488292
	2.820000	0.455405
	2.825000	0.412651
	2.830000	0.448827
	2.835000	0.491581
	2.840000	0.452116
	2.845000	0.409363
	2.850000	0.448827
	2.855000	0.488292
	2.860000	0.448827
	2.865000	0.412651
	2.870000	0.442250
	2.875000	0.488292
	2.880000	0.452116
	2.885000	0.406074
	2.890000	0.442250
	2.895000	0.491581
	2.900000	0.452116
	2.905000	0.409363
	2.910000	0.445539
	2.915000	0.491581
	2.920000	0.448827
	2.925000	0.412651
	2.930000	0.442250
	2.935000	0.485003
	2.940000	0.448827
	2.945000	0.406074
	2.950000	0.442250
	2.955000	0.488292
	2.960000	0.452116
	2.965000	0.409363
	2.970000	0.442250
	2.975000	0.491581
	2.980000	0.448827
	2.985000	0.406074
	2.990000	0.445539
	2.995000	0.488292
	3.000000	0.452116
	3.005000	0.412651
	3.010000	0.438961
	3.015000	0.485003
	3.020000	0.448827
	3.025000	0.412651
	3.030000	0.442250
	3.035000	0.488292
	3.040000	0.445539
	3.045000	0.406074
	3.050000	0.442250
	3.055000	0.491581
	3.060000	0.452116
	3.065000	0.409363
	3.070000	0.445539
	3.075000	0.491581
	3.080000	0.448827
	3.085000	0.406074
	3.090000	0.445539
	3.095000	0.491581
	3.100000	0.455405
	3.105000	0.415940
	3.110000	0.448827
	3.115000	0.488292
	3.120000	0.448827
	3.125000	0.409363
	3.130000	0.445539
	3.135000	0.491581
	3.140000	0.448827
	3.145000	0.412651
	3.150000	0.445539
	3.155000	0.488292
	3.160000	0.448827
	3.165000	0.409363
	3.170000	0.448827
	3.175000	0.485003
	3.180000	0.448827
	3.185000	0.409363
	3.190000	0.445539
	3.195000	0.485003
	3.200000	0.448827
	3.205000	0.412651
	3.210000	0.445539
	3.215000	0.491581
	3.220000	0.455405
	3.225000	0.409363
	3.230000	0.452116
	3.235000	0.494869
	3.240000	0.452116
	3.245000	0.409363
	3.250000	0.445539
	3.255000	0.488292
	3.260000	0.455405
	3.265000	0.409363
	3.270000	0.445539
	3.275000	0.488292
	3.280000	0.452116
	3.285000	0.406074
	3.290000	0.445539
	3.295000	0.485003
	3.300000	0.452116
	3.305000	0.412651
	3.310000	0.445539
	3.315000	0.488292
	3.320000	0.448827
	3.325000	0.409363
	3.330000	0.448827
	3.335000	0.494869
	3.340000	0.452116
	3.345000	0.409363
	3.350000	0.445539
	3.355000	0.485003
	3.360000	0.455405
	3.365000	0.412651
	3.370000	0.445539
	3.375000	0.491581
	3.380000	0.448827
	3.385000	0.412651
	3.390000	0.445539
	3.395000	0.491581
	3.400000	0.452116
	3.405000	0.412651
	3.410000	0.448827
	3.415000	0.488292
	3.420000	0.452116
	3.425000	0.406074
	3.430000	0.448827
	3.435000	0.488292
	3.440000	0.452116
	3.445000	0.409363
	3.450000	0.448827
	3.455000	0.491581
	3.460000	0.452116
	3.465000	0.406074
	3.470000	0.445539
	3.475000	0.491581
	3.480000	0.448827
	3.485000	0.406074
	3.490000	0.442250
	3.495000	0.488292
	3.500000	0.455405
	3.505000	0.402785
	3.510000	0.448827
	3.515000	0.491581
	3.520000	0.452116
	3.525000	0.409363
	3.530000	0.448827
	3.535000	0.491581
	3.540000	0.452116
	3.545000	0.412651
	3.550000	0.445539
	3.555000	0.491581
	3.560000	0.452116
	3.565000	0.406074
	3.570000	0.448827
	3.575000	0.488292
	3.580000	0.452116
	3.585000	0.409363
	3.590000	0.448827
	3.595000	0.491581
	3.600000	0.448827
	3.605000	0.409363
	3.610000	0.448827
	3.615000	0.491581
	3.620000	0.452116
	3.625000	0.412651
	3.630000	0.445539
	3.635000	0.488292
	3.640000	0.452116
	3.645000	0.406074
	3.650000	0.445539
	3.655000	0.488292
	3.660000	0.448827
	3.665000	0.406074
	3.670000	0.448827
	3.675000	0.488292
	3.680000	0.455405
	3.685000	0.409363
	3.690000	0.442250
	3.695000	0.491581
	3.700000	0.448827
	3.705000	0.412651
	3.710000	0.442250
	3.715000	0.488292
	3.720000	0.448827
	3.725000	0.409363
	3.730000	0.448827
	3.735000	0.488292
	3.740000	0.448827
	3.745000	0.409363
	3.750000	0.445539
	3.755000	0.494869
	3.760000	0.452116
	3.765000	0.409363
	3.770000	0.445539
	3.775000	0.491581
	3.780000	0.458694
	3.785000	0.409363
	3.790000	0.448827
	3.795000	0.491581
	3.800000	0.452116
	3.805000	0.409363
	3.810000	0.448827
	3.815000	0.491581
	3.820000	0.452116
	3.825000	0.412651
	3.830000	0.452116
	3.835000	0.491581
	3.840000	0.452116
	3.845000	0.412651
	3.850000	0.448827
	3.855000	0.494869
	3.860000	0.455405
	3.865000	0.412651
	3.870000	0.448827
	3.875000	0.498158
	3.880000	0.448827
	3.885000	0.412651
	3.890000	0.455405
	3.895000	0.491581
	3.900000	0.448827
	3.905000	0.406074
	3.910000	0.448827
	3.915000	0.491581
	3.920000	0.452116
	3.925000	0.409363
	3.930000	0.452116
	3.935000	0.494869
	3.940000	0.452116
	3.945000	0.412651
	3.950000	0.452116
	3.955000	0.488292
	3.960000	0.458694
	3.965000	0.415940
	3.970000	0.452116
	3.975000	0.498158
	3.980000	0.455405
	3.985000	0.419229
	3.990000	0.461982
	3.995000	0.498158
	4.000000	0.461982
	4.005000	0.422518
	4.010000	0.461982
	4.015000	0.504736
	4.020000	0.461982
	4.025000	0.422518
	4.030000	0.461982
	4.035000	0.504736
	4.040000	0.468560
	4.045000	0.425806
	4.050000	0.465271
	4.055000	0.511313
	4.060000	0.468560
	4.065000	0.425806
	4.070000	0.468560
	4.075000	0.508024
	4.080000	0.471848
	4.085000	0.429095
	4.090000	0.465271
	4.095000	0.498158
	4.100000	0.468560
	4.105000	0.429095
	4.110000	0.465271
	4.115000	0.508024
	4.120000	0.461982
	4.125000	0.425806
	4.130000	0.461982
	4.135000	0.504736
	4.140000	0.468560
	4.145000	0.422518
	4.150000	0.465271
	4.155000	0.501447
	4.160000	0.465271
	4.165000	0.422518
	4.170000	0.458694
	4.175000	0.504736
	4.180000	0.468560
	4.185000	0.422518
	4.190000	0.465271
	4.195000	0.504736
	4.200000	0.458694
	4.205000	0.419229
	4.210000	0.458694
	4.215000	0.504736
	4.220000	0.458694
	4.225000	0.422518
	4.230000	0.458694
	4.235000	0.501447
	4.240000	0.458694
	4.245000	0.415940
	4.250000	0.461982
	4.255000	0.501447
	4.260000	0.465271
	4.265000	0.422518
	4.270000	0.458694
	4.275000	0.498158
	4.280000	0.458694
	4.285000	0.419229
	4.290000	0.455405
	4.295000	0.501447
	4.300000	0.458694
	4.305000	0.422518
	4.310000	0.455405
	4.315000	0.498158
	4.320000	0.458694
	4.325000	0.419229
	4.330000	0.455405
	4.335000	0.494869
	4.340000	0.458694
	4.345000	0.415940
	4.350000	0.458694
	4.355000	0.498158
	4.360000	0.461982
	4.365000	0.422518
	4.370000	0.458694
	4.375000	0.498158
	4.380000	0.455405
	4.385000	0.419229
	4.390000	0.455405
	4.395000	0.498158
	4.400000	0.458694
	4.405000	0.419229
	4.410000	0.455405
	4.415000	0.498158
	4.420000	0.458694
	4.425000	0.419229
	4.430000	0.445539
	4.435000	0.494869
	4.440000	0.461982
	4.445000	0.419229
	4.450000	0.455405
	4.455000	0.501447
	4.460000	0.455405
	4.465000	0.419229
	4.470000	0.458694
	4.475000	0.501447
	4.480000	0.458694
	4.485000	0.425806
	4.490000	0.458694
	4.495000	0.498158
	4.500000	0.461982
	4.505000	0.419229
	4.510000	0.458694
	4.515000	0.498158
	4.520000	0.455405
	4.525000	0.415940
	4.530000	0.458694
	4.535000	0.501447
	4.540000	0.455405
	4.545000	0.415940
	4.550000	0.452116
	4.555000	0.498158
	4.560000	0.458694
	4.565000	0.419229
	4.570000	0.458694
	4.575000	0.494869
	4.580000	0.455405
	4.585000	0.419229
	4.590000	0.452116
	4.595000	0.498158
	4.600000	0.458694
	4.605000	0.419229
	4.610000	0.458694
	4.615000	0.498158
	4.620000	0.455405
	4.625000	0.419229
	4.630000	0.455405
	4.635000	0.491581
	4.640000	0.458694
	4.645000	0.415940
	4.650000	0.458694
	4.655000	0.494869
	4.660000	0.452116
	4.665000	0.409363
	4.670000	0.455405
	4.675000	0.498158
	4.680000	0.458694
	4.685000	0.412651
	4.690000	0.452116
	4.695000	0.494869
	4.700000	0.452116
	4.705000	0.422518
	4.710000	0.452116
	4.715000	0.494869
	4.720000	0.455405
	4.725000	0.412651
	4.730000	0.455405
	4.735000	0.494869
	4.740000	0.448827
	4.745000	0.415940
	4.750000	0.455405
	4.755000	0.494869
	4.760000	0.458694
	4.765000	0.415940
	4.770000	0.455405
	4.775000	0.501447
	4.780000	0.452116
	4.785000	0.419229
	4.790000	0.455405
	4.795000	0.494869
	4.800000	0.455405
	4.805000	0.419229
	4.810000	0.458694
	4.815000	0.494869
	4.820000	0.455405
	4.825000	0.415940
	4.830000	0.455405
	4.835000	0.498158
	4.840000	0.452116
	4.845000	0.412651
	4.850000	0.458694
	4.855000	0.494869
	4.860000	0.458694
	4.865000	0.419229
	4.870000	0.455405
	4.875000	0.498158
	4.880000	0.452116
	4.885000	0.415940
	4.890000	0.458694
	4.895000	0.494869
	4.900000	0.452116
	4.905000	0.419229
	4.910000	0.452116
	4.915000	0.498158
	4.920000	0.455405
	4.925000	0.412651
	4.930000	0.458694
	4.935000	0.498158
	4.940000	0.458694
	4.945000	0.415940
	4.950000	0.455405
	4.955000	0.494869
	4.960000	0.458694
	4.965000	0.419229
	4.970000	0.452116
	4.975000	0.498158
	4.980000	0.455405
	4.985000	0.415940
	4.990000	0.455405
	4.995000	0.491581
	5.000000	0.455405
	5.005000	0.415940
	5.010000	0.458694
	5.015000	0.494869
	5.020000	0.452116
	5.025000	0.415940
	5.030000	0.452116
	5.035000	0.494869
	5.040000	0.452116
	5.045000	0.412651
	5.050000	0.458694
	5.055000	0.494869
	5.060000	0.452116
	5.065000	0.409363
	5.070000	0.458694
	5.075000	0.498158
	5.080000	0.452116
	5.085000	0.412651
	5.090000	0.452116
	5.095000	0.494869
	5.100000	0.448827
	5.105000	0.415940
	5.110000	0.455405
	5.115000	0.498158
	5.120000	0.452116
	5.125000	0.412651
	5.130000	0.458694
	5.135000	0.494869
	5.140000	0.452116
	5.145000	0.412651
	5.150000	0.455405
	5.155000	0.491581
	5.160000	0.455405
	5.165000	0.412651
	5.170000	0.455405
	5.175000	0.494869
	5.180000	0.452116
	5.185000	0.415940
	5.190000	0.455405
	5.195000	0.491581
	5.200000	0.455405
	5.205000	0.409363
	5.210000	0.455405
	5.215000	0.494869
	5.220000	0.458694
	5.225000	0.412651
	5.230000	0.461982
	5.235000	0.494869
	5.240000	0.448827
	5.245000	0.409363
	5.250000	0.458694
	5.255000	0.491581
	5.260000	0.452116
	5.265000	0.419229
	5.270000	0.452116
	5.275000	0.494869
	5.280000	0.452116
	5.285000	0.415940
	5.290000	0.458694
	5.295000	0.498158
	5.300000	0.452116
	5.305000	0.412651
	5.310000	0.458694
	5.315000	0.494869
	5.320000	0.452116
	5.325000	0.415940
	5.330000	0.458694
	5.335000	0.491581
	5.340000	0.452116
	5.345000	0.412651
	5.350000	0.455405
	5.355000	0.494869
	5.360000	0.448827
	5.365000	0.412651
	5.370000	0.455405
	5.375000	0.494869
	5.380000	0.452116
	5.385000	0.412651
	5.390000	0.448827
	5.395000	0.494869
	5.400000	0.448827
	5.405000	0.412651
	5.410000	0.448827
	5.415000	0.491581
	5.420000	0.452116
	5.425000	0.415940
	5.430000	0.458694
	5.435000	0.498158
	5.440000	0.448827
	5.445000	0.412651
	5.450000	0.452116
	5.455000	0.488292
	5.460000	0.448827
	5.465000	0.409363
	5.470000	0.452116
	5.475000	0.491581
	5.480000	0.448827
	5.485000	0.412651
	5.490000	0.452116
	5.495000	0.498158
	5.500000	0.452116
	5.505000	0.412651
	5.510000	0.455405
	5.515000	0.491581
	5.520000	0.445539
	5.525000	0.412651
	5.530000	0.455405
	5.535000	0.494869
	5.540000	0.445539
	5.545000	0.412651
	5.550000	0.452116
	5.555000	0.494869
	5.560000	0.448827
	5.565000	0.412651
	5.570000	0.452116
	5.575000	0.491581
	5.580000	0.445539
	5.585000	0.409363
	5.590000	0.452116
	5.595000	0.488292
	5.600000	0.448827
	5.605000	0.409363
	5.610000	0.452116
	5.615000	0.491581
	5.620000	0.448827
	5.625000	0.409363
	5.630000	0.448827
	5.635000	0.488292
	5.640000	0.445539
	5.645000	0.406074
	5.650000	0.448827
	5.655000	0.488292
	5.660000	0.445539
	5.665000	0.406074
	5.670000	0.452116
	5.675000	0.485003
	5.680000	0.445539
	5.685000	0.409363
	5.690000	0.448827
	5.695000	0.488292
	5.700000	0.442250
	5.705000	0.406074
	5.710000	0.448827
	5.715000	0.485003
	5.720000	0.442250
	5.725000	0.402785
	5.730000	0.448827
	5.735000	0.485003
	5.740000	0.438961
	5.745000	0.402785
	5.750000	0.445539
	5.755000	0.481715
	5.760000	0.442250
	5.765000	0.399496
	5.770000	0.442250
	5.775000	0.478426
	5.780000	0.435672
	5.785000	0.399496
	5.790000	0.445539
	5.795000	0.478426
	5.800000	0.438961
	5.805000	0.396208
	5.810000	0.442250
	5.815000	0.478426
	5.820000	0.435672
	5.825000	0.396208
	5.830000	0.438961
	5.835000	0.481715
	5.840000	0.432384
	5.845000	0.392919
	5.850000	0.435672
	5.855000	0.471848
	5.860000	0.429095
	5.865000	0.379764
	5.870000	0.419229
	5.875000	0.448827
	5.880000	0.402785
	5.885000	0.360032
	5.890000	0.396208
	5.895000	0.432384
	5.900000	0.389630
	5.905000	0.350166
	5.910000	0.392919
	5.915000	0.425806
	5.920000	0.386342
	5.925000	0.343588
	5.930000	0.379764
	5.935000	0.429095
	5.940000	0.379764
	5.945000	0.343588
	5.950000	0.386342
	5.955000	0.422518
	5.960000	0.379764
	5.965000	0.346877
	5.970000	0.389630
	5.975000	0.425806
	5.980000	0.379764
	5.985000	0.350166
	5.990000	0.392919
	5.995000	0.425806
	6.000000	0.383053
	6.005000	0.343588
	6.010000	0.386342
	6.015000	0.422518
	6.020000	0.379764
	6.025000	0.343588
	6.030000	0.386342
	6.035000	0.422518
	6.040000	0.379764
	6.045000	0.340299
	6.050000	0.386342
	6.055000	0.425806
	6.060000	0.379764
	6.065000	0.346877
	6.070000	0.386342
	6.075000	0.425806
	6.080000	0.383053
	6.085000	0.343588
	6.090000	0.389630
	6.095000	0.422518
	6.100000	0.386342
	6.105000	0.346877
	6.110000	0.389630
	6.115000	0.425806
	6.120000	0.379764
	6.125000	0.350166
	6.130000	0.389630
	6.135000	0.425806
	6.140000	0.383053
	6.145000	0.346877
	6.150000	0.389630
	6.155000	0.429095
	6.160000	0.386342
	6.165000	0.346877
	6.170000	0.392919
	6.175000	0.429095
	6.180000	0.383053
	6.185000	0.353454
	6.190000	0.392919
	6.195000	0.429095
	6.200000	0.386342
	6.205000	0.353454
	6.210000	0.396208
	6.215000	0.432384
	6.220000	0.386342
	6.225000	0.350166
	6.230000	0.392919
	6.235000	0.432384
	6.240000	0.386342
	6.245000	0.356743
	6.250000	0.399496
	6.255000	0.435672
	6.260000	0.389630
	6.265000	0.356743
	6.270000	0.399496
	6.275000	0.435672
	6.280000	0.386342
	6.285000	0.353454
	6.290000	0.399496
	6.295000	0.435672
	6.300000	0.392919
	6.305000	0.360032
	6.310000	0.396208
	6.315000	0.435672
	6.320000	0.389630
	6.325000	0.356743
	6.330000	0.406074
	6.335000	0.435672
	6.340000	0.389630
	6.345000	0.360032
	6.350000	0.402785
	6.355000	0.442250
	6.360000	0.396208
	6.365000	0.356743
	6.370000	0.402785
	6.375000	0.438961
	6.380000	0.396208
	6.385000	0.360032
	6.390000	0.402785
	6.395000	0.438961
	6.400000	0.402785
	6.405000	0.360032
	6.410000	0.399496
	6.415000	0.442250
	6.420000	0.396208
	6.425000	0.363321
	6.430000	0.402785
	6.435000	0.438961
	6.440000	0.396208
	6.445000	0.360032
	6.450000	0.409363
	6.455000	0.442250
	6.460000	0.402785
	6.465000	0.363321
	6.470000	0.406074
	6.475000	0.442250
	6.480000	0.399496
	6.485000	0.366609
	6.490000	0.406074
	6.495000	0.445539
	6.500000	0.402785
	6.505000	0.363321
	6.510000	0.406074
	6.515000	0.445539
	6.520000	0.399496
	6.525000	0.363321
	6.530000	0.409363
	6.535000	0.445539
	6.540000	0.399496
	6.545000	0.366609
	6.550000	0.409363
	6.555000	0.445539
	6.560000	0.406074
	6.565000	0.369898
	6.570000	0.412651
	6.575000	0.452116
	6.580000	0.406074
	6.585000	0.373187
	6.590000	0.412651
	6.595000	0.452116
	6.600000	0.402785
	6.605000	0.373187
	6.610000	0.412651
	6.615000	0.452116
	6.620000	0.406074
	6.625000	0.369898
	6.630000	0.415940
	6.635000	0.452116
	6.640000	0.409363
	6.645000	0.369898
	6.650000	0.415940
	6.655000	0.448827
	6.660000	0.406074
	6.665000	0.366609
	6.670000	0.415940
	6.675000	0.452116
	6.680000	0.406074
	6.685000	0.373187
	6.690000	0.419229
	6.695000	0.452116
	6.700000	0.406074
	6.705000	0.373187
	6.710000	0.412651
	6.715000	0.452116
	6.720000	0.409363
	6.725000	0.366609
	6.730000	0.419229
	6.735000	0.452116
	6.740000	0.409363
	6.745000	0.373187
	6.750000	0.419229
	6.755000	0.458694
	6.760000	0.409363
	6.765000	0.376475
	6.770000	0.419229
	6.775000	0.455405
	6.780000	0.406074
	6.785000	0.373187
	6.790000	0.415940
	6.795000	0.455405
	6.800000	0.409363
	6.805000	0.376475
	6.810000	0.415940
	6.815000	0.452116
	6.820000	0.409363
	6.825000	0.376475
	6.830000	0.419229
	6.835000	0.455405
	6.840000	0.412651
	6.845000	0.376475
	6.850000	0.419229
	6.855000	0.458694
	6.860000	0.412651
	6.865000	0.376475
	6.870000	0.422518
	6.875000	0.452116
	6.880000	0.412651
	6.885000	0.379764
	6.890000	0.425806
	6.895000	0.458694
	6.900000	0.409363
	6.905000	0.373187
	6.910000	0.419229
	6.915000	0.452116
	6.920000	0.415940
	6.925000	0.376475
	6.930000	0.415940
	6.935000	0.458694
	6.940000	0.415940
	6.945000	0.379764
	6.950000	0.422518
	6.955000	0.455405
	6.960000	0.412651
	6.965000	0.379764
	6.970000	0.419229
	6.975000	0.458694
	6.980000	0.406074
	6.985000	0.373187
	6.990000	0.422518
	6.995000	0.458694
	7.000000	0.412651
	7.005000	0.373187
	7.010000	0.419229
	7.015000	0.455405
	7.020000	0.412651
	7.025000	0.376475
	7.030000	0.422518
	7.035000	0.461982
	7.040000	0.412651
	7.045000	0.379764
	7.050000	0.422518
	7.055000	0.458694
	7.060000	0.412651
	7.065000	0.379764
	7.070000	0.422518
	7.075000	0.458694
	7.080000	0.415940
	7.085000	0.376475
	7.090000	0.425806
	7.095000	0.458694
	7.100000	0.415940
	7.105000	0.379764
	7.110000	0.419229
	7.115000	0.458694
	7.120000	0.412651
	7.125000	0.373187
	7.130000	0.422518
	7.135000	0.458694
	7.140000	0.412651
	7.145000	0.383053
	7.150000	0.422518
	7.155000	0.461982
	7.160000	0.415940
	7.165000	0.379764
	7.170000	0.425806
	7.175000	0.458694
	7.180000	0.415940
	7.185000	0.379764
	7.190000	0.422518
	7.195000	0.461982
	7.200000	0.415940
	7.205000	0.383053
	7.210000	0.429095
	7.215000	0.461982
	7.220000	0.415940
	7.225000	0.379764
	7.230000	0.425806
	7.235000	0.461982
	7.240000	0.412651
	7.245000	0.379764
	7.250000	0.425806
	7.255000	0.461982
	7.260000	0.419229
	7.265000	0.379764
	7.270000	0.422518
	7.275000	0.461982
	7.280000	0.419229
	7.285000	0.379764
	7.290000	0.422518
	7.295000	0.465271
	7.300000	0.412651
	7.305000	0.383053
	7.310000	0.429095
	7.315000	0.465271
	7.320000	0.415940
	7.325000	0.379764
	7.330000	0.422518
	7.335000	0.458694
	7.340000	0.419229
	7.345000	0.383053
	7.350000	0.429095
	7.355000	0.458694
	7.360000	0.415940
	7.365000	0.383053
	7.370000	0.425806
	7.375000	0.461982
	7.380000	0.419229
	7.385000	0.383053
	7.390000	0.425806
	7.395000	0.461982
	7.400000	0.419229
	7.405000	0.383053
	7.410000	0.429095
	7.415000	0.461982
	7.420000	0.415940
	7.425000	0.386342
	7.430000	0.425806
	7.435000	0.461982
	7.440000	0.419229
	7.445000	0.386342
	7.450000	0.432384
	7.455000	0.461982
	7.460000	0.422518
	7.465000	0.386342
	7.470000	0.432384
	7.475000	0.465271
	7.480000	0.415940
	7.485000	0.383053
	7.490000	0.429095
	7.495000	0.465271
	7.500000	0.419229
	7.505000	0.386342
	7.510000	0.435672
	7.515000	0.465271
	7.520000	0.422518
	7.525000	0.386342
	7.530000	0.432384
	7.535000	0.468560
	7.540000	0.419229
	7.545000	0.383053
	7.550000	0.429095
	7.555000	0.465271
	7.560000	0.419229
	7.565000	0.389630
	7.570000	0.429095
	7.575000	0.458694
	7.580000	0.415940
	7.585000	0.389630
	7.590000	0.432384
	7.595000	0.465271
	7.600000	0.422518
	7.605000	0.386342
	7.610000	0.432384
	7.615000	0.468560
	7.620000	0.422518
	7.625000	0.383053
	7.630000	0.432384
	7.635000	0.465271
	7.640000	0.419229
	7.645000	0.386342
	7.650000	0.432384
	7.655000	0.465271
	7.660000	0.422518
	7.665000	0.386342
	7.670000	0.429095
	7.675000	0.465271
	7.680000	0.419229
	7.685000	0.383053
	7.690000	0.432384
	7.695000	0.465271
	7.700000	0.419229
	7.705000	0.386342
	7.710000	0.432384
	7.715000	0.468560
	7.720000	0.419229
	7.725000	0.389630
	7.730000	0.432384
	7.735000	0.465271
	7.740000	0.419229
	7.745000	0.383053
	7.750000	0.432384
	7.755000	0.465271
	7.760000	0.422518
	7.765000	0.389630
	7.770000	0.432384
	7.775000	0.465271
	7.780000	0.422518
	7.785000	0.389630
	7.790000	0.432384
	7.795000	0.468560
	7.800000	0.419229
	7.805000	0.386342
	7.810000	0.432384
	7.815000	0.465271
	7.820000	0.422518
	7.825000	0.383053
	7.830000	0.432384
	7.835000	0.468560
	7.840000	0.419229
	7.845000	0.386342
	7.850000	0.429095
	7.855000	0.465271
	7.860000	0.422518
	7.865000	0.386342
	7.870000	0.432384
	7.875000	0.465271
	7.880000	0.422518
	7.885000	0.386342
	7.890000	0.432384
	7.895000	0.465271
	7.900000	0.419229
	7.905000	0.386342
	7.910000	0.432384
	7.915000	0.468560
	7.920000	0.422518
	7.925000	0.389630
	7.930000	0.435672
	7.935000	0.471848
	7.940000	0.419229
	7.945000	0.389630
	7.950000	0.432384
	7.955000	0.468560
	7.960000	0.425806
	7.965000	0.386342
	7.970000	0.435672
	7.975000	0.475137
	7.980000	0.425806
	7.985000	0.389630
	7.990000	0.442250
	7.995000	0.475137
	8.000000	0.429095
	8.005000	0.396208
	8.010000	0.442250
	8.015000	0.481715
	8.020000	0.429095
	8.025000	0.396208
	8.030000	0.448827
	8.035000	0.478426
	8.040000	0.432384
	8.045000	0.402785
	8.050000	0.445539
	8.055000	0.478426
	8.060000	0.435672
	8.065000	0.399496
	8.070000	0.445539
	8.075000	0.478426
	8.080000	0.435672
	8.085000	0.406074
	8.090000	0.445539
	8.095000	0.478426
	8.100000	0.432384
	8.105000	0.406074
	8.110000	0.445539
	8.115000	0.478426
	8.120000	0.432384
	8.125000	0.392919
	8.130000	0.445539
	8.135000	0.481715
	8.140000	0.435672
	8.145000	0.399496
	8.150000	0.445539
	8.155000	0.478426
	8.160000	0.432384
	8.165000	0.402785
	8.170000	0.442250
	8.175000	0.478426
	8.180000	0.435672
	8.185000	0.402785
	8.190000	0.445539
	8.195000	0.478426
	8.200000	0.435672
	8.205000	0.409363
	8.210000	0.448827
	8.215000	0.488292
	8.220000	0.435672
	8.225000	0.406074
	8.230000	0.448827
	8.235000	0.481715
	8.240000	0.435672
	8.245000	0.402785
	8.250000	0.452116
	8.255000	0.478426
	8.260000	0.435672
	8.265000	0.406074
	8.270000	0.448827
	8.275000	0.478426
	8.280000	0.432384
	8.285000	0.402785
	8.290000	0.442250
	8.295000	0.475137
	8.300000	0.429095
	8.305000	0.399496
	8.310000	0.445539
	8.315000	0.478426
	8.320000	0.422518
	8.325000	0.396208
	8.330000	0.442250
	8.335000	0.475137
	8.340000	0.422518
	8.345000	0.396208
	8.350000	0.442250
	8.355000	0.471848
	8.360000	0.435672
	8.365000	0.392919
	8.370000	0.442250
	8.375000	0.475137
	8.380000	0.425806
	8.385000	0.399496
	8.390000	0.438961
	8.395000	0.471848
	8.400000	0.432384
	8.405000	0.396208
	8.410000	0.442250
	8.415000	0.475137
	8.420000	0.422518
	8.425000	0.396208
	8.430000	0.438961
	8.435000	0.475137
	8.440000	0.422518
	8.445000	0.392919
	8.450000	0.442250
	8.455000	0.471848
	8.460000	0.425806
	8.465000	0.392919
	8.470000	0.438961
	8.475000	0.471848
	8.480000	0.429095
	8.485000	0.392919
	8.490000	0.438961
	8.495000	0.471848
	8.500000	0.422518
	8.505000	0.402785
	8.510000	0.442250
	8.515000	0.471848
	8.520000	0.425806
	8.525000	0.396208
	8.530000	0.445539
	8.535000	0.471848
	8.540000	0.429095
	8.545000	0.396208
	8.550000	0.438961
	8.555000	0.475137
	8.560000	0.425806
	8.565000	0.399496
	8.570000	0.438961
	8.575000	0.475137
	8.580000	0.425806
	8.585000	0.399496
	8.590000	0.438961
	8.595000	0.475137
	8.600000	0.425806
	8.605000	0.392919
	8.610000	0.442250
	8.615000	0.478426
	8.620000	0.425806
	8.625000	0.392919
	8.630000	0.445539
	8.635000	0.471848
	8.640000	0.429095
	8.645000	0.396208
	8.650000	0.438961
	8.655000	0.475137
	8.660000	0.435672
	8.665000	0.392919
	8.670000	0.442250
	8.675000	0.471848
	8.680000	0.425806
	8.685000	0.392919
	8.690000	0.438961
	8.695000	0.475137
	8.700000	0.429095
	8.705000	0.396208
	8.710000	0.445539
	8.715000	0.475137
	8.720000	0.425806
	8.725000	0.396208
	8.730000	0.442250
	8.735000	0.475137
	8.740000	0.425806
	8.745000	0.399496
	8.750000	0.442250
	8.755000	0.475137
	8.760000	0.425806
	8.765000	0.396208
	8.770000	0.445539
	8.775000	0.475137
	8.780000	0.425806
	8.785000	0.392919
	8.790000	0.442250
	8.795000	0.475137
	8.800000	0.429095
	8.805000	0.399496
	8.810000	0.445539
	8.815000	0.471848
	8.820000	0.422518
	8.825000	0.396208
	8.830000	0.438961
	8.835000	0.475137
	8.840000	0.425806
	8.845000	0.392919
	8.850000	0.442250
	8.855000	0.475137
	8.860000	0.425806
	8.865000	0.396208
	8.870000	0.445539
	8.875000	0.478426
	8.880000	0.429095
	8.885000	0.392919
	8.890000	0.442250
	8.895000	0.471848
	8.900000	0.422518
	8.905000	0.396208
	8.910000	0.442250
	8.915000	0.471848
	8.920000	0.422518
	8.925000	0.392919
	8.930000	0.442250
	8.935000	0.471848
	8.940000	0.425806
	8.945000	0.392919
	8.950000	0.442250
	8.955000	0.475137
	8.960000	0.432384
	8.965000	0.399496
	8.970000	0.445539
	8.975000	0.475137
	8.980000	0.425806
	8.985000	0.392919
	8.990000	0.445539
	8.995000	0.471848
	9.000000	0.432384
	9.005000	0.399496
	9.010000	0.442250
	9.015000	0.475137
	9.020000	0.425806
	9.025000	0.396208
	9.030000	0.442250
	9.035000	0.475137
	9.040000	0.425806
	9.045000	0.396208
	9.050000	0.442250
	9.055000	0.471848
	9.060000	0.425806
	9.065000	0.396208
	9.070000	0.445539
	9.075000	0.471848
	9.080000	0.425806
	9.085000	0.399496
	9.090000	0.438961
	9.095000	0.475137
	9.100000	0.429095
	9.105000	0.399496
	9.110000	0.448827
	9.115000	0.475137
	9.120000	0.425806
	9.125000	0.402785
	9.130000	0.448827
	9.135000	0.475137
	9.140000	0.422518
	9.145000	0.392919
	9.150000	0.442250
	9.155000	0.475137
	9.160000	0.429095
	9.165000	0.399496
	9.170000	0.445539
	9.175000	0.475137
	9.180000	0.425806
	9.185000	0.396208
	9.190000	0.442250
	9.195000	0.471848
	9.200000	0.425806
	9.205000	0.392919
	9.210000	0.442250
	9.215000	0.471848
	9.220000	0.419229
	9.225000	0.389630
	9.230000	0.438961
	9.235000	0.468560
	9.240000	0.422518
	9.245000	0.389630
	9.250000	0.432384
	9.255000	0.468560
	9.260000	0.415940
	9.265000	0.386342
	9.270000	0.432384
	9.275000	0.465271
	9.280000	0.415940
	9.285000	0.379764
	9.290000	0.429095
	9.295000	0.465271
	9.300000	0.412651
	9.305000	0.376475
	9.310000	0.432384
	9.315000	0.455405
	9.320000	0.406074
	9.325000	0.376475
	9.330000	0.425806
	9.335000	0.461982
	9.340000	0.406074
	9.345000	0.376475
	9.350000	0.422518
	9.355000	0.452116
	9.360000	0.406074
	9.365000	0.366609
	9.370000	0.415940
	9.375000	0.445539
	9.380000	0.386342
	9.385000	0.356743
	9.390000	0.399496
	9.395000	0.432384
	9.400000	0.376475
	9.405000	0.346877
	9.410000	0.396208
	9.415000	0.425806
	9.420000	0.373187
	9.425000	0.343588
	9.430000	0.392919
	9.435000	0.422518
	9.440000	0.369898
	9.445000	0.343588
	9.450000	0.389630
	9.455000	0.412651
	9.460000	0.369898
	9.465000	0.343588
	9.470000	0.386342
	9.475000	0.415940
	9.480000	0.366609
	9.485000	0.340299
	9.490000	0.386342
	9.495000	0.415940
	9.500000	0.366609
	9.505000	0.340299
	9.510000	0.389630
	9.515000	0.419229
	9.520000	0.369898
	9.525000	0.337011
	9.530000	0.389630
	9.535000	0.415940
	9.540000	0.369898
	9.545000	0.340299
	9.550000	0.389630
	9.555000	0.419229
	9.560000	0.373187
	9.565000	0.343588
	9.570000	0.386342
	9.575000	0.419229
	9.580000	0.373187
	9.585000	0.340299
	9.590000	0.389630
	9.595000	0.419229
	9.600000	0.369898
	9.605000	0.340299
	9.610000	0.389630
	9.615000	0.415940
	9.620000	0.369898
	9.625000	0.340299
	9.630000	0.389630
	9.635000	0.422518
	9.640000	0.376475
	9.645000	0.343588
	9.650000	0.392919
	9.655000	0.422518
	9.660000	0.376475
	9.665000	0.343588
	9.670000	0.389630
	9.675000	0.422518
	9.680000	0.369898
	9.685000	0.346877
	9.690000	0.392919
	9.695000	0.422518
	9.700000	0.373187
	9.705000	0.346877
	9.710000	0.392919
	9.715000	0.429095
	9.720000	0.379764
	9.725000	0.343588
	9.730000	0.396208
	9.735000	0.425806
	9.740000	0.376475
	9.745000	0.350166
	9.750000	0.396208
	9.755000	0.425806
	9.760000	0.379764
	9.765000	0.346877
	9.770000	0.392919
	9.775000	0.425806
	9.780000	0.379764
	9.785000	0.350166
	9.790000	0.399496
	9.795000	0.432384
	9.800000	0.379764
	9.805000	0.350166
	9.810000	0.399496
	9.815000	0.429095
	9.820000	0.383053
	9.825000	0.353454
	9.830000	0.399496
	9.835000	0.432384
	9.840000	0.379764
	9.845000	0.353454
	9.850000	0.399496
	9.855000	0.429095
	9.860000	0.383053
	9.865000	0.353454
	9.870000	0.399496
	9.875000	0.432384
	9.880000	0.383053
	9.885000	0.353454
	9.890000	0.402785
	9.895000	0.432384
	9.900000	0.386342
	9.905000	0.356743
	9.910000	0.406074
	9.915000	0.435672
	9.920000	0.379764
	9.925000	0.356743
	9.930000	0.402785
	9.935000	0.432384
	9.940000	0.386342
	9.945000	0.360032
	9.950000	0.406074
	9.955000	0.435672
	9.960000	0.383053
	9.965000	0.360032
	9.970000	0.402785
	9.975000	0.435672
	9.980000	0.386342
	9.985000	0.353454
	9.990000	0.406074
	9.995000	0.429095
	10.000000	0.386342
	10.005000	0.360032
	10.010000	0.406074
	10.015000	0.435672
	10.020000	0.386342
	10.025000	0.360032
	10.030000	0.406074
	10.035000	0.438961
	10.040000	0.386342
	10.045000	0.353454
	10.050000	0.406074
	10.055000	0.435672
	10.060000	0.392919
	10.065000	0.360032
	10.070000	0.409363
	10.075000	0.438961
	10.080000	0.389630
	10.085000	0.353454
	10.090000	0.406074
	10.095000	0.438961
	10.100000	0.392919
	10.105000	0.356743
	10.110000	0.406074
	10.115000	0.435672
	10.120000	0.389630
	10.125000	0.360032
	10.130000	0.412651
	10.135000	0.442250
	10.140000	0.389630
	10.145000	0.363321
	10.150000	0.412651
	10.155000	0.438961
	10.160000	0.392919
	10.165000	0.366609
	10.170000	0.412651
	10.175000	0.442250
	10.180000	0.392919
	10.185000	0.366609
	10.190000	0.409363
	10.195000	0.442250
	10.200000	0.392919
	10.205000	0.363321
	10.210000	0.412651
	10.215000	0.438961
	10.220000	0.392919
	10.225000	0.366609
	10.230000	0.412651
	10.235000	0.445539
	10.240000	0.399496
	10.245000	0.369898
	10.250000	0.415940
	10.255000	0.445539
	10.260000	0.396208
	10.265000	0.363321
	10.270000	0.415940
	10.275000	0.448827
	10.280000	0.392919
	10.285000	0.369898
	10.290000	0.419229
	10.295000	0.445539
	10.300000	0.396208
	10.305000	0.369898
	10.310000	0.412651
	10.315000	0.445539
	10.320000	0.392919
	10.325000	0.366609
	10.330000	0.415940
	10.335000	0.445539
	10.340000	0.396208
	10.345000	0.373187
	10.350000	0.415940
	10.355000	0.445539
	10.360000	0.399496
	10.365000	0.369898
	10.370000	0.415940
	10.375000	0.445539
	10.380000	0.396208
	10.385000	0.376475
	10.390000	0.419229
	10.395000	0.448827
	10.400000	0.392919
	10.405000	0.369898
	10.410000	0.419229
	10.415000	0.445539
	10.420000	0.399496
	10.425000	0.366609
	10.430000	0.419229
	10.435000	0.448827
	10.440000	0.396208
	10.445000	0.369898
	10.450000	0.419229
	10.455000	0.448827
	10.460000	0.402785
	10.465000	0.369898
	10.470000	0.415940
	10.475000	0.448827
	10.480000	0.402785
	10.485000	0.373187
	10.490000	0.419229
	10.495000	0.452116
	10.500000	0.399496
	10.505000	0.369898
	10.510000	0.422518
	10.515000	0.445539
	10.520000	0.396208
	10.525000	0.369898
	10.530000	0.422518
	10.535000	0.445539
	10.540000	0.399496
	10.545000	0.373187
	10.550000	0.415940
	10.555000	0.452116
	10.560000	0.399496
	10.565000	0.369898
	10.570000	0.422518
	10.575000	0.448827
	10.580000	0.402785
	10.585000	0.369898
	10.590000	0.422518
	10.595000	0.445539
	10.600000	0.399496
	10.605000	0.369898
	10.610000	0.419229
	10.615000	0.458694
	10.620000	0.402785
	10.625000	0.379764
	10.630000	0.425806
	10.635000	0.452116
	10.640000	0.399496
	10.645000	0.376475
	10.650000	0.419229
	10.655000	0.452116
	10.660000	0.402785
	10.665000	0.373187
	10.670000	0.425806
	10.675000	0.452116
	10.680000	0.409363
	10.685000	0.373187
	10.690000	0.422518
	10.695000	0.448827
	10.700000	0.402785
	10.705000	0.379764
	10.710000	0.422518
	10.715000	0.452116
	10.720000	0.402785
	10.725000	0.373187
	10.730000	0.425806
	10.735000	0.452116
	10.740000	0.402785
	10.745000	0.379764
	10.750000	0.425806
	10.755000	0.452116
	10.760000	0.402785
	10.765000	0.376475
	10.770000	0.425806
	10.775000	0.455405
	10.780000	0.406074
	10.785000	0.376475
	10.790000	0.422518
	10.795000	0.452116
	10.800000	0.402785
	10.805000	0.376475
	10.810000	0.429095
	10.815000	0.445539
	10.820000	0.399496
	10.825000	0.376475
	10.830000	0.425806
	10.835000	0.455405
	10.840000	0.402785
	10.845000	0.376475
	10.850000	0.425806
	10.855000	0.448827
	10.860000	0.402785
	10.865000	0.376475
	10.870000	0.422518
	10.875000	0.455405
	10.880000	0.406074
	10.885000	0.379764
	10.890000	0.429095
	10.895000	0.452116
	10.900000	0.402785
	10.905000	0.376475
	10.910000	0.425806
	10.915000	0.452116
	10.920000	0.406074
	10.925000	0.376475
	10.930000	0.425806
	10.935000	0.455405
	10.940000	0.402785
	10.945000	0.373187
	10.950000	0.432384
	10.955000	0.455405
	10.960000	0.402785
	10.965000	0.379764
	10.970000	0.425806
	10.975000	0.452116
	10.980000	0.406074
	10.985000	0.376475
	10.990000	0.425806
	10.995000	0.452116
	11.000000	0.406074
	11.005000	0.379764
	11.010000	0.425806
	11.015000	0.455405
	11.020000	0.406074
	11.025000	0.376475
	11.030000	0.429095
	11.035000	0.458694
	11.040000	0.406074
	11.045000	0.376475
	11.050000	0.429095
	11.055000	0.452116
	11.060000	0.406074
	11.065000	0.379764
	11.070000	0.429095
	11.075000	0.458694
	11.080000	0.402785
	11.085000	0.376475
	11.090000	0.425806
	11.095000	0.458694
	11.100000	0.399496
	11.105000	0.376475
	11.110000	0.429095
	11.115000	0.458694
	11.120000	0.406074
	11.125000	0.379764
	11.130000	0.429095
	11.135000	0.458694
	11.140000	0.402785
	11.145000	0.379764
	11.150000	0.432384
	11.155000	0.455405
	11.160000	0.399496
	11.165000	0.386342
	11.170000	0.435672
	11.175000	0.458694
	11.180000	0.409363
	11.185000	0.383053
	11.190000	0.432384
	11.195000	0.461982
	11.200000	0.406074
	11.205000	0.383053
	11.210000	0.425806
	11.215000	0.458694
	11.220000	0.406074
	11.225000	0.379764
	11.230000	0.432384
	11.235000	0.458694
	11.240000	0.402785
	11.245000	0.379764
	11.250000	0.432384
	11.255000	0.461982
	11.260000	0.406074
	11.265000	0.379764
	11.270000	0.429095
	11.275000	0.455405
	11.280000	0.406074
	11.285000	0.383053
	11.290000	0.432384
	11.295000	0.461982
	11.300000	0.409363
	11.305000	0.383053
	11.310000	0.429095
	11.315000	0.458694
	11.320000	0.409363
	11.325000	0.383053
	11.330000	0.432384
	11.335000	0.461982
	11.340000	0.406074
	11.345000	0.383053
	11.350000	0.429095
	11.355000	0.461982
	11.360000	0.409363
	11.365000	0.383053
	11.370000	0.432384
	11.375000	0.461982
	11.380000	0.406074
	11.385000	0.383053
	11.390000	0.432384
	11.395000	0.461982
	11.400000	0.412651
	11.405000	0.383053
	11.410000	0.438961
	11.415000	0.458694
	11.420000	0.409363
	11.425000	0.383053
	11.430000	0.432384
	11.435000	0.461982
	11.440000	0.412651
	11.445000	0.386342
	11.450000	0.435672
	11.455000	0.465271
	11.460000	0.406074
	11.465000	0.386342
	11.470000	0.435672
	11.475000	0.461982
	11.480000	0.409363
	11.485000	0.386342
	11.490000	0.432384
	11.495000	0.458694
	11.500000	0.409363
	11.505000	0.386342
	11.510000	0.435672
	11.515000	0.461982
	11.520000	0.415940
	11.525000	0.383053
	11.530000	0.435672
	11.535000	0.458694
	11.540000	0.409363
	11.545000	0.386342
	11.550000	0.432384
	11.555000	0.461982
	11.560000	0.409363
	11.565000	0.383053
	11.570000	0.438961
	11.575000	0.461982
	11.580000	0.409363
	11.585000	0.386342
	11.590000	0.435672
	11.595000	0.461982
	11.600000	0.412651
	11.605000	0.383053
	11.610000	0.435672
	11.615000	0.465271
	11.620000	0.406074
	11.625000	0.383053
	11.630000	0.435672
	11.635000	0.458694
	11.640000	0.406074
	11.645000	0.386342
	11.650000	0.435672
	11.655000	0.461982
	11.660000	0.409363
	11.665000	0.386342
	11.670000	0.435672
	11.675000	0.461982
	11.680000	0.409363
	11.685000	0.389630
	11.690000	0.435672
	11.695000	0.465271
	11.700000	0.409363
	11.705000	0.383053
	11.710000	0.438961
	11.715000	0.465271
	11.720000	0.415940
	11.725000	0.392919
	11.730000	0.438961
	11.735000	0.461982
	11.740000	0.412651
	11.745000	0.389630
	11.750000	0.438961
	11.755000	0.458694
	11.760000	0.412651
	11.765000	0.389630
	11.770000	0.435672
	11.775000	0.465271
	11.780000	0.415940
	11.785000	0.389630
	11.790000	0.442250
	11.795000	0.465271
	11.800000	0.422518
	11.805000	0.399496
	11.810000	0.448827
	11.815000	0.478426
	11.820000	0.422518
	11.825000	0.399496
	11.830000	0.448827
	11.835000	0.478426
	11.840000	0.422518
	11.845000	0.399496
	11.850000	0.448827
	11.855000	0.475137
	11.860000	0.425806
	11.865000	0.399496
	11.870000	0.445539
	11.875000	0.471848
	11.880000	0.419229
	11.885000	0.392919
	11.890000	0.445539
	11.895000	0.468560
	11.900000	0.415940
	11.905000	0.399496
	11.910000	0.445539
	11.915000	0.471848
	11.920000	0.419229
	11.925000	0.399496
	11.930000	0.445539
	11.935000	0.468560
	11.940000	0.419229
	11.945000	0.396208
	11.950000	0.452116
	11.955000	0.475137
	11.960000	0.425806
	11.965000	0.402785
	11.970000	0.445539
	11.975000	0.475137
	11.980000	0.415940
	11.985000	0.396208
	11.990000	0.442250
	11.995000	0.468560
	12.000000	0.419229
	12.005000	0.396208
	12.010000	0.448827
	12.015000	0.471848
	12.020000	0.415940
	12.025000	0.392919
	12.030000	0.442250
	12.035000	0.468560
	12.040000	0.419229
	12.045000	0.396208
	12.050000	0.445539
	12.055000	0.465271
	12.060000	0.412651
	12.065000	0.392919
	12.070000	0.445539
	12.075000	0.465271
	12.080000	0.412651
	12.085000	0.392919
	12.090000	0.445539
	12.095000	0.461982
	12.100000	0.415940
	12.105000	0.389630
	12.110000	0.445539
	12.115000	0.465271
	12.120000	0.409363
	12.125000	0.392919
	12.130000	0.442250
	12.135000	0.465271
	12.140000	0.412651
	12.145000	0.392919
	12.150000	0.445539
	12.155000	0.471848
	12.160000	0.412651
	12.165000	0.386342
	12.170000	0.442250
	12.175000	0.465271
	12.180000	0.412651
	12.185000	0.392919
	12.190000	0.438961
	12.195000	0.461982
	12.200000	0.412651
	12.205000	0.389630
	12.210000	0.438961
	12.215000	0.465271
	12.220000	0.409363
	12.225000	0.389630
	12.230000	0.438961
	12.235000	0.465271
	12.240000	0.409363
	12.245000	0.389630
	12.250000	0.438961
	12.255000	0.468560
	12.260000	0.412651
	12.265000	0.389630
	12.270000	0.435672
	12.275000	0.461982
	12.280000	0.415940
	12.285000	0.389630
	12.290000	0.438961
	12.295000	0.461982
	12.300000	0.412651
	12.305000	0.389630
	12.310000	0.442250
	12.315000	0.468560
	12.320000	0.412651
	12.325000	0.389630
	12.330000	0.438961
	12.335000	0.461982
	12.340000	0.409363
	12.345000	0.389630
	12.350000	0.442250
	12.355000	0.468560
	12.360000	0.415940
	12.365000	0.392919
	12.370000	0.442250
	12.375000	0.461982
	12.380000	0.412651
	12.385000	0.392919
	12.390000	0.442250
	12.395000	0.468560
	12.400000	0.412651
	12.405000	0.389630
	12.410000	0.438961
	12.415000	0.465271
	12.420000	0.415940
	12.425000	0.389630
	12.430000	0.442250
	12.435000	0.465271
	12.440000	0.412651
	12.445000	0.392919
	12.450000	0.438961
	12.455000	0.465271
	12.460000	0.419229
	12.465000	0.392919
	12.470000	0.445539
	12.475000	0.465271
	12.480000	0.412651
	12.485000	0.392919
	12.490000	0.442250
	12.495000	0.465271
	12.500000	0.415940
	12.505000	0.386342
	12.510000	0.445539
	12.515000	0.465271
	12.520000	0.412651
	12.525000	0.392919
	12.530000	0.438961
	12.535000	0.465271
	12.540000	0.412651
	12.545000	0.386342
	12.550000	0.442250
	12.555000	0.458694
	12.560000	0.415940
	12.565000	0.389630
	12.570000	0.438961
	12.575000	0.465271
	12.580000	0.415940
	12.585000	0.392919
	12.590000	0.445539
	12.595000	0.468560
	12.600000	0.412651
	12.605000	0.386342
	12.610000	0.445539
	12.615000	0.468560
	12.620000	0.412651
	12.625000	0.396208
	12.630000	0.445539
	12.635000	0.465271
	12.640000	0.409363
	12.645000	0.392919
	12.650000	0.438961
	12.655000	0.465271
	12.660000	0.419229
	12.665000	0.392919
	12.670000	0.442250
	12.675000	0.465271
	12.680000	0.419229
	12.685000	0.389630
	12.690000	0.445539
	12.695000	0.468560
	12.700000	0.412651
	12.705000	0.392919
	12.710000	0.438961
	12.715000	0.468560
	12.720000	0.415940
	12.725000	0.392919
	12.730000	0.445539
	12.735000	0.468560
	12.740000	0.412651
	12.745000	0.386342
	12.750000	0.438961
	12.755000	0.465271
	12.760000	0.412651
	12.765000	0.392919
	12.770000	0.445539
	12.775000	0.465271
	12.780000	0.412651
	12.785000	0.392919
	12.790000	0.445539
	12.795000	0.468560
	12.800000	0.412651
	12.805000	0.389630
	12.810000	0.438961
	12.815000	0.465271
	12.820000	0.415940
	12.825000	0.392919
	12.830000	0.438961
	12.835000	0.468560
	12.840000	0.419229
	12.845000	0.396208
	12.850000	0.445539
	12.855000	0.465271
	12.860000	0.419229
	12.865000	0.392919
	12.870000	0.442250
	12.875000	0.465271
	12.880000	0.415940
	12.885000	0.396208
	12.890000	0.438961
	12.895000	0.468560
	12.900000	0.415940
	12.905000	0.389630
	12.910000	0.438961
	12.915000	0.468560
	12.920000	0.415940
	12.925000	0.392919
	12.930000	0.442250
	12.935000	0.468560
	12.940000	0.412651
	12.945000	0.396208
	12.950000	0.445539
	12.955000	0.468560
	12.960000	0.415940
	12.965000	0.392919
	12.970000	0.438961
	12.975000	0.468560
	12.980000	0.419229
	12.985000	0.396208
	12.990000	0.445539
	12.995000	0.465271
	13.000000	0.412651
	13.005000	0.396208
	13.010000	0.438961
	13.015000	0.465271
	13.020000	0.412651
	13.025000	0.389630
	13.030000	0.445539
	13.035000	0.465271
	13.040000	0.412651
	13.045000	0.389630
	13.050000	0.442250
	13.055000	0.461982
	13.060000	0.409363
	13.065000	0.389630
	13.070000	0.442250
	13.075000	0.468560
	13.080000	0.415940
	13.085000	0.392919
	13.090000	0.442250
	13.095000	0.465271
	13.100000	0.412651
	13.105000	0.396208
	13.110000	0.442250
	13.115000	0.465271
	13.120000	0.412651
	13.125000	0.389630
	13.130000	0.445539
	13.135000	0.465271
	13.140000	0.412651
	13.145000	0.386342
	13.150000	0.442250
	13.155000	0.465271
	13.160000	0.412651
	13.165000	0.389630
	13.170000	0.442250
	13.175000	0.471848
	13.180000	0.415940
	13.185000	0.392919
	13.190000	0.442250
	13.195000	0.465271
	13.200000	0.412651
	13.205000	0.389630
	13.210000	0.442250
	13.215000	0.465271
	13.220000	0.412651
	13.225000	0.396208
	13.230000	0.445539
	13.235000	0.471848
	13.240000	0.415940
	13.245000	0.392919
	13.250000	0.445539
	13.255000	0.465271
	13.260000	0.412651
	13.265000	0.392919
	13.270000	0.438961
	13.275000	0.465271
	13.280000	0.415940
	13.285000	0.392919
	13.290000	0.445539
	13.295000	0.465271
	13.300000	0.412651
	13.305000	0.389630
	13.310000	0.438961
	13.315000	0.468560
	13.320000	0.415940
	13.325000	0.396208
	13.330000	0.445539
	13.335000	0.465271
	13.340000	0.409363
	13.345000	0.396208
	13.350000	0.448827
	13.355000	0.465271
	13.360000	0.412651
	13.365000	0.396208
	13.370000	0.445539
	13.375000	0.465271
	13.380000	0.412651
	13.385000	0.392919
	13.390000	0.445539
	13.395000	0.468560
	13.400000	0.412651
	13.405000	0.396208
	13.410000	0.445539
	13.415000	0.468560
	13.420000	0.412651
	13.425000	0.392919
	13.430000	0.448827
	13.435000	0.468560
	13.440000	0.412651
	13.445000	0.392919
	13.450000	0.442250
	13.455000	0.465271
	13.460000	0.415940
	13.465000	0.392919
	13.470000	0.445539
	13.475000	0.465271
	13.480000	0.412651
	13.485000	0.396208
	13.490000	0.448827
	13.495000	0.465271
	13.500000	0.412651
	13.505000	0.396208
	13.510000	0.445539
	13.515000	0.468560
	13.520000	0.415940
	13.525000	0.396208
	13.530000	0.442250
	13.535000	0.468560
	13.540000	0.415940
	13.545000	0.392919
	13.550000	0.445539
	13.555000	0.468560
	13.560000	0.412651
	13.565000	0.399496
	13.570000	0.448827
	13.575000	0.468560
	13.580000	0.415940
	13.585000	0.396208
	13.590000	0.445539
	13.595000	0.471848
	13.600000	0.409363
	13.605000	0.396208
	13.610000	0.442250
	13.615000	0.468560
	13.620000	0.419229
	13.625000	0.396208
	13.630000	0.445539
	13.635000	0.468560
	13.640000	0.415940
	13.645000	0.399496
	13.650000	0.445539
	13.655000	0.468560
	13.660000	0.419229
	13.665000	0.392919
	13.670000	0.445539
	13.675000	0.468560
	13.680000	0.415940
	13.685000	0.396208
	13.690000	0.448827
	13.695000	0.465271
	13.700000	0.415940
	13.705000	0.396208
	13.710000	0.448827
	13.715000	0.468560
	13.720000	0.419229
	13.725000	0.392919
	13.730000	0.442250
	13.735000	0.471848
	13.740000	0.412651
	13.745000	0.392919
	13.750000	0.442250
	13.755000	0.468560
	13.760000	0.412651
	13.765000	0.396208
	13.770000	0.445539
	13.775000	0.471848
	13.780000	0.415940
	13.785000	0.399496
	13.790000	0.448827
	13.795000	0.468560
	13.800000	0.415940
	13.805000	0.396208
	13.810000	0.448827
	13.815000	0.468560
	13.820000	0.412651
	13.825000	0.396208
	13.830000	0.448827
	13.835000	0.471848
	13.840000	0.415940
	13.845000	0.396208
	13.850000	0.452116
	13.855000	0.465271
	13.860000	0.412651
	13.865000	0.396208
	13.870000	0.452116
	13.875000	0.465271
	13.880000	0.412651
	13.885000	0.399496
	13.890000	0.448827
	13.895000	0.471848
	13.900000	0.412651
	13.905000	0.396208
	13.910000	0.448827
	13.915000	0.465271
	13.920000	0.419229
	13.925000	0.396208
	13.930000	0.452116
	13.935000	0.468560
	13.940000	0.415940
	13.945000	0.396208
	13.950000	0.445539
	13.955000	0.471848
	13.960000	0.415940
	13.965000	0.399496
	13.970000	0.452116
	13.975000	0.468560
	13.980000	0.419229
	13.985000	0.396208
	13.990000	0.448827
	13.995000	0.468560
	14.000000	0.419229
	14.005000	0.399496
	14.010000	0.448827
	14.015000	0.471848
	14.020000	0.415940
	14.025000	0.396208
	14.030000	0.448827
	14.035000	0.465271
	14.040000	0.415940
	14.045000	0.399496
	14.050000	0.442250
	14.055000	0.465271
	14.060000	0.412651
	14.065000	0.396208
	14.070000	0.448827
	14.075000	0.465271
	14.080000	0.415940
	14.085000	0.396208
	14.090000	0.445539
	14.095000	0.468560
	14.100000	0.409363
	14.105000	0.396208
	14.110000	0.448827
	14.115000	0.461982
	14.120000	0.415940
	14.125000	0.392919
	14.130000	0.445539
	14.135000	0.468560
	14.140000	0.415940
	14.145000	0.399496
	14.150000	0.445539
	14.155000	0.471848
	14.160000	0.415940
	14.165000	0.399496
	14.170000	0.452116
	14.175000	0.471848
	14.180000	0.422518
	14.185000	0.406074
	14.190000	0.452116
	14.195000	0.478426
	14.200000	0.425806
	14.205000	0.406074
	14.210000	0.455405
	14.215000	0.475137
	14.220000	0.429095
	14.225000	0.402785
	14.230000	0.461982
	14.235000	0.478426
	14.240000	0.422518
	14.245000	0.406074
	14.250000	0.452116
	14.255000	0.475137
	14.260000	0.422518
	14.265000	0.406074
	14.270000	0.455405
	14.275000	0.475137
	14.280000	0.419229
	14.285000	0.406074
	14.290000	0.455405
	14.295000	0.475137
	14.300000	0.419229
	14.305000	0.406074
	14.310000	0.452116
	14.315000	0.471848
	14.320000	0.415940
	14.325000	0.399496
	14.330000	0.452116
	14.335000	0.471848
	14.340000	0.415940
	14.345000	0.396208
	14.350000	0.455405
	14.355000	0.475137
	14.360000	0.419229
	14.365000	0.396208
	14.370000	0.448827
	14.375000	0.471848
	14.380000	0.419229
	14.385000	0.399496
	14.390000	0.452116
	14.395000	0.468560
	14.400000	0.415940
	14.405000	0.396208
	14.410000	0.448827
	14.415000	0.465271
	14.420000	0.412651
	14.425000	0.389630
	14.430000	0.445539
	14.435000	0.465271
	14.440000	0.412651
	14.445000	0.392919
	14.450000	0.445539
	14.455000	0.461982
	14.460000	0.409363
	14.465000	0.392919
	14.470000	0.445539
	14.475000	0.461982
	14.480000	0.409363
	14.485000	0.392919
	14.490000	0.445539
	14.495000	0.465271
	14.500000	0.412651
	14.505000	0.396208
	14.510000	0.445539
	14.515000	0.468560
	14.520000	0.409363
	14.525000	0.389630
	14.530000	0.445539
	14.535000	0.468560
	14.540000	0.406074
	14.545000	0.389630
	14.550000	0.445539
	14.555000	0.461982
	14.560000	0.419229
	14.565000	0.389630
	14.570000	0.445539
	14.575000	0.461982
	14.580000	0.409363
	14.585000	0.392919
	14.590000	0.445539
	14.595000	0.465271
	14.600000	0.412651
	14.605000	0.396208
	14.610000	0.445539
	14.615000	0.465271
	14.620000	0.406074
	14.625000	0.392919
	14.630000	0.442250
	14.635000	0.468560
	14.640000	0.409363
	14.645000	0.396208
	14.650000	0.445539
	14.655000	0.465271
	14.660000	0.412651
	14.665000	0.396208
	14.670000	0.445539
	14.675000	0.461982
	14.680000	0.412651
	14.685000	0.392919
	14.690000	0.442250
	14.695000	0.465271
	14.700000	0.409363
	14.705000	0.392919
	14.710000	0.442250
	14.715000	0.471848
	14.720000	0.409363
	14.725000	0.396208
	14.730000	0.445539
	14.735000	0.465271
	14.740000	0.415940
	14.745000	0.389630
	14.750000	0.445539
	14.755000	0.461982
	14.760000	0.415940
	14.765000	0.389630
	14.770000	0.445539
	14.775000	0.461982
	14.780000	0.412651
	14.785000	0.392919
	14.790000	0.445539
	14.795000	0.461982
	14.800000	0.409363
	14.805000	0.389630
	14.810000	0.445539
	14.815000	0.461982
	14.820000	0.409363
	14.825000	0.396208
	14.830000	0.442250
	14.835000	0.461982
	14.840000	0.412651
	14.845000	0.392919
	14.850000	0.448827
	14.855000	0.461982
	14.860000	0.412651
	14.865000	0.392919
	14.870000	0.442250
	14.875000	0.465271
	14.880000	0.409363
	14.885000	0.392919
	14.890000	0.442250
	14.895000	0.465271
	14.900000	0.406074
	14.905000	0.386342
	14.910000	0.448827
	14.915000	0.458694
	14.920000	0.409363
	14.925000	0.389630
	14.930000	0.442250
	14.935000	0.461982
	14.940000	0.406074
	14.945000	0.386342
	14.950000	0.438961
	14.955000	0.461982
	14.960000	0.406074
	14.965000	0.389630
	14.970000	0.442250
	14.975000	0.465271
	14.980000	0.402785
	14.985000	0.389630
	14.990000	0.445539
	14.995000	0.461982
	15.000000	0.409363
	15.005000	0.392919
	15.010000	0.445539
	15.015000	0.465271
	15.020000	0.406074
	15.025000	0.386342
	15.030000	0.442250
	15.035000	0.465271
	15.040000	0.409363
	15.045000	0.392919
	15.050000	0.445539
	15.055000	0.461982
	15.060000	0.409363
	15.065000	0.389630
	15.070000	0.442250
	15.075000	0.465271
	15.080000	0.406074
	15.085000	0.389630
	15.090000	0.442250
	15.095000	0.465271
	15.100000	0.402785
	15.105000	0.389630
	15.110000	0.448827
	15.115000	0.458694
	15.120000	0.406074
	15.125000	0.386342
	15.130000	0.445539
	15.135000	0.465271
	15.140000	0.406074
	15.145000	0.389630
	15.150000	0.438961
	15.155000	0.465271
	15.160000	0.406074
	15.165000	0.386342
	15.170000	0.438961
	15.175000	0.461982
	15.180000	0.399496
	15.185000	0.386342
	15.190000	0.435672
	15.195000	0.458694
	15.200000	0.406074
	15.205000	0.386342
	15.210000	0.438961
	15.215000	0.458694
	15.220000	0.402785
	15.225000	0.386342
	15.230000	0.438961
	15.235000	0.458694
	15.240000	0.402785
	15.245000	0.379764
	15.250000	0.438961
	15.255000	0.461982
	15.260000	0.402785
	15.265000	0.383053
	15.270000	0.438961
	15.275000	0.461982
	15.280000	0.399496
	15.285000	0.386342
	15.290000	0.435672
	15.295000	0.461982
	15.300000	0.402785
	15.305000	0.386342
	15.310000	0.438961
	15.315000	0.455405
	15.320000	0.406074
	15.325000	0.379764
	15.330000	0.438961
	15.335000	0.458694
	15.340000	0.406074
	15.345000	0.386342
	15.350000	0.438961
	15.355000	0.461982
	15.360000	0.402785
	15.365000	0.383053
	15.370000	0.442250
	15.375000	0.458694
	15.380000	0.402785
	15.385000	0.386342
	15.390000	0.435672
	15.395000	0.458694
	15.400000	0.402785
	15.405000	0.383053
	15.410000	0.435672
	15.415000	0.455405
	15.420000	0.392919
	15.425000	0.373187
	15.430000	0.422518
	15.435000	0.445539
	15.440000	0.383053
	15.445000	0.360032
	15.450000	0.406074
	15.455000	0.412651
	15.460000	0.350166
	15.465000	0.320567
	15.470000	0.369898
	15.475000	0.386342
	15.480000	0.333722
	15.485000	0.304124
	15.490000	0.360032
	15.495000	0.376475
	15.500000	0.320567
	15.505000	0.307412
	15.510000	0.356743
	15.515000	0.379764
	15.520000	0.323856
	15.525000	0.304124
	15.530000	0.360032
	15.535000	0.383053
	15.540000	0.327145
	15.545000	0.304124
	15.550000	0.360032
	15.555000	0.379764
	15.560000	0.330433
	15.565000	0.310701
	15.570000	0.363321
	15.575000	0.386342
	15.580000	0.333722
	15.585000	0.310701
	15.590000	0.360032
	15.595000	0.383053
	15.600000	0.330433
	15.605000	0.313990
	15.610000	0.369898
	15.615000	0.386342
	15.620000	0.333722
	15.625000	0.313990
	15.630000	0.366609
	15.635000	0.389630
	15.640000	0.340299
	15.645000	0.320567
	15.650000	0.366609
	15.655000	0.389630
	15.660000	0.340299
	15.665000	0.317278
	15.670000	0.366609
	15.675000	0.389630
	15.680000	0.337011
	15.685000	0.320567
	15.690000	0.369898
	15.695000	0.389630
	15.700000	0.337011
	15.705000	0.323856
	15.710000	0.376475
	15.715000	0.392919
	15.720000	0.340299
	15.725000	0.320567
	15.730000	0.373187
	15.735000	0.396208
	15.740000	0.340299
	15.745000	0.327145
	15.750000	0.379764
	15.755000	0.392919
	15.760000	0.343588
	15.765000	0.323856
	15.770000	0.379764
	15.775000	0.396208
	15.780000	0.343588
	15.785000	0.333722
	15.790000	0.383053
	15.795000	0.402785
	15.800000	0.350166
	15.805000	0.327145
	15.810000	0.386342
	15.815000	0.402785
	15.820000	0.350166
	15.825000	0.333722
	15.830000	0.383053
	15.835000	0.402785
	15.840000	0.346877
	15.845000	0.337011
	15.850000	0.383053
	15.855000	0.406074
	15.860000	0.350166
	15.865000	0.333722
	15.870000	0.379764
	15.875000	0.406074
	15.880000	0.346877
	15.885000	0.333722
	15.890000	0.386342
	15.895000	0.409363
	15.900000	0.350166
	15.905000	0.337011
	15.910000	0.389630
	15.915000	0.406074
	15.920000	0.353454
	15.925000	0.337011
	15.930000	0.386342
	15.935000	0.406074
	15.940000	0.350166
	15.945000	0.337011
	15.950000	0.389630
	15.955000	0.412651
	15.960000	0.356743
	15.965000	0.340299
	15.970000	0.392919
	15.975000	0.409363
	15.980000	0.353454
	15.985000	0.340299
	15.990000	0.389630
	15.995000	0.412651
	16.000000	0.356743
	16.005000	0.340299
	16.010000	0.386342
	16.015000	0.412651
	16.020000	0.356743
	16.025000	0.337011
	16.030000	0.389630
	16.035000	0.412651
	16.040000	0.353454
	16.045000	0.340299
	16.050000	0.392919
	16.055000	0.415940
	16.060000	0.360032
	16.065000	0.343588
	16.070000	0.399496
	16.075000	0.415940
	16.080000	0.363321
	16.085000	0.343588
	16.090000	0.399496
	16.095000	0.415940
	16.100000	0.360032
	16.105000	0.343588
	16.110000	0.399496
	16.115000	0.419229
	16.120000	0.356743
	16.125000	0.350166
	16.130000	0.399496
	16.135000	0.419229
	16.140000	0.360032
	16.145000	0.343588
	16.150000	0.399496
	16.155000	0.412651
	16.160000	0.360032
	16.165000	0.350166
	16.170000	0.402785
	16.175000	0.419229
	16.180000	0.369898
	16.185000	0.346877
	16.190000	0.396208
	16.195000	0.422518
	16.200000	0.360032
	16.205000	0.343588
	16.210000	0.402785
	16.215000	0.422518
	16.220000	0.363321
	16.225000	0.350166
	16.230000	0.399496
	16.235000	0.422518
	16.240000	0.363321
	16.245000	0.346877
	16.250000	0.402785
	16.255000	0.425806
	16.260000	0.366609
	16.265000	0.350166
	16.270000	0.406074
	16.275000	0.419229
	16.280000	0.369898
	16.285000	0.346877
	16.290000	0.402785
	16.295000	0.422518
	16.300000	0.369898
	16.305000	0.350166
	16.310000	0.406074
	16.315000	0.422518
	16.320000	0.373187
	16.325000	0.350166
	16.330000	0.406074
	16.335000	0.422518
	16.340000	0.373187
	16.345000	0.346877
	16.350000	0.406074
	16.355000	0.422518
	16.360000	0.369898
	16.365000	0.350166
	16.370000	0.409363
	16.375000	0.429095
	16.380000	0.369898
	16.385000	0.350166
	16.390000	0.412651
	16.395000	0.432384
	16.400000	0.373187
	16.405000	0.360032
	16.410000	0.409363
	16.415000	0.422518
	16.420000	0.373187
	16.425000	0.356743
	16.430000	0.406074
	16.435000	0.422518
	16.440000	0.373187
	16.445000	0.360032
	16.450000	0.409363
	16.455000	0.429095
	16.460000	0.379764
	16.465000	0.353454
	16.470000	0.412651
	16.475000	0.432384
	16.480000	0.373187
	16.485000	0.356743
	16.490000	0.409363
	16.495000	0.429095
	16.500000	0.376475
	16.505000	0.356743
	16.510000	0.409363
	16.515000	0.432384
	16.520000	0.369898
	16.525000	0.356743
	16.530000	0.412651
	16.535000	0.429095
	16.540000	0.379764
	16.545000	0.360032
	16.550000	0.409363
	16.555000	0.432384
	16.560000	0.376475
	16.565000	0.363321
	16.570000	0.412651
	16.575000	0.432384
	16.580000	0.376475
	16.585000	0.363321
	16.590000	0.415940
	16.595000	0.432384
	16.600000	0.376475
	16.605000	0.356743
	16.610000	0.419229
	16.615000	0.432384
	16.620000	0.383053
	16.625000	0.360032
	16.630000	0.412651
	16.635000	0.435672
	16.640000	0.383053
	16.645000	0.360032
	16.650000	0.415940
	16.655000	0.432384
	16.660000	0.376475
	16.665000	0.363321
	16.670000	0.419229
	16.675000	0.432384
	16.680000	0.379764
	16.685000	0.356743
	16.690000	0.412651
	16.695000	0.435672
	16.700000	0.383053
	16.705000	0.363321
	16.710000	0.419229
	16.715000	0.435672
	16.720000	0.379764
	16.725000	0.366609
	16.730000	0.419229
	16.735000	0.432384
	16.740000	0.379764
	16.745000	0.366609
	16.750000	0.412651
	16.755000	0.435672
	16.760000	0.383053
	16.765000	0.366609
	16.770000	0.419229
	16.775000	0.432384
	16.780000	0.379764
	16.785000	0.363321
	16.790000	0.419229
	16.795000	0.438961
	16.800000	0.379764
	16.805000	0.363321
	16.810000	0.419229
	16.815000	0.435672
	16.820000	0.383053
	16.825000	0.366609
	16.830000	0.415940
	16.835000	0.442250
	16.840000	0.383053
	16.845000	0.366609
	16.850000	0.419229
	16.855000	0.435672
	16.860000	0.383053
	16.865000	0.363321
	16.870000	0.422518
	16.875000	0.438961
	16.880000	0.386342
	16.885000	0.366609
	16.890000	0.422518
	16.895000	0.438961
	16.900000	0.383053
	16.905000	0.369898
	16.910000	0.419229
	16.915000	0.438961
	16.920000	0.383053
	16.925000	0.366609
	16.930000	0.415940
	16.935000	0.435672
	16.940000	0.386342
	16.945000	0.363321
	16.950000	0.419229
	16.955000	0.438961
	16.960000	0.383053
	16.965000	0.366609
	16.970000	0.412651
	16.975000	0.442250
	16.980000	0.386342
	16.985000	0.363321
	16.990000	0.419229
	16.995000	0.438961
	17.000000	0.383053
	17.005000	0.366609
	17.010000	0.415940
	17.015000	0.438961
	17.020000	0.386342
	17.025000	0.366609
	17.030000	0.419229
	17.035000	0.438961
	17.040000	0.383053
	17.045000	0.366609
	17.050000	0.419229
	17.055000	0.438961
	17.060000	0.386342
	17.065000	0.366609
	17.070000	0.422518
	17.075000	0.442250
	17.080000	0.386342
	17.085000	0.366609
	17.090000	0.419229
	17.095000	0.438961
	17.100000	0.383053
	17.105000	0.373187
	17.110000	0.422518
	17.115000	0.438961
	17.120000	0.383053
	17.125000	0.369898
	17.130000	0.422518
	17.135000	0.442250
	17.140000	0.386342
	17.145000	0.366609
	17.150000	0.422518
	17.155000	0.442250
	17.160000	0.389630
	17.165000	0.366609
	17.170000	0.422518
	17.175000	0.442250
	17.180000	0.386342
	17.185000	0.369898
	17.190000	0.422518
	17.195000	0.442250
	17.200000	0.383053
	17.205000	0.369898
	17.210000	0.422518
	17.215000	0.442250
	17.220000	0.383053
	17.225000	0.366609
	17.230000	0.425806
	17.235000	0.438961
	17.240000	0.386342
	17.245000	0.369898
	17.250000	0.422518
	17.255000	0.442250
	17.260000	0.386342
	17.265000	0.373187
	17.270000	0.422518
	17.275000	0.445539
	17.280000	0.389630
	17.285000	0.369898
	17.290000	0.422518
	17.295000	0.445539
	17.300000	0.389630
	17.305000	0.369898
	17.310000	0.425806
	17.315000	0.438961
	17.320000	0.392919
	17.325000	0.376475
	17.330000	0.422518
	17.335000	0.445539
	17.340000	0.389630
	17.345000	0.373187
	17.350000	0.425806
	17.355000	0.445539
	17.360000	0.386342
	17.365000	0.369898
	17.370000	0.425806
	17.375000	0.448827
	17.380000	0.396208
	17.385000	0.376475
	17.390000	0.432384
	17.395000	0.452116
	17.400000	0.396208
	17.405000	0.379764
	17.410000	0.435672
	17.415000	0.448827
	17.420000	0.402785
	17.425000	0.379764
	17.430000	0.435672
	17.435000	0.448827
	17.440000	0.396208
	17.445000	0.379764
	17.450000	0.432384
	17.455000	0.452116
	17.460000	0.396208
	17.465000	0.379764
	17.470000	0.435672
	17.475000	0.455405
	17.480000	0.396208
	17.485000	0.379764
	17.490000	0.432384
	17.495000	0.452116
	17.500000	0.399496
	17.505000	0.376475
	17.510000	0.432384
	17.515000	0.452116
	17.520000	0.399496
	17.525000	0.386342
	17.530000	0.438961
	17.535000	0.458694
	17.540000	0.402785
	17.545000	0.386342
	17.550000	0.435672
	17.555000	0.455405
	17.560000	0.402785
	17.565000	0.383053
	17.570000	0.432384
	17.575000	0.452116
	17.580000	0.396208
	17.585000	0.379764
	17.590000	0.429095
	17.595000	0.448827
	17.600000	0.396208
	17.605000	0.376475
	17.610000	0.429095
	17.615000	0.445539
	17.620000	0.396208
	17.625000	0.376475
	17.630000	0.425806
	17.635000	0.448827
	17.640000	0.399496
	17.645000	0.379764
	17.650000	0.435672
	17.655000	0.455405
	17.660000	0.399496
	17.665000	0.379764
	17.670000	0.432384
	17.675000	0.452116
	17.680000	0.392919
	17.685000	0.376475
	17.690000	0.432384
	17.695000	0.445539
	17.700000	0.396208
	17.705000	0.376475
	17.710000	0.429095
	17.715000	0.445539
	17.720000	0.392919
	17.725000	0.379764
	17.730000	0.429095
	17.735000	0.448827
	17.740000	0.392919
	17.745000	0.373187
	17.750000	0.425806
	17.755000	0.445539
	17.760000	0.389630
	17.765000	0.373187
	17.770000	0.429095
	17.775000	0.438961
	17.780000	0.392919
	17.785000	0.366609
	17.790000	0.425806
	17.795000	0.445539
	17.800000	0.389630
	17.805000	0.373187
	17.810000	0.429095
	17.815000	0.448827
	17.820000	0.389630
	17.825000	0.369898
	17.830000	0.419229
	17.835000	0.442250
	17.840000	0.389630
	17.845000	0.373187
	17.850000	0.419229
	17.855000	0.438961
	17.860000	0.386342
	17.865000	0.369898
	17.870000	0.419229
	17.875000	0.438961
	17.880000	0.389630
	17.885000	0.376475
	17.890000	0.422518
	17.895000	0.438961
	17.900000	0.389630
	17.905000	0.373187
	17.910000	0.422518
	17.915000	0.442250
	17.920000	0.392919
	17.925000	0.366609
	17.930000	0.425806
	17.935000	0.442250
	17.940000	0.392919
	17.945000	0.366609
	17.950000	0.422518
	17.955000	0.442250
	17.960000	0.386342
	17.965000	0.369898
	17.970000	0.422518
	17.975000	0.442250
	17.980000	0.389630
	17.985000	0.366609
	17.990000	0.422518
	17.995000	0.442250
	18.000000	0.392919
	18.005000	0.369898
	18.010000	0.429095
	18.015000	0.438961
	18.020000	0.392919
	18.025000	0.373187
	18.030000	0.425806
	18.035000	0.445539
	18.040000	0.386342
	18.045000	0.366609
	18.050000	0.425806
	18.055000	0.445539
	18.060000	0.389630
	18.065000	0.369898
	18.070000	0.422518
	18.075000	0.442250
	18.080000	0.389630
	18.085000	0.373187
	18.090000	0.432384
	18.095000	0.448827
	18.100000	0.392919
	18.105000	0.373187
	18.110000	0.422518
	18.115000	0.445539
	18.120000	0.392919
	18.125000	0.376475
	18.130000	0.429095
	18.135000	0.448827
	18.140000	0.396208
	18.145000	0.373187
	18.150000	0.429095
	18.155000	0.448827
	18.160000	0.392919
	18.165000	0.373187
	18.170000	0.429095
	18.175000	0.452116
	18.180000	0.396208
	18.185000	0.379764
	18.190000	0.432384
	18.195000	0.455405
	18.200000	0.399496
	18.205000	0.379764
	18.210000	0.429095
	18.215000	0.448827
	18.220000	0.396208
	18.225000	0.383053
	18.230000	0.429095
	18.235000	0.452116
	18.240000	0.396208
	18.245000	0.373187
	18.250000	0.425806
	18.255000	0.448827
	18.260000	0.399496
	18.265000	0.373187
	18.270000	0.425806
	18.275000	0.448827
	18.280000	0.396208
	18.285000	0.376475
	18.290000	0.425806
	18.295000	0.452116
	18.300000	0.396208
	18.305000	0.373187
	18.310000	0.429095
	18.315000	0.448827
	18.320000	0.399496
	18.325000	0.376475
	18.330000	0.429095
	18.335000	0.445539
	18.340000	0.392919
	18.345000	0.383053
	18.350000	0.429095
	18.355000	0.452116
	18.360000	0.399496
	18.365000	0.379764
	18.370000	0.429095
	18.375000	0.455405
	18.380000	0.396208
	18.385000	0.376475
	18.390000	0.429095
	18.395000	0.448827
	18.400000	0.392919
	18.405000	0.379764
	18.410000	0.429095
	18.415000	0.452116
	18.420000	0.396208
	18.425000	0.373187
	18.430000	0.429095
	18.435000	0.452116
	18.440000	0.396208
	18.445000	0.376475
	18.450000	0.422518
	18.455000	0.452116
	18.460000	0.396208
	18.465000	0.379764
	18.470000	0.432384
	18.475000	0.455405
	18.480000	0.396208
	18.485000	0.376475
	18.490000	0.432384
	18.495000	0.448827
	18.500000	0.402785
	18.505000	0.379764
	18.510000	0.432384
	18.515000	0.455405
	18.520000	0.396208
	18.525000	0.373187
	18.530000	0.429095
	18.535000	0.448827
	18.540000	0.399496
	18.545000	0.376475
	18.550000	0.429095
	18.555000	0.448827
	18.560000	0.396208
	18.565000	0.379764
	18.570000	0.432384
	18.575000	0.452116
	18.580000	0.399496
	18.585000	0.376475
	18.590000	0.435672
	18.595000	0.448827
	18.600000	0.406074
	18.605000	0.379764
	18.610000	0.432384
	18.615000	0.455405
	18.620000	0.396208
	18.625000	0.379764
	18.630000	0.432384
	18.635000	0.452116
	18.640000	0.396208
	18.645000	0.376475
	18.650000	0.432384
	18.655000	0.452116
	18.660000	0.396208
	18.665000	0.379764
	18.670000	0.432384
	18.675000	0.452116
	18.680000	0.396208
	18.685000	0.379764
	18.690000	0.432384
	18.695000	0.452116
	18.700000	0.396208
	18.705000	0.376475
	18.710000	0.432384
	18.715000	0.452116
	18.720000	0.396208
	18.725000	0.379764
	18.730000	0.429095
	18.735000	0.452116
	18.740000	0.399496
	18.745000	0.376475
	18.750000	0.432384
	18.755000	0.448827
	18.760000	0.399496
	18.765000	0.379764
	18.770000	0.432384
	18.775000	0.448827
	18.780000	0.399496
	18.785000	0.379764
	18.790000	0.425806
	18.795000	0.452116
	18.800000	0.399496
	18.805000	0.379764
	18.810000	0.432384
	18.815000	0.452116
	18.820000	0.399496
	18.825000	0.383053
	18.830000	0.432384
	18.835000	0.455405
	18.840000	0.399496
	18.845000	0.379764
	18.850000	0.435672
	18.855000	0.452116
	18.860000	0.399496
	18.865000	0.379764
	18.870000	0.432384
	18.875000	0.455405
	18.880000	0.396208
	18.885000	0.383053
	18.890000	0.435672
	18.895000	0.452116
	18.900000	0.399496
	18.905000	0.379764
	18.910000	0.429095
	18.915000	0.452116
	18.920000	0.399496
	18.925000	0.373187
	18.930000	0.425806
	18.935000	0.455405
	18.940000	0.396208
	18.945000	0.373187
	18.950000	0.432384
	18.955000	0.458694
	18.960000	0.396208
	18.965000	0.383053
	18.970000	0.425806
	18.975000	0.448827
	18.980000	0.402785
	18.985000	0.383053
	18.990000	0.432384
	18.995000	0.452116
	19.000000	0.399496
	19.005000	0.379764
	19.010000	0.432384
	19.015000	0.448827
	19.020000	0.399496
	19.025000	0.383053
	19.030000	0.432384
	19.035000	0.452116
	19.040000	0.396208
	19.045000	0.373187
	19.050000	0.425806
	19.055000	0.452116
	19.060000	0.402785
	19.065000	0.376475
	19.070000	0.432384
	19.075000	0.452116
	19.080000	0.396208
	19.085000	0.376475
	19.090000	0.429095
	19.095000	0.452116
	19.100000	0.399496
	19.105000	0.379764
	19.110000	0.429095
	19.115000	0.452116
	19.120000	0.392919
	19.125000	0.379764
	19.130000	0.432384
	19.135000	0.455405
	19.140000	0.399496
	19.145000	0.376475
	19.150000	0.432384
	19.155000	0.452116
	19.160000	0.399496
	19.165000	0.379764
	19.170000	0.435672
	19.175000	0.455405
	19.180000	0.396208
	19.185000	0.379764
	19.190000	0.435672
	19.195000	0.455405
	19.200000	0.399496
	19.205000	0.379764
	19.210000	0.432384
	19.215000	0.455405
	19.220000	0.399496
	19.225000	0.379764
	19.230000	0.429095
	19.235000	0.452116
	19.240000	0.399496
	19.245000	0.379764
	19.250000	0.429095
	19.255000	0.458694
	19.260000	0.399496
	19.265000	0.383053
	19.270000	0.432384
	19.275000	0.452116
	19.280000	0.399496
	19.285000	0.379764
	19.290000	0.435672
	19.295000	0.452116
	19.300000	0.402785
	19.305000	0.379764
	19.310000	0.432384
	19.315000	0.455405
	19.320000	0.399496
	19.325000	0.379764
	19.330000	0.432384
	19.335000	0.455405
	19.340000	0.402785
	19.345000	0.383053
	19.350000	0.435672
	19.355000	0.458694
	19.360000	0.399496
	19.365000	0.383053
	19.370000	0.438961
	19.375000	0.458694
	19.380000	0.402785
	19.385000	0.383053
	19.390000	0.435672
	19.395000	0.458694
	19.400000	0.402785
	19.405000	0.379764
	19.410000	0.438961
	19.415000	0.455405
	19.420000	0.399496
	19.425000	0.379764
	19.430000	0.435672
	19.435000	0.458694
	19.440000	0.406074
	19.445000	0.383053
	19.450000	0.435672
	19.455000	0.458694
	19.460000	0.409363
	19.465000	0.392919
	19.470000	0.445539
	19.475000	0.461982
	19.480000	0.419229
	19.485000	0.392919
	19.490000	0.452116
	19.495000	0.475137
	19.500000	0.419229
	19.505000	0.399496
	19.510000	0.452116
	19.515000	0.475137
	19.520000	0.415940
	19.525000	0.402785
	19.530000	0.448827
	19.535000	0.468560
	19.540000	0.419229
	19.545000	0.396208
	19.550000	0.442250
	19.555000	0.471848
	19.560000	0.412651
	19.565000	0.392919
	19.570000	0.445539
	19.575000	0.468560
	19.580000	0.412651
	19.585000	0.389630
	19.590000	0.445539
	19.595000	0.461982
	19.600000	0.409363
	19.605000	0.389630
	19.610000	0.438961
	19.615000	0.465271
	19.620000	0.406074
	19.625000	0.389630
	19.630000	0.438961
	19.635000	0.455405
	19.640000	0.406074
	19.645000	0.386342
	19.650000	0.435672
	19.655000	0.458694
	19.660000	0.406074
	19.665000	0.379764
	19.670000	0.435672
	19.675000	0.455405
	19.680000	0.402785
	19.685000	0.386342
	19.690000	0.435672
	19.695000	0.455405
	19.700000	0.399496
	19.705000	0.379764
	19.710000	0.432384
	19.715000	0.455405
	19.720000	0.402785
	19.725000	0.383053
	19.730000	0.425806
	19.735000	0.458694
	19.740000	0.402785
	19.745000	0.379764
	19.750000	0.432384
	19.755000	0.455405
	19.760000	0.406074
	19.765000	0.383053
	19.770000	0.432384
	19.775000	0.452116
	19.780000	0.399496
	19.785000	0.379764
	19.790000	0.435672
	19.795000	0.452116
	19.800000	0.402785
	19.805000	0.379764
	19.810000	0.432384
	19.815000	0.455405
	19.820000	0.402785
	19.825000	0.383053
	19.830000	0.429095
	19.835000	0.455405
	19.840000	0.406074
	19.845000	0.379764
	19.850000	0.432384
	19.855000	0.458694
	19.860000	0.399496
	19.865000	0.383053
	19.870000	0.432384
	19.875000	0.458694
	19.880000	0.402785
	19.885000	0.379764
	19.890000	0.425806
	19.895000	0.455405
	19.900000	0.402785
	19.905000	0.379764
	19.910000	0.432384
	19.915000	0.458694
	19.920000	0.402785
	19.925000	0.383053
	19.930000	0.435672
	19.935000	0.455405
	19.940000	0.406074
	19.945000	0.383053
	19.950000	0.432384
	19.955000	0.455405
	19.960000	0.406074
	19.965000	0.383053
	19.970000	0.432384
	19.975000	0.455405
	19.980000	0.402785
	19.985000	0.379764
	19.990000	0.435672
	19.995000	0.458694
	20.000000	0.406074
	20.005000	0.383053
	20.010000	0.432384
	20.015000	0.461982
	20.020000	0.406074
	20.025000	0.386342
	20.030000	0.432384
	20.035000	0.455405
	20.040000	0.399496
	20.045000	0.383053
	20.050000	0.432384
	20.055000	0.458694
	20.060000	0.406074
	20.065000	0.383053
	20.070000	0.435672
	20.075000	0.455405
	20.080000	0.402785
	20.085000	0.383053
	20.090000	0.432384
	20.095000	0.458694
	20.100000	0.402785
	20.105000	0.386342
	20.110000	0.438961
	20.115000	0.458694
	20.120000	0.406074
	20.125000	0.386342
	20.130000	0.438961
	20.135000	0.455405
	20.140000	0.402785
	20.145000	0.386342
	20.150000	0.432384
	20.155000	0.452116
	20.160000	0.406074
	20.165000	0.389630
	20.170000	0.435672
	20.175000	0.458694
	20.180000	0.406074
	20.185000	0.383053
	20.190000	0.438961
	20.195000	0.458694
	20.200000	0.406074
	20.205000	0.389630
	20.210000	0.435672
	20.215000	0.465271
	20.220000	0.406074
	20.225000	0.383053
	20.230000	0.438961
	20.235000	0.465271
	20.240000	0.406074
	20.245000	0.389630
	20.250000	0.435672
	20.255000	0.461982
	20.260000	0.406074
	20.265000	0.383053
	20.270000	0.435672
	20.275000	0.455405
	20.280000	0.412651
	20.285000	0.386342
	20.290000	0.432384
	20.295000	0.458694
	20.300000	0.406074
	20.305000	0.386342
	20.310000	0.435672
	20.315000	0.461982
	20.320000	0.406074
	20.325000	0.386342
	20.330000	0.435672
	20.335000	0.458694
	20.340000	0.409363
	20.345000	0.383053
	20.350000	0.435672
	20.355000	0.461982
	20.360000	0.406074
	20.365000	0.386342
	20.370000	0.435672
	20.375000	0.461982
	20.380000	0.406074
	20.385000	0.383053
	20.390000	0.435672
	20.395000	0.458694
	20.400000	0.412651
	20.405000	0.386342
	20.410000	0.442250
	20.415000	0.458694
	20.420000	0.406074
	20.425000	0.389630
	20.430000	0.435672
	20.435000	0.461982
	20.440000	0.402785
	20.445000	0.383053
	20.450000	0.435672
	20.455000	0.465271
	20.460000	0.406074
	20.465000	0.386342
	20.470000	0.438961
	20.475000	0.458694
	20.480000	0.409363
	20.485000	0.383053
	20.490000	0.438961
	20.495000	0.458694
	20.500000	0.412651
	20.505000	0.383053
	20.510000	0.432384
	20.515000	0.458694
	20.520000	0.409363
	20.525000	0.383053
	20.530000	0.435672
	20.535000	0.461982
	20.540000	0.409363
	20.545000	0.389630
	20.550000	0.435672
	20.555000	0.461982
	20.560000	0.406074
	20.565000	0.386342
	20.570000	0.432384
	20.575000	0.458694
	20.580000	0.406074
	20.585000	0.386342
	20.590000	0.438961
	20.595000	0.461982
	20.600000	0.409363
	20.605000	0.386342
	20.610000	0.438961
	20.615000	0.461982
	20.620000	0.412651
	20.625000	0.383053
	20.630000	0.435672
	20.635000	0.465271
	20.640000	0.412651
	20.645000	0.386342
	20.650000	0.435672
	20.655000	0.461982
	20.660000	0.406074
	20.665000	0.389630
	20.670000	0.442250
	20.675000	0.461982
	20.680000	0.409363
	20.685000	0.386342
	20.690000	0.435672
	20.695000	0.461982
	20.700000	0.412651
	20.705000	0.386342
	20.710000	0.438961
	20.715000	0.461982
	20.720000	0.409363
	20.725000	0.386342
	20.730000	0.438961
	20.735000	0.465271
	20.740000	0.409363
	20.745000	0.389630
	20.750000	0.435672
	20.755000	0.461982
	20.760000	0.412651
	20.765000	0.386342
	20.770000	0.442250
	20.775000	0.461982
	20.780000	0.406074
	20.785000	0.386342
	20.790000	0.438961
	20.795000	0.465271
	20.800000	0.415940
	20.805000	0.389630
	20.810000	0.442250
	20.815000	0.465271
	20.820000	0.415940
	20.825000	0.389630
	20.830000	0.438961
	20.835000	0.468560
	20.840000	0.415940
	20.845000	0.386342
	20.850000	0.438961
	20.855000	0.465271
	20.860000	0.412651
	20.865000	0.389630
	20.870000	0.432384
	20.875000	0.465271
	20.880000	0.412651
	20.885000	0.386342
	20.890000	0.438961
	20.895000	0.461982
	20.900000	0.409363
	20.905000	0.386342
	20.910000	0.435672
	20.915000	0.461982
	20.920000	0.409363
	20.925000	0.383053
	20.930000	0.435672
	20.935000	0.465271
	20.940000	0.409363
	20.945000	0.389630
	20.950000	0.435672
	20.955000	0.461982
	20.960000	0.412651
	20.965000	0.386342
	20.970000	0.432384
	20.975000	0.465271
	20.980000	0.412651
	20.985000	0.386342
	20.990000	0.435672
	20.995000	0.468560
	21.000000	0.409363
	21.005000	0.386342
	21.010000	0.432384
	21.015000	0.461982
	21.020000	0.412651
	21.025000	0.389630
	21.030000	0.435672
	21.035000	0.461982
	21.040000	0.406074
	21.045000	0.386342
	21.050000	0.435672
	21.055000	0.461982
	21.060000	0.409363
	21.065000	0.386342
	21.070000	0.435672
	21.075000	0.465271
	21.080000	0.406074
	21.085000	0.383053
	21.090000	0.435672
	21.095000	0.465271
	21.100000	0.409363
	21.105000	0.383053
	21.110000	0.442250
	21.115000	0.468560
	21.120000	0.412651
	21.125000	0.389630
	21.130000	0.438961
	21.135000	0.461982
	21.140000	0.409363
	21.145000	0.386342
	21.150000	0.432384
	21.155000	0.465271
	21.160000	0.409363
	21.165000	0.392919
	21.170000	0.438961
	21.175000	0.465271
	21.180000	0.409363
	21.185000	0.389630
	21.190000	0.438961
	21.195000	0.458694
	21.200000	0.412651
	21.205000	0.386342
	21.210000	0.438961
	21.215000	0.468560
	21.220000	0.412651
	21.225000	0.389630
	21.230000	0.435672
	21.235000	0.465271
	21.240000	0.415940
	21.245000	0.389630
	21.250000	0.438961
	21.255000	0.465271
	21.260000	0.412651
	21.265000	0.386342
	21.270000	0.442250
	21.275000	0.468560
	21.280000	0.415940
	21.285000	0.386342
	21.290000	0.442250
	21.295000	0.468560
	21.300000	0.415940
	21.305000	0.389630
	21.310000	0.438961
	21.315000	0.468560
	21.320000	0.415940
	21.325000	0.392919
	21.330000	0.442250
	21.335000	0.468560
	21.340000	0.415940
	21.345000	0.392919
	21.350000	0.442250
	21.355000	0.471848
	21.360000	0.425806
	21.365000	0.396208
	21.370000	0.442250
	21.375000	0.475137
	21.380000	0.422518
	21.385000	0.402785
	21.390000	0.448827
	21.395000	0.481715
	21.400000	0.432384
	21.405000	0.402785
	21.410000	0.452116
	21.415000	0.485003
	21.420000	0.432384
	21.425000	0.409363
	21.430000	0.458694
	21.435000	0.491581
	21.440000	0.445539
	21.445000	0.415940
	21.450000	0.465271
	21.455000	0.494869
	21.460000	0.448827
	21.465000	0.422518
	21.470000	0.468560
	21.475000	0.498158
	21.480000	0.445539
	21.485000	0.422518
	21.490000	0.471848
	21.495000	0.494869
	21.500000	0.448827
	21.505000	0.425806
	21.510000	0.468560
	21.515000	0.501447
	21.520000	0.445539
	21.525000	0.422518
	21.530000	0.471848
	21.535000	0.498158
	21.540000	0.445539
	21.545000	0.422518
	21.550000	0.468560
	21.555000	0.498158
	21.560000	0.445539
	21.565000	0.419229
	21.570000	0.461982
	21.575000	0.491581
	21.580000	0.445539
	21.585000	0.422518
	21.590000	0.468560
	21.595000	0.494869
	21.600000	0.445539
	21.605000	0.415940
	21.610000	0.465271
	21.615000	0.494869
	21.620000	0.442250
	21.625000	0.419229
	21.630000	0.455405
	21.635000	0.488292
	21.640000	0.435672
	21.645000	0.409363
	21.650000	0.452116
	21.655000	0.481715
	21.660000	0.432384
	21.665000	0.406074
	21.670000	0.452116
	21.675000	0.481715
	21.680000	0.432384
	21.685000	0.406074
	21.690000	0.448827
	21.695000	0.475137
	21.700000	0.425806
	21.705000	0.396208
	21.710000	0.448827
	21.715000	0.478426
	21.720000	0.422518
	21.725000	0.396208
	21.730000	0.445539
	21.735000	0.471848
	21.740000	0.419229
	21.745000	0.392919
	21.750000	0.442250
	21.755000	0.471848
	21.760000	0.419229
	21.765000	0.396208
	21.770000	0.442250
	21.775000	0.468560
	21.780000	0.419229
	21.785000	0.392919
	21.790000	0.445539
	21.795000	0.468560
	21.800000	0.422518
	21.805000	0.392919
	21.810000	0.445539
	21.815000	0.465271
	21.820000	0.422518
	21.825000	0.392919
	21.830000	0.438961
	21.835000	0.465271
	21.840000	0.419229
	21.845000	0.389630
	21.850000	0.438961
	21.855000	0.468560
	21.860000	0.419229
	21.865000	0.386342
	21.870000	0.432384
	21.875000	0.465271
	21.880000	0.419229
	21.885000	0.389630
	21.890000	0.435672
	21.895000	0.468560
	21.900000	0.415940
	21.905000	0.386342
	21.910000	0.435672
	21.915000	0.465271
	21.920000	0.412651
	21.925000	0.379764
	21.930000	0.432384
	21.935000	0.461982
	21.940000	0.412651
	21.945000	0.383053
	21.950000	0.435672
	21.955000	0.461982
	21.960000	0.412651
	21.965000	0.386342
	21.970000	0.432384
	21.975000	0.465271
	21.980000	0.412651
	21.985000	0.386342
	21.990000	0.432384
	21.995000	0.461982
	22.000000	0.415940
	22.005000	0.389630
	22.010000	0.435672
	22.015000	0.461982
	22.020000	0.409363
	22.025000	0.383053
	22.030000	0.435672
	22.035000	0.465271
	22.040000	0.412651
	22.045000	0.386342
	22.050000	0.432384
	22.055000	0.461982
	22.060000	0.412651
	22.065000	0.386342
	22.070000	0.432384
	22.075000	0.465271
	22.080000	0.415940
	22.085000	0.386342
	22.090000	0.432384
	22.095000	0.461982
	22.100000	0.415940
	22.105000	0.383053
	22.110000	0.438961
	22.115000	0.465271
	22.120000	0.415940
	22.125000	0.389630
	22.130000	0.435672
	22.135000	0.461982
	22.140000	0.412651
	22.145000	0.386342
	22.150000	0.432384
	22.155000	0.465271
	22.160000	0.419229
	22.165000	0.386342
	22.170000	0.435672
	22.175000	0.468560
	22.180000	0.419229
	22.185000	0.389630
	22.190000	0.432384
	22.195000	0.465271
	22.200000	0.419229
	22.205000	0.389630
	22.210000	0.442250
	22.215000	0.468560
	22.220000	0.412651
	22.225000	0.383053
	22.230000	0.435672
	22.235000	0.465271
	22.240000	0.419229
	22.245000	0.386342
	22.250000	0.432384
	22.255000	0.465271
	22.260000	0.419229
	22.265000	0.389630
	22.270000	0.435672
	22.275000	0.465271
	22.280000	0.415940
	22.285000	0.389630
	22.290000	0.435672
	22.295000	0.465271
	22.300000	0.419229
	22.305000	0.383053
	22.310000	0.435672
	22.315000	0.468560
	22.320000	0.419229
	22.325000	0.389630
	22.330000	0.442250
	22.335000	0.471848
	22.340000	0.419229
	22.345000	0.386342
	22.350000	0.432384
	22.355000	0.468560
	22.360000	0.419229
	22.365000	0.389630
	22.370000	0.435672
	22.375000	0.465271
	22.380000	0.419229
	22.385000	0.386342
	22.390000	0.435672
	22.395000	0.465271
	22.400000	0.419229
	22.405000	0.392919
	22.410000	0.438961
	22.415000	0.465271
	22.420000	0.419229
	22.425000	0.389630
	22.430000	0.432384
	22.435000	0.468560
	22.440000	0.419229
	22.445000	0.392919
	22.450000	0.438961
	22.455000	0.465271
	22.460000	0.415940
	22.465000	0.386342
	22.470000	0.432384
	22.475000	0.468560
	22.480000	0.419229
	22.485000	0.389630
	22.490000	0.438961
	22.495000	0.465271
	22.500000	0.419229
	22.505000	0.392919
	22.510000	0.438961
	22.515000	0.468560
	22.520000	0.419229
	22.525000	0.389630
	22.530000	0.435672
	22.535000	0.475137
	22.540000	0.419229
	22.545000	0.392919
	22.550000	0.438961
	22.555000	0.468560
	22.560000	0.419229
	22.565000	0.386342
	22.570000	0.438961
	22.575000	0.468560
	22.580000	0.422518
	22.585000	0.392919
	22.590000	0.438961
	22.595000	0.468560
	22.600000	0.422518
	22.605000	0.389630
	22.610000	0.442250
	22.615000	0.471848
	22.620000	0.425806
	22.625000	0.389630
	22.630000	0.438961
	22.635000	0.475137
	22.640000	0.422518
	22.645000	0.396208
	22.650000	0.435672
	22.655000	0.465271
	22.660000	0.419229
	22.665000	0.389630
	22.670000	0.435672
	22.675000	0.465271
	22.680000	0.425806
	22.685000	0.392919
	22.690000	0.435672
	22.695000	0.471848
	22.700000	0.422518
	22.705000	0.392919
	22.710000	0.438961
	22.715000	0.471848
	22.720000	0.422518
	22.725000	0.389630
	22.730000	0.435672
	22.735000	0.471848
	22.740000	0.415940
	22.745000	0.392919
	22.750000	0.435672
	22.755000	0.468560
	22.760000	0.419229
	22.765000	0.392919
	22.770000	0.442250
	22.775000	0.468560
	22.780000	0.425806
	22.785000	0.392919
	22.790000	0.435672
	22.795000	0.468560
	22.800000	0.419229
	22.805000	0.392919
	22.810000	0.438961
	22.815000	0.471848
	22.820000	0.425806
	22.825000	0.389630
	22.830000	0.435672
	22.835000	0.465271
	22.840000	0.425806
	22.845000	0.389630
	22.850000	0.438961
	22.855000	0.471848
	22.860000	0.419229
	22.865000	0.392919
	22.870000	0.438961
	22.875000	0.468560
	22.880000	0.419229
	22.885000	0.392919
	22.890000	0.432384
	22.895000	0.471848
	22.900000	0.422518
	22.905000	0.396208
	22.910000	0.435672
	22.915000	0.471848
	22.920000	0.422518
	22.925000	0.396208
	22.930000	0.438961
	22.935000	0.471848
	22.940000	0.422518
	22.945000	0.389630
	22.950000	0.438961
	22.955000	0.468560
	22.960000	0.425806
	22.965000	0.389630
	22.970000	0.438961
	22.975000	0.468560
	22.980000	0.425806
	22.985000	0.386342
	22.990000	0.438961
	22.995000	0.475137
	23.000000	0.432384
	23.005000	0.389630
	23.010000	0.438961
	23.015000	0.468560
	23.020000	0.425806
	23.025000	0.392919
	23.030000	0.435672
	23.035000	0.475137
	23.040000	0.425806
	23.045000	0.392919
	23.050000	0.442250
	23.055000	0.475137
	23.060000	0.429095
	23.065000	0.396208
	23.070000	0.438961
	23.075000	0.478426
	23.080000	0.425806
	23.085000	0.396208
	23.090000	0.438961
	23.095000	0.478426
	23.100000	0.429095
	23.105000	0.396208
	23.110000	0.442250
	23.115000	0.475137
	23.120000	0.425806
	23.125000	0.399496
	23.130000	0.445539
	23.135000	0.475137
	23.140000	0.432384
	23.145000	0.402785
	23.150000	0.445539
	23.155000	0.478426
	23.160000	0.432384
	23.165000	0.399496
	23.170000	0.445539
	23.175000	0.478426
	23.180000	0.435672
	23.185000	0.402785
	23.190000	0.445539
	23.195000	0.485003
	23.200000	0.438961
	23.205000	0.412651
	23.210000	0.452116
	23.215000	0.485003
	23.220000	0.442250
	23.225000	0.406074
	23.230000	0.445539
	23.235000	0.485003
	23.240000	0.435672
	23.245000	0.409363
	23.250000	0.448827
	23.255000	0.485003
	23.260000	0.438961
	23.265000	0.406074
	23.270000	0.442250
	23.275000	0.485003
	23.280000	0.435672
	23.285000	0.402785
	23.290000	0.442250
	23.295000	0.478426
	23.300000	0.429095
	23.305000	0.389630
	23.310000	0.438961
	23.315000	0.468560
	23.320000	0.425806
	23.325000	0.392919
	23.330000	0.435672
	23.335000	0.465271
	23.340000	0.419229
	23.345000	0.386342
	23.350000	0.432384
	23.355000	0.468560
	23.360000	0.422518
	23.365000	0.383053
	23.370000	0.432384
	23.375000	0.465271
	23.380000	0.419229
	23.385000	0.392919
	23.390000	0.438961
	23.395000	0.461982
	23.400000	0.425806
	23.405000	0.386342
	23.410000	0.432384
	23.415000	0.471848
	23.420000	0.429095
	23.425000	0.402785
	23.430000	0.438961
	23.435000	0.485003
	23.440000	0.442250
	23.445000	0.409363
	23.450000	0.452116
	23.455000	0.488292
	23.460000	0.438961
	23.465000	0.409363
	23.470000	0.448827
	23.475000	0.478426
	23.480000	0.442250
	23.485000	0.409363
	23.490000	0.452116
	23.495000	0.481715
	23.500000	0.438961
	23.505000	0.409363
	23.510000	0.445539
	23.515000	0.485003
	23.520000	0.435672
	23.525000	0.402785
	23.530000	0.442250
	23.535000	0.478426
	23.540000	0.432384
	23.545000	0.399496
	23.550000	0.442250
	23.555000	0.475137
	23.560000	0.432384
	23.565000	0.396208
	23.570000	0.438961
	23.575000	0.475137
	23.580000	0.429095
	23.585000	0.396208
	23.590000	0.438961
	23.595000	0.468560
	23.600000	0.429095
	23.605000	0.392919
	23.610000	0.435672
	23.615000	0.471848
	23.620000	0.429095
	23.625000	0.396208
	23.630000	0.432384
	23.635000	0.465271
	23.640000	0.425806
	23.645000	0.389630
	23.650000	0.429095
	23.655000	0.471848
	23.660000	0.422518
	23.665000	0.389630
	23.670000	0.432384
	23.675000	0.465271
	23.680000	0.419229
	23.685000	0.386342
	23.690000	0.432384
	23.695000	0.465271
	23.700000	0.422518
	23.705000	0.389630
	23.710000	0.429095
	23.715000	0.465271
	23.720000	0.419229
	23.725000	0.386342
	23.730000	0.429095
	23.735000	0.461982
	23.740000	0.419229
	23.745000	0.386342
	23.750000	0.425806
	23.755000	0.461982
	23.760000	0.422518
	23.765000	0.379764
	23.770000	0.425806
	23.775000	0.461982
	23.780000	0.415940
	23.785000	0.379764
	23.790000	0.422518
	23.795000	0.461982
	23.800000	0.415940
	23.805000	0.383053
	23.810000	0.422518
	23.815000	0.465271
	23.820000	0.419229
	23.825000	0.379764
	23.830000	0.425806
	23.835000	0.455405
	23.840000	0.419229
	23.845000	0.379764
	23.850000	0.419229
	23.855000	0.458694
	23.860000	0.419229
	23.865000	0.379764
	23.870000	0.419229
	23.875000	0.458694
	23.880000	0.415940
	23.885000	0.379764
	23.890000	0.419229
	23.895000	0.452116
	23.900000	0.412651
	23.905000	0.379764
	23.910000	0.419229
	23.915000	0.461982
	23.920000	0.412651
	23.925000	0.379764
	23.930000	0.419229
	23.935000	0.455405
	23.940000	0.412651
	23.945000	0.376475
	23.950000	0.419229
	23.955000	0.455405
	23.960000	0.419229
	23.965000	0.373187
	23.970000	0.415940
	23.975000	0.461982
	23.980000	0.412651
	23.985000	0.376475
	23.990000	0.412651
	23.995000	0.458694
	24.000000	0.409363
	24.005000	0.373187
	24.010000	0.419229
	24.015000	0.455405
	24.020000	0.412651
	24.025000	0.373187
	24.030000	0.415940
	24.035000	0.452116
	24.040000	0.412651
	24.045000	0.369898
	24.050000	0.412651
	24.055000	0.455405
	24.060000	0.412651
	24.065000	0.373187
	24.070000	0.409363
	24.075000	0.455405
	24.080000	0.406074
	24.085000	0.373187
	24.090000	0.415940
	24.095000	0.455405
	24.100000	0.415940
	24.105000	0.373187
	24.110000	0.415940
	24.115000	0.452116
	24.120000	0.412651
	24.125000	0.369898
	24.130000	0.415940
	24.135000	0.455405
	24.140000	0.412651
	24.145000	0.373187
	24.150000	0.422518
	24.155000	0.458694
	24.160000	0.415940
	24.165000	0.369898
	24.170000	0.409363
	24.175000	0.455405
	24.180000	0.406074
	24.185000	0.376475
	24.190000	0.415940
	24.195000	0.452116
	24.200000	0.412651
	24.205000	0.379764
	24.210000	0.415940
	24.215000	0.455405
	24.220000	0.415940
	24.225000	0.379764
	24.230000	0.415940
	24.235000	0.455405
	24.240000	0.412651
	24.245000	0.373187
	24.250000	0.415940
	24.255000	0.455405
	24.260000	0.412651
	24.265000	0.369898
	24.270000	0.419229
	24.275000	0.455405
	24.280000	0.412651
	24.285000	0.379764
	24.290000	0.412651
	24.295000	0.458694
	24.300000	0.412651
	24.305000	0.379764
	24.310000	0.415940
	24.315000	0.455405
	24.320000	0.419229
	24.325000	0.376475
	24.330000	0.412651
	24.335000	0.458694
	24.340000	0.412651
	24.345000	0.379764
	24.350000	0.419229
	24.355000	0.458694
	24.360000	0.419229
	24.365000	0.379764
	24.370000	0.419229
	24.375000	0.458694
	24.380000	0.419229
	24.385000	0.379764
	24.390000	0.415940
	24.395000	0.458694
	24.400000	0.415940
	24.405000	0.383053
	24.410000	0.415940
	24.415000	0.455405
	24.420000	0.415940
	24.425000	0.379764
	24.430000	0.422518
	24.435000	0.458694
	24.440000	0.419229
	24.445000	0.383053
	24.450000	0.415940
	24.455000	0.461982
	24.460000	0.422518
	24.465000	0.379764
	24.470000	0.419229
	24.475000	0.461982
	24.480000	0.419229
	24.485000	0.379764
	24.490000	0.419229
	24.495000	0.458694
	24.500000	0.422518
	24.505000	0.379764
	24.510000	0.419229
	24.515000	0.461982
	24.520000	0.422518
	24.525000	0.383053
	24.530000	0.415940
	24.535000	0.458694
	24.540000	0.419229
	24.545000	0.379764
	24.550000	0.419229
	24.555000	0.458694
	24.560000	0.419229
	24.565000	0.379764
	24.570000	0.419229
	24.575000	0.458694
	24.580000	0.422518
	24.585000	0.379764
	24.590000	0.419229
	24.595000	0.458694
	24.600000	0.419229
	24.605000	0.379764
	24.610000	0.422518
	24.615000	0.461982
	24.620000	0.419229
	24.625000	0.379764
	24.630000	0.419229
	24.635000	0.458694
	24.640000	0.422518
	24.645000	0.376475
	24.650000	0.415940
	24.655000	0.461982
	24.660000	0.422518
	24.665000	0.383053
	24.670000	0.419229
	24.675000	0.458694
	24.680000	0.422518
	24.685000	0.379764
	24.690000	0.415940
	24.695000	0.461982
	24.700000	0.419229
	24.705000	0.383053
	24.710000	0.419229
	24.715000	0.455405
	24.720000	0.425806
	24.725000	0.379764
	24.730000	0.419229
	24.735000	0.461982
	24.740000	0.419229
	24.745000	0.386342
	24.750000	0.422518
	24.755000	0.461982
	24.760000	0.425806
	24.765000	0.383053
	24.770000	0.422518
	24.775000	0.458694
	24.780000	0.422518
	24.785000	0.386342
	24.790000	0.422518
	24.795000	0.465271
	24.800000	0.422518
	24.805000	0.386342
	24.810000	0.422518
	24.815000	0.465271
	24.820000	0.425806
	24.825000	0.386342
	24.830000	0.422518
	24.835000	0.461982
	24.840000	0.425806
	24.845000	0.383053
	24.850000	0.419229
	24.855000	0.455405
	24.860000	0.425806
	24.865000	0.383053
	24.870000	0.425806
	24.875000	0.468560
	24.880000	0.422518
	24.885000	0.386342
	24.890000	0.422518
	24.895000	0.461982
	24.900000	0.429095
	24.905000	0.383053
	24.910000	0.429095
	24.915000	0.465271
	24.920000	0.425806
	24.925000	0.386342
	24.930000	0.422518
	24.935000	0.468560
	24.940000	0.429095
	24.945000	0.379764
	24.950000	0.422518
	24.955000	0.471848
	24.960000	0.432384
	24.965000	0.389630
	24.970000	0.425806
	24.975000	0.468560
	24.980000	0.425806
	24.985000	0.383053
	24.990000	0.422518
	24.995000	0.465271
	25.000000	0.429095
	25.005000	0.386342
	25.010000	0.425806
	25.015000	0.468560
	25.020000	0.432384
	25.025000	0.389630
	25.030000	0.429095
	25.035000	0.468560
	25.040000	0.425806
	25.045000	0.386342
	25.050000	0.425806
	25.055000	0.468560
	25.060000	0.429095
	25.065000	0.389630
	25.070000	0.429095
	25.075000	0.468560
	25.080000	0.435672
	25.085000	0.389630
	25.090000	0.432384
	25.095000	0.471848
	25.100000	0.432384
	25.105000	0.392919
	25.110000	0.429095
	25.115000	0.471848
	25.120000	0.438961
	25.125000	0.389630
	25.130000	0.425806
	25.135000	0.478426
	25.140000	0.435672
	25.145000	0.389630
	25.150000	0.429095
	25.155000	0.471848
	25.160000	0.438961
	25.165000	0.399496
	25.170000	0.432384
	25.175000	0.478426
	25.180000	0.435672
	25.185000	0.392919
	25.190000	0.429095
	25.195000	0.471848
	25.200000	0.435672
	25.205000	0.396208
	25.210000	0.429095
	25.215000	0.475137
	25.220000	0.435672
	25.225000	0.392919
	25.230000	0.429095
	25.235000	0.465271
	25.240000	0.432384
	25.245000	0.392919
	25.250000	0.425806
	25.255000	0.478426
	25.260000	0.438961
	25.265000	0.396208
	25.270000	0.425806
	25.275000	0.468560
	25.280000	0.438961
	25.285000	0.396208
	25.290000	0.429095
	25.295000	0.475137
	25.300000	0.438961
	25.305000	0.399496
	25.310000	0.429095
	25.315000	0.468560
	25.320000	0.438961
	25.325000	0.399496
	25.330000	0.429095
	25.335000	0.478426
	25.340000	0.438961
	25.345000	0.396208
	25.350000	0.432384
	25.355000	0.468560
	25.360000	0.442250
	25.365000	0.399496
	25.370000	0.429095
	25.375000	0.475137
	25.380000	0.438961
	25.385000	0.392919
	25.390000	0.425806
	25.395000	0.471848
	25.400000	0.432384
	25.405000	0.389630
	25.410000	0.425806
	25.415000	0.468560
	25.420000	0.435672
	25.425000	0.386342
	25.430000	0.422518
	25.435000	0.468560
	25.440000	0.432384
	25.445000	0.389630
	25.450000	0.425806
	25.455000	0.468560
	25.460000	0.435672
	25.465000	0.386342
	25.470000	0.422518
	25.475000	0.468560
	25.480000	0.435672
	25.485000	0.392919
	25.490000	0.425806
	25.495000	0.465271
	25.500000	0.432384
	25.505000	0.386342
	25.510000	0.419229
	25.515000	0.465271
	25.520000	0.425806
	25.525000	0.386342
	25.530000	0.415940
	25.535000	0.468560
	25.540000	0.429095
	25.545000	0.379764
	25.550000	0.422518
	25.555000	0.468560
	25.560000	0.429095
	25.565000	0.383053
	25.570000	0.419229
	25.575000	0.465271
	25.580000	0.432384
	25.585000	0.386342
	25.590000	0.422518
	25.595000	0.465271
	25.600000	0.429095
	25.605000	0.386342
	25.610000	0.419229
	25.615000	0.461982
	25.620000	0.432384
	25.625000	0.386342
	25.630000	0.422518
	25.635000	0.465271
	25.640000	0.429095
	25.645000	0.389630
	25.650000	0.422518
	25.655000	0.468560
	25.660000	0.429095
	25.665000	0.386342
	25.670000	0.419229
	25.675000	0.461982
	25.680000	0.432384
	25.685000	0.389630
	25.690000	0.419229
	25.695000	0.461982
	25.700000	0.432384
	25.705000	0.383053
	25.710000	0.419229
	25.715000	0.465271
	25.720000	0.429095
	25.725000	0.383053
	25.730000	0.419229
	25.735000	0.465271
	25.740000	0.425806
	25.745000	0.383053
	25.750000	0.419229
	25.755000	0.461982
	25.760000	0.429095
	25.765000	0.386342
	25.770000	0.422518
	25.775000	0.465271
	25.780000	0.425806
	25.785000	0.386342
	25.790000	0.422518
	25.795000	0.461982
	25.800000	0.429095
	25.805000	0.383053
	25.810000	0.419229
	25.815000	0.465271
	25.820000	0.432384
	25.825000	0.386342
	25.830000	0.415940
	25.835000	0.461982
	25.840000	0.429095
	25.845000	0.389630
	25.850000	0.419229
	25.855000	0.461982
	25.860000	0.432384
	25.865000	0.383053
	25.870000	0.412651
	25.875000	0.461982
	25.880000	0.429095
	25.885000	0.386342
	25.890000	0.419229
	25.895000	0.468560
	25.900000	0.432384
	25.905000	0.389630
	25.910000	0.419229
	25.915000	0.461982
	25.920000	0.429095
	25.925000	0.383053
	25.930000	0.422518
	25.935000	0.465271
	25.940000	0.432384
	25.945000	0.389630
	25.950000	0.419229
	25.955000	0.465271
	25.960000	0.432384
	25.965000	0.383053
	25.970000	0.419229
	25.975000	0.465271
	25.980000	0.432384
	25.985000	0.383053
	25.990000	0.415940
	25.995000	0.465271
	26.000000	0.435672
	26.005000	0.386342
	26.010000	0.419229
	26.015000	0.471848
	26.020000	0.432384
	26.025000	0.386342
	26.030000	0.419229
	26.035000	0.468560
	26.040000	0.432384
	26.045000	0.389630
	26.050000	0.422518
	26.055000	0.468560
	26.060000	0.435672
	26.065000	0.386342
	26.070000	0.419229
	26.075000	0.465271
	26.080000	0.438961
	26.085000	0.386342
	26.090000	0.422518
	26.095000	0.471848
	26.100000	0.432384
	26.105000	0.389630
	26.110000	0.422518
	26.115000	0.465271
	26.120000	0.435672
	26.125000	0.386342
	26.130000	0.422518
	26.135000	0.465271
	26.140000	0.435672
	26.145000	0.386342
	26.150000	0.422518
	26.155000	0.471848
	26.160000	0.432384
	26.165000	0.386342
	26.170000	0.422518
	26.175000	0.468560
	26.180000	0.435672
	26.185000	0.389630
	26.190000	0.422518
	26.195000	0.465271
	26.200000	0.432384
	26.205000	0.392919
	26.210000	0.419229
	26.215000	0.471848
	26.220000	0.438961
	26.225000	0.383053
	26.230000	0.419229
	26.235000	0.471848
	26.240000	0.438961
	26.245000	0.389630
	26.250000	0.419229
	26.255000	0.468560
	26.260000	0.435672
	26.265000	0.389630
	26.270000	0.422518
	26.275000	0.471848
	26.280000	0.435672
	26.285000	0.389630
	26.290000	0.429095
	26.295000	0.471848
	26.300000	0.432384
	26.305000	0.389630
	26.310000	0.419229
	26.315000	0.468560
	26.320000	0.438961
	26.325000	0.392919
	26.330000	0.419229
	26.335000	0.471848
	26.340000	0.435672
	26.345000	0.389630
	26.350000	0.415940
	26.355000	0.468560
	26.360000	0.438961
	26.365000	0.389630
	26.370000	0.419229
	26.375000	0.465271
	26.380000	0.435672
	26.385000	0.386342
	26.390000	0.415940
	26.395000	0.468560
	26.400000	0.435672
	26.405000	0.389630
	26.410000	0.419229
	26.415000	0.468560
	26.420000	0.432384
	26.425000	0.383053
	26.430000	0.419229
	26.435000	0.461982
	26.440000	0.435672
	26.445000	0.389630
	26.450000	0.422518
	26.455000	0.468560
	26.460000	0.435672
	26.465000	0.392919
	26.470000	0.419229
	26.475000	0.465271
	26.480000	0.438961
	26.485000	0.383053
	26.490000	0.415940
	26.495000	0.468560
	26.500000	0.438961
	26.505000	0.386342
	26.510000	0.422518
	26.515000	0.468560
	26.520000	0.442250
	26.525000	0.389630
	26.530000	0.419229
	26.535000	0.468560
	26.540000	0.438961
	26.545000	0.389630
	26.550000	0.419229
	26.555000	0.468560
	26.560000	0.438961
	26.565000	0.389630
	26.570000	0.422518
	26.575000	0.461982
	26.580000	0.438961
	26.585000	0.386342
	26.590000	0.419229
	26.595000	0.468560
	26.600000	0.438961
	26.605000	0.392919
	26.610000	0.419229
	26.615000	0.468560
	26.620000	0.438961
	26.625000	0.392919
	26.630000	0.415940
	26.635000	0.471848
	26.640000	0.438961
	26.645000	0.386342
	26.650000	0.419229
	26.655000	0.468560
	26.660000	0.435672
	26.665000	0.389630
	26.670000	0.415940
	26.675000	0.465271
	26.680000	0.442250
	26.685000	0.392919
	26.690000	0.419229
	26.695000	0.468560
	26.700000	0.435672
	26.705000	0.392919
	26.710000	0.415940
	26.715000	0.465271
	26.720000	0.435672
	26.725000	0.389630
	26.730000	0.419229
	26.735000	0.468560
	26.740000	0.438961
	26.745000	0.386342
	26.750000	0.419229
	26.755000	0.468560
	26.760000	0.438961
	26.765000	0.389630
	26.770000	0.419229
	26.775000	0.468560
	26.780000	0.435672
	26.785000	0.386342
	26.790000	0.415940
	26.795000	0.468560
	26.800000	0.435672
	26.805000	0.386342
	26.810000	0.419229
	26.815000	0.468560
	26.820000	0.438961
	26.825000	0.389630
	26.830000	0.419229
	26.835000	0.465271
	26.840000	0.442250
	26.845000	0.392919
	26.850000	0.415940
	26.855000	0.468560
	26.860000	0.438961
	26.865000	0.389630
	26.870000	0.419229
	26.875000	0.468560
	26.880000	0.442250
	26.885000	0.386342
	26.890000	0.415940
	26.895000	0.468560
	26.900000	0.442250
	26.905000	0.389630
	26.910000	0.415940
	26.915000	0.468560
	26.920000	0.438961
	26.925000	0.392919
	26.930000	0.419229
	26.935000	0.471848
	26.940000	0.442250
	26.945000	0.392919
	26.950000	0.419229
	26.955000	0.471848
	26.960000	0.438961
	26.965000	0.389630
	26.970000	0.415940
	26.975000	0.465271
	26.980000	0.435672
	26.985000	0.383053
	26.990000	0.419229
	26.995000	0.461982
	27.000000	0.435672
	27.005000	0.383053
	27.010000	0.412651
	27.015000	0.461982
	27.020000	0.438961
	27.025000	0.383053
	27.030000	0.415940
	27.035000	0.458694
	27.040000	0.432384
	27.045000	0.383053
	27.050000	0.412651
	27.055000	0.458694
	27.060000	0.432384
	27.065000	0.383053
	27.070000	0.409363
	27.075000	0.455405
	27.080000	0.429095
	27.085000	0.386342
	27.090000	0.409363
	27.095000	0.455405
	27.100000	0.432384
	27.105000	0.386342
	27.110000	0.412651
	27.115000	0.458694
	27.120000	0.435672
	27.125000	0.383053
	27.130000	0.409363
	27.135000	0.458694
	27.140000	0.438961
	27.145000	0.379764
	27.150000	0.406074
	27.155000	0.458694
	27.160000	0.429095
	27.165000	0.379764
	27.170000	0.409363
	27.175000	0.458694
	27.180000	0.429095
	27.185000	0.379764
	27.190000	0.406074
	27.195000	0.458694
	27.200000	0.435672
	27.205000	0.379764
	27.210000	0.406074
	27.215000	0.452116
	27.220000	0.425806
	27.225000	0.376475
	27.230000	0.406074
	27.235000	0.455405
	27.240000	0.432384
	27.245000	0.383053
	27.250000	0.406074
	27.255000	0.458694
	27.260000	0.425806
	27.265000	0.376475
	27.270000	0.406074
	27.275000	0.455405
	27.280000	0.429095
	27.285000	0.376475
	27.290000	0.406074
	27.295000	0.455405
	27.300000	0.432384
	27.305000	0.373187
	27.310000	0.406074
	27.315000	0.455405
	27.320000	0.425806
	27.325000	0.379764
	27.330000	0.399496
	27.335000	0.452116
	27.340000	0.432384
	27.345000	0.376475
	27.350000	0.402785
	27.355000	0.452116
	27.360000	0.432384
	27.365000	0.379764
	27.370000	0.406074
	27.375000	0.452116
	27.380000	0.425806
	27.385000	0.379764
	27.390000	0.406074
	27.395000	0.455405
	27.400000	0.425806
	27.405000	0.379764
	27.410000	0.406074
	27.415000	0.455405
	27.420000	0.432384
	27.425000	0.383053
	27.430000	0.402785
	27.435000	0.452116
	27.440000	0.429095
	27.445000	0.376475
	27.450000	0.406074
	27.455000	0.455405
	27.460000	0.429095
	27.465000	0.379764
	27.470000	0.409363
	27.475000	0.452116
	27.480000	0.432384
	27.485000	0.373187
	27.490000	0.402785
	27.495000	0.458694
	27.500000	0.429095
	27.505000	0.379764
	27.510000	0.406074
	27.515000	0.452116
	27.520000	0.429095
	27.525000	0.379764
	27.530000	0.406074
	27.535000	0.452116
	27.540000	0.429095
	27.545000	0.379764
	27.550000	0.406074
	27.555000	0.455405
	27.560000	0.435672
	27.565000	0.383053
	27.570000	0.402785
	27.575000	0.452116
	27.580000	0.432384
	27.585000	0.383053
	27.590000	0.406074
	27.595000	0.455405
	27.600000	0.435672
	27.605000	0.383053
	27.610000	0.406074
	27.615000	0.458694
	27.620000	0.432384
	27.625000	0.386342
	27.630000	0.406074
	27.635000	0.455405
	27.640000	0.435672
	27.645000	0.379764
	27.650000	0.406074
	27.655000	0.461982
	27.660000	0.435672
	27.665000	0.389630
	27.670000	0.409363
	27.675000	0.455405
	27.680000	0.432384
	27.685000	0.383053
	27.690000	0.409363
	27.695000	0.461982
	27.700000	0.435672
	27.705000	0.383053
	27.710000	0.406074
	27.715000	0.458694
	27.720000	0.435672
	27.725000	0.379764
	27.730000	0.406074
	27.735000	0.458694
	27.740000	0.435672
	27.745000	0.383053
	27.750000	0.402785
	27.755000	0.458694
	27.760000	0.438961
	27.765000	0.383053
	27.770000	0.406074
	27.775000	0.465271
	27.780000	0.435672
	27.785000	0.383053
	27.790000	0.412651
	27.795000	0.455405
	27.800000	0.438961
	27.805000	0.386342
	27.810000	0.409363
	27.815000	0.461982
	27.820000	0.435672
	27.825000	0.379764
	27.830000	0.409363
	27.835000	0.458694
	27.840000	0.438961
	27.845000	0.386342
	27.850000	0.409363
	27.855000	0.461982
	27.860000	0.442250
	27.865000	0.386342
	27.870000	0.406074
	27.875000	0.458694
	27.880000	0.438961
	27.885000	0.383053
	27.890000	0.409363
	27.895000	0.458694
	27.900000	0.438961
	27.905000	0.383053
	27.910000	0.406074
	27.915000	0.458694
	27.920000	0.438961
	27.925000	0.383053
	27.930000	0.412651
	27.935000	0.452116
	27.940000	0.442250
	27.945000	0.386342
	27.950000	0.406074
	27.955000	0.465271
	27.960000	0.438961
	27.965000	0.386342
	27.970000	0.409363
	27.975000	0.458694
	27.980000	0.442250
	27.985000	0.389630
	27.990000	0.409363
	27.995000	0.461982
	28.000000	0.442250
	28.005000	0.386342
	28.010000	0.412651
	28.015000	0.461982
	28.020000	0.442250
	28.025000	0.386342
	28.030000	0.412651
	28.035000	0.458694
	28.040000	0.432384
	28.045000	0.386342
	28.050000	0.409363
	28.055000	0.461982
	28.060000	0.438961
	28.065000	0.386342
	28.070000	0.406074
	28.075000	0.458694
	28.080000	0.442250
	28.085000	0.389630
	28.090000	0.412651
	28.095000	0.461982
	28.100000	0.442250
	28.105000	0.389630
	28.110000	0.412651
	28.115000	0.461982
	28.120000	0.442250
	28.125000	0.389630
	28.130000	0.412651
	28.135000	0.461982
	28.140000	0.442250
	28.145000	0.392919
	28.150000	0.406074
	28.155000	0.461982
	28.160000	0.445539
	28.165000	0.389630
	28.170000	0.406074
	28.175000	0.458694
	28.180000	0.438961
	28.185000	0.383053
	28.190000	0.412651
	28.195000	0.461982
	28.200000	0.438961
	28.205000	0.386342
	28.210000	0.409363
	28.215000	0.461982
	28.220000	0.442250
	28.225000	0.389630
	28.230000	0.409363
	28.235000	0.461982
	28.240000	0.438961
	28.245000	0.383053
	28.250000	0.409363
	28.255000	0.461982
	28.260000	0.445539
	28.265000	0.389630
	28.270000	0.406074
	28.275000	0.458694
	28.280000	0.442250
	28.285000	0.389630
	28.290000	0.412651
	28.295000	0.461982
	28.300000	0.442250
	28.305000	0.389630
	28.310000	0.412651
	28.315000	0.465271
	28.320000	0.438961
	28.325000	0.389630
	28.330000	0.412651
	28.335000	0.465271
	28.340000	0.448827
	28.345000	0.392919
	28.350000	0.409363
	28.355000	0.465271
	28.360000	0.445539
	28.365000	0.386342
	28.370000	0.415940
	28.375000	0.461982
	28.380000	0.442250
	28.385000	0.396208
	28.390000	0.412651
	28.395000	0.461982
	28.400000	0.442250
	28.405000	0.386342
	28.410000	0.409363
	28.415000	0.465271
	28.420000	0.438961
	28.425000	0.389630
	28.430000	0.406074
	28.435000	0.458694
	28.440000	0.438961
	28.445000	0.383053
	28.450000	0.399496
	28.455000	0.458694
	28.460000	0.435672
	28.465000	0.383053
	28.470000	0.406074
	28.475000	0.458694
	28.480000	0.438961
	28.485000	0.386342
	28.490000	0.402785
	28.495000	0.452116
	28.500000	0.432384
	28.505000	0.379764
	28.510000	0.392919
	28.515000	0.435672
	28.520000	0.419229
	28.525000	0.356743
	28.530000	0.376475
	28.535000	0.422518
	28.540000	0.406074
	28.545000	0.353454
	28.550000	0.366609
	28.555000	0.412651
	28.560000	0.396208
	28.565000	0.346877
	28.570000	0.363321
	28.575000	0.415940
	28.580000	0.396208
	28.585000	0.337011
	28.590000	0.356743
	28.595000	0.412651
	28.600000	0.392919
	28.605000	0.340299
	28.610000	0.363321
	28.615000	0.412651
	28.620000	0.396208
	28.625000	0.337011
	28.630000	0.360032
	28.635000	0.412651
	28.640000	0.396208
	28.645000	0.343588
	28.650000	0.356743
	28.655000	0.409363
	28.660000	0.392919
	28.665000	0.337011
	28.670000	0.360032
	28.675000	0.412651
	28.680000	0.392919
	28.685000	0.346877
	28.690000	0.356743
	28.695000	0.412651
	28.700000	0.399496
	28.705000	0.340299
	28.710000	0.363321
	28.715000	0.415940
	28.720000	0.396208
	28.725000	0.343588
	28.730000	0.360032
	28.735000	0.412651
	28.740000	0.396208
	28.745000	0.343588
	28.750000	0.360032
	28.755000	0.415940
	28.760000	0.399496
	28.765000	0.343588
	28.770000	0.363321
	28.775000	0.409363
	28.780000	0.396208
	28.785000	0.343588
	28.790000	0.363321
	28.795000	0.415940
	28.800000	0.399496
	28.805000	0.343588
	28.810000	0.363321
	28.815000	0.415940
	28.820000	0.402785
	28.825000	0.350166
	28.830000	0.366609
	28.835000	0.412651
	28.840000	0.399496
	28.845000	0.343588
	28.850000	0.369898
	28.855000	0.419229
	28.860000	0.402785
	28.865000	0.346877
	28.870000	0.363321
	28.875000	0.422518
	28.880000	0.402785
	28.885000	0.350166
	28.890000	0.366609
	28.895000	0.415940
	28.900000	0.402785
	28.905000	0.350166
	28.910000	0.366609
	28.915000	0.422518
	28.920000	0.406074
	28.925000	0.350166
	28.930000	0.369898
	28.935000	0.422518
	28.940000	0.409363
	28.945000	0.353454
	28.950000	0.366609
	28.955000	0.419229
	28.960000	0.409363
	28.965000	0.350166
	28.970000	0.373187
	28.975000	0.425806
	28.980000	0.409363
	28.985000	0.353454
	28.990000	0.373187
	28.995000	0.425806
	29.000000	0.412651
	29.005000	0.360032
	29.010000	0.373187
	29.015000	0.429095
	29.020000	0.409363
	29.025000	0.356743
	29.030000	0.369898
	29.035000	0.432384
	29.040000	0.409363
	29.045000	0.356743
	29.050000	0.376475
	29.055000	0.422518
	29.060000	0.412651
	29.065000	0.360032
	29.070000	0.379764
	29.075000	0.432384
	29.080000	0.415940
	29.085000	0.356743
	29.090000	0.373187
	29.095000	0.429095
	29.100000	0.412651
	29.105000	0.363321
	29.110000	0.376475
	29.115000	0.429095
	29.120000	0.415940
	29.125000	0.360032
	29.130000	0.373187
	29.135000	0.432384
	29.140000	0.415940
	29.145000	0.356743
	29.150000	0.379764
	29.155000	0.432384
	29.160000	0.419229
	29.165000	0.363321
	29.170000	0.376475
	29.175000	0.432384
	29.180000	0.419229
	29.185000	0.363321
	29.190000	0.379764
	29.195000	0.432384
	29.200000	0.422518
	29.205000	0.366609
	29.210000	0.379764
	29.215000	0.435672
	29.220000	0.419229
	29.225000	0.360032
	29.230000	0.383053
	29.235000	0.432384
	29.240000	0.419229
	29.245000	0.366609
	29.250000	0.383053
	29.255000	0.432384
	29.260000	0.419229
	29.265000	0.366609
	29.270000	0.379764
	29.275000	0.435672
	29.280000	0.415940
	29.285000	0.366609
	29.290000	0.376475
	29.295000	0.432384
	29.300000	0.425806
	29.305000	0.363321
	29.310000	0.379764
	29.315000	0.432384
	29.320000	0.422518
	29.325000	0.369898
	29.330000	0.383053
	29.335000	0.435672
	29.340000	0.419229
	29.345000	0.366609
	29.350000	0.379764
	29.355000	0.438961
	29.360000	0.425806
	29.365000	0.366609
	29.370000	0.389630
	29.375000	0.435672
	29.380000	0.425806
	29.385000	0.366609
	29.390000	0.383053
	29.395000	0.435672
	29.400000	0.429095
	29.405000	0.366609
	29.410000	0.383053
	29.415000	0.438961
	29.420000	0.422518
	29.425000	0.369898
	29.430000	0.386342
	29.435000	0.438961
	29.440000	0.422518
	29.445000	0.369898
	29.450000	0.386342
	29.455000	0.438961
	29.460000	0.425806
	29.465000	0.366609
	29.470000	0.383053
	29.475000	0.435672
	29.480000	0.432384
	29.485000	0.369898
	29.490000	0.379764
	29.495000	0.438961
	29.500000	0.429095
	29.505000	0.373187
	29.510000	0.386342
	29.515000	0.442250
	29.520000	0.425806
	29.525000	0.366609
	29.530000	0.383053
	29.535000	0.438961
	29.540000	0.429095
	29.545000	0.369898
	29.550000	0.386342
	29.555000	0.438961
	29.560000	0.429095
	29.565000	0.373187
	29.570000	0.379764
	29.575000	0.435672
	29.580000	0.425806
	29.585000	0.373187
	29.590000	0.383053
	29.595000	0.445539
	29.600000	0.425806
	29.605000	0.376475
	29.610000	0.383053
	29.615000	0.442250
	29.620000	0.432384
	29.625000	0.373187
	29.630000	0.383053
	29.635000	0.438961
	29.640000	0.429095
	29.645000	0.373187
	29.650000	0.383053
	29.655000	0.442250
	29.660000	0.432384
	29.665000	0.379764
	29.670000	0.383053
	29.675000	0.442250
	29.680000	0.432384
	29.685000	0.373187
	29.690000	0.383053
	29.695000	0.445539
	29.700000	0.425806
	29.705000	0.373187
	29.710000	0.386342
	29.715000	0.442250
	29.720000	0.432384
	29.725000	0.376475
	29.730000	0.389630
	29.735000	0.445539
	29.740000	0.432384
	29.745000	0.379764
	29.750000	0.389630
	29.755000	0.445539
	29.760000	0.432384
	29.765000	0.376475
	29.770000	0.389630
	29.775000	0.442250
	29.780000	0.432384
	29.785000	0.376475
	29.790000	0.389630
	29.795000	0.442250
	29.800000	0.432384
	29.805000	0.376475
	29.810000	0.386342
	29.815000	0.438961
	29.820000	0.432384
	29.825000	0.379764
	29.830000	0.389630
	29.835000	0.445539
	29.840000	0.435672
	29.845000	0.376475
	29.850000	0.386342
	29.855000	0.442250
	29.860000	0.438961
	29.865000	0.376475
	29.870000	0.386342
	29.875000	0.442250
	29.880000	0.435672
	29.885000	0.379764
	29.890000	0.386342
	29.895000	0.442250
	29.900000	0.435672
	29.905000	0.373187
	29.910000	0.386342
	29.915000	0.445539
	29.920000	0.435672
	29.925000	0.379764
	29.930000	0.386342
	29.935000	0.442250
	29.940000	0.435672
	29.945000	0.379764
	29.950000	0.389630
	29.955000	0.445539
	29.960000	0.438961
	29.965000	0.379764
	29.970000	0.386342
	29.975000	0.442250
	29.980000	0.435672
	29.985000	0.379764
	29.990000	0.389630
	29.995000	0.442250
	30.000000	0.438961
	30.005000	0.379764
	30.010000	0.396208
	30.015000	0.452116
	30.020000	0.435672
	30.025000	0.376475
	30.030000	0.389630
	30.035000	0.448827
	30.040000	0.435672
	30.045000	0.376475
	30.050000	0.386342
	30.055000	0.445539
	30.060000	0.438961
	30.065000	0.383053
	30.070000	0.386342
	30.075000	0.445539
	30.080000	0.432384
	30.085000	0.379764
	30.090000	0.392919
	30.095000	0.445539
	30.100000	0.438961
	30.105000	0.379764
	30.110000	0.389630
	30.115000	0.442250
	30.120000	0.442250
	30.125000	0.379764
	30.130000	0.392919
	30.135000	0.445539
	30.140000	0.442250
	30.145000	0.383053
	30.150000	0.389630
	30.155000	0.445539
	30.160000	0.438961
	30.165000	0.386342
	30.170000	0.389630
	30.175000	0.445539
	30.180000	0.438961
	30.185000	0.383053
	30.190000	0.389630
	30.195000	0.452116
	30.200000	0.438961
	30.205000	0.386342
	30.210000	0.396208
	30.215000	0.445539
	30.220000	0.438961
	30.225000	0.383053
	30.230000	0.389630
	30.235000	0.448827
	30.240000	0.445539
	30.245000	0.386342
	30.250000	0.396208
	30.255000	0.452116
	30.260000	0.442250
	30.265000	0.383053
	30.270000	0.396208
	30.275000	0.448827
	30.280000	0.438961
	30.285000	0.383053
	30.290000	0.392919
	30.295000	0.445539
	30.300000	0.442250
	30.305000	0.386342
	30.310000	0.392919
	30.315000	0.445539
	30.320000	0.445539
	30.325000	0.392919
	30.330000	0.396208
	30.335000	0.452116
	30.340000	0.445539
	30.345000	0.386342
	30.350000	0.396208
	30.355000	0.452116
	30.360000	0.448827
	30.365000	0.389630
	30.370000	0.399496
	30.375000	0.448827
	30.380000	0.448827
	30.385000	0.389630
	30.390000	0.396208
	30.395000	0.448827
	30.400000	0.448827
	30.405000	0.389630
	30.410000	0.392919
	30.415000	0.448827
	30.420000	0.452116
	30.425000	0.392919
	30.430000	0.392919
	30.435000	0.448827
	30.440000	0.442250
	30.445000	0.386342
	30.450000	0.392919
	30.455000	0.448827
	30.460000	0.445539
	30.465000	0.386342
	30.470000	0.396208
	30.475000	0.442250
	30.480000	0.445539
	30.485000	0.386342
	30.490000	0.392919
	30.495000	0.448827
	30.500000	0.442250
	30.505000	0.386342
	30.510000	0.392919
	30.515000	0.448827
	30.520000	0.442250
	30.525000	0.386342
	30.530000	0.389630
	30.535000	0.445539
	30.540000	0.442250
	30.545000	0.386342
	30.550000	0.392919
	30.555000	0.445539
	30.560000	0.442250
	30.565000	0.389630
	30.570000	0.392919
	30.575000	0.448827
	30.580000	0.442250
	30.585000	0.379764
	30.590000	0.392919
	30.595000	0.448827
	30.600000	0.442250
	30.605000	0.386342
	30.610000	0.389630
	30.615000	0.445539
	30.620000	0.445539
	30.625000	0.389630
	30.630000	0.386342
	30.635000	0.445539
	30.640000	0.445539
	30.645000	0.383053
	30.650000	0.386342
	30.655000	0.445539
	30.660000	0.442250
	30.665000	0.383053
	30.670000	0.386342
	30.675000	0.445539
	30.680000	0.445539
	30.685000	0.389630
	30.690000	0.389630
	30.695000	0.448827
	30.700000	0.445539
	30.705000	0.386342
	30.710000	0.392919
	30.715000	0.445539
	30.720000	0.445539
	30.725000	0.386342
	30.730000	0.389630
	30.735000	0.445539
	30.740000	0.445539
	30.745000	0.383053
	30.750000	0.392919
	30.755000	0.448827
	30.760000	0.442250
	30.765000	0.389630
	30.770000	0.389630
	30.775000	0.442250
	30.780000	0.445539
	30.785000	0.389630
	30.790000	0.392919
	30.795000	0.445539
	30.800000	0.445539
	30.805000	0.389630
	30.810000	0.389630
	30.815000	0.448827
	30.820000	0.445539
	30.825000	0.383053
	30.830000	0.389630
	30.835000	0.442250
	30.840000	0.445539
	30.845000	0.386342
	30.850000	0.392919
	30.855000	0.442250
	30.860000	0.448827
	30.865000	0.386342
	30.870000	0.392919
	30.875000	0.442250
	30.880000	0.445539
	30.885000	0.389630
	30.890000	0.389630
	30.895000	0.448827
	30.900000	0.442250
	30.905000	0.383053
	30.910000	0.389630
	30.915000	0.445539
	30.920000	0.445539
	30.925000	0.386342
	30.930000	0.392919
	30.935000	0.445539
	30.940000	0.442250
	30.945000	0.386342
	30.950000	0.392919
	30.955000	0.448827
	30.960000	0.445539
	30.965000	0.386342
	30.970000	0.392919
	30.975000	0.445539
	30.980000	0.445539
	30.985000	0.389630
	30.990000	0.389630
	30.995000	0.442250
	31.000000	0.448827
	31.005000	0.389630
	31.010000	0.392919
	31.015000	0.445539
	31.020000	0.448827
	31.025000	0.389630
	31.030000	0.389630
	31.035000	0.445539
	31.040000	0.448827
	31.045000	0.386342
	31.050000	0.392919
	31.055000	0.445539
	31.060000	0.445539
	31.065000	0.389630
	31.070000	0.392919
	31.075000	0.445539
	31.080000	0.442250
	31.085000	0.392919
	31.090000	0.389630
	31.095000	0.445539
	31.100000	0.448827
	31.105000	0.389630
	31.110000	0.392919
	31.115000	0.448827
	31.120000	0.452116
	31.125000	0.392919
	31.130000	0.389630
	31.135000	0.445539
	31.140000	0.448827
	31.145000	0.392919
	31.150000	0.392919
	31.155000	0.448827
	31.160000	0.448827
	31.165000	0.389630
	31.170000	0.392919
	31.175000	0.452116
	31.180000	0.448827
	31.185000	0.392919
	31.190000	0.396208
	31.195000	0.448827
	31.200000	0.445539
	31.205000	0.392919
	31.210000	0.392919
	31.215000	0.445539
	31.220000	0.445539
	31.225000	0.392919
	31.230000	0.392919
	31.235000	0.445539
	31.240000	0.452116
	31.245000	0.392919
	31.250000	0.392919
	31.255000	0.455405
	31.260000	0.448827
	31.265000	0.392919
	31.270000	0.386342
	31.275000	0.445539
	31.280000	0.448827
	31.285000	0.392919
	31.290000	0.392919
	31.295000	0.448827
	31.300000	0.452116
	31.305000	0.396208
	31.310000	0.392919
	31.315000	0.448827
	31.320000	0.448827
	31.325000	0.396208
	31.330000	0.392919
	31.335000	0.448827
	31.340000	0.452116
	31.345000	0.389630
	31.350000	0.389630
	31.355000	0.448827
	31.360000	0.448827
	31.365000	0.389630
	31.370000	0.392919
	31.375000	0.445539
	31.380000	0.458694
	31.385000	0.392919
	31.390000	0.392919
	31.395000	0.448827
	31.400000	0.452116
	31.405000	0.396208
	31.410000	0.389630
	31.415000	0.445539
	31.420000	0.448827
	31.425000	0.389630
	31.430000	0.392919
	31.435000	0.448827
	31.440000	0.448827
	31.445000	0.392919
	31.450000	0.396208
	31.455000	0.448827
	31.460000	0.452116
	31.465000	0.396208
	31.470000	0.399496
	31.475000	0.452116
	31.480000	0.455405
	31.485000	0.392919
	31.490000	0.392919
	31.495000	0.448827
	31.500000	0.448827
	31.505000	0.396208
	31.510000	0.396208
	31.515000	0.448827
	31.520000	0.452116
	31.525000	0.396208
	31.530000	0.396208
	31.535000	0.448827
	31.540000	0.448827
	31.545000	0.396208
	31.550000	0.396208
	31.555000	0.445539
	31.560000	0.455405
	31.565000	0.399496
	31.570000	0.392919
	31.575000	0.448827
	31.580000	0.452116
	31.585000	0.396208
	31.590000	0.392919
	31.595000	0.448827
	31.600000	0.452116
	31.605000	0.396208
	31.610000	0.396208
	31.615000	0.452116
	31.620000	0.448827
	31.625000	0.396208
	31.630000	0.396208
	31.635000	0.448827
	31.640000	0.455405
	31.645000	0.399496
	31.650000	0.392919
	31.655000	0.448827
	31.660000	0.452116
	31.665000	0.396208
	31.670000	0.389630
	31.675000	0.448827
	31.680000	0.452116
	31.685000	0.396208
	31.690000	0.396208
	31.695000	0.448827
	31.700000	0.455405
	31.705000	0.399496
	31.710000	0.392919
	31.715000	0.448827
	31.720000	0.455405
	31.725000	0.399496
	31.730000	0.392919
	31.735000	0.455405
	31.740000	0.461982
	31.745000	0.396208
	31.750000	0.396208
	31.755000	0.452116
	31.760000	0.458694
	31.765000	0.392919
	31.770000	0.396208
	31.775000	0.452116
	31.780000	0.448827
	31.785000	0.399496
	31.790000	0.396208
	31.795000	0.452116
	31.800000	0.452116
	31.805000	0.396208
	31.810000	0.392919
	31.815000	0.445539
	31.820000	0.452116
	31.825000	0.392919
	31.830000	0.392919
	31.835000	0.448827
	31.840000	0.452116
	31.845000	0.399496
	31.850000	0.389630
	31.855000	0.442250
	31.860000	0.452116
	31.865000	0.399496
	31.870000	0.386342
	31.875000	0.445539
	31.880000	0.452116
	31.885000	0.396208
	31.890000	0.392919
	31.895000	0.448827
	31.900000	0.452116
	31.905000	0.389630
	31.910000	0.389630
	31.915000	0.445539
	31.920000	0.452116
	31.925000	0.392919
	31.930000	0.386342
	31.935000	0.442250
	31.940000	0.445539
	31.945000	0.389630
	31.950000	0.386342
	31.955000	0.442250
	31.960000	0.448827
	31.965000	0.389630
	31.970000	0.383053
	31.975000	0.442250
	31.980000	0.448827
	31.985000	0.389630
	31.990000	0.386342
	31.995000	0.438961
	32.000000	0.448827
	32.005000	0.386342
	32.010000	0.386342
	32.015000	0.445539
	32.020000	0.448827
	32.025000	0.392919
	32.030000	0.386342
	32.035000	0.442250
	32.040000	0.452116
	32.045000	0.396208
	32.050000	0.383053
	32.055000	0.442250
	32.060000	0.445539
	32.065000	0.379764
	32.070000	0.369898
	32.075000	0.422518
	32.080000	0.422518
	32.085000	0.360032
	32.090000	0.346877
	32.095000	0.406074
	32.100000	0.412651
	32.105000	0.353454
	32.110000	0.346877
	32.115000	0.402785
	32.120000	0.402785
	32.125000	0.350166
	32.130000	0.337011
	32.135000	0.392919
	32.140000	0.402785
	32.145000	0.350166
	32.150000	0.340299
	32.155000	0.389630
	32.160000	0.396208
	32.165000	0.340299
	32.170000	0.340299
	32.175000	0.392919
	32.180000	0.399496
	32.185000	0.343588
	32.190000	0.337011
	32.195000	0.386342
	32.200000	0.396208
	32.205000	0.343588
	32.210000	0.340299
	32.215000	0.392919
	32.220000	0.399496
	32.225000	0.343588
	32.230000	0.337011
	32.235000	0.392919
	32.240000	0.399496
	32.245000	0.343588
	32.250000	0.337011
	32.255000	0.392919
	32.260000	0.402785
	32.265000	0.346877
	32.270000	0.337011
	32.275000	0.392919
	32.280000	0.396208
	32.285000	0.340299
	32.290000	0.340299
	32.295000	0.396208
	32.300000	0.402785
	32.305000	0.343588
	32.310000	0.340299
	32.315000	0.392919
	32.320000	0.406074
	32.325000	0.343588
	32.330000	0.337011
	32.335000	0.396208
	32.340000	0.406074
	32.345000	0.346877
	32.350000	0.337011
	32.355000	0.396208
	32.360000	0.406074
	32.365000	0.350166
	32.370000	0.337011
	32.375000	0.396208
	32.380000	0.402785
	32.385000	0.350166
	32.390000	0.346877
	32.395000	0.399496
	32.400000	0.406074
	32.405000	0.350166
	32.410000	0.343588
	32.415000	0.399496
	32.420000	0.409363
	32.425000	0.353454
	32.430000	0.343588
	32.435000	0.396208
	32.440000	0.412651
	32.445000	0.353454
	32.450000	0.343588
	32.455000	0.402785
	32.460000	0.412651
	32.465000	0.356743
	32.470000	0.346877
	32.475000	0.399496
	32.480000	0.415940
	32.485000	0.353454
	32.490000	0.346877
	32.495000	0.402785
	32.500000	0.415940
	32.505000	0.353454
	32.510000	0.343588
	32.515000	0.399496
	32.520000	0.412651
	32.525000	0.353454
	32.530000	0.350166
	32.535000	0.402785
	32.540000	0.412651
	32.545000	0.356743
	32.550000	0.350166
	32.555000	0.402785
	32.560000	0.412651
	32.565000	0.360032
	32.570000	0.350166
	32.575000	0.402785
	32.580000	0.415940
	32.585000	0.360032
	32.590000	0.350166
	32.595000	0.406074
	32.600000	0.415940
	32.605000	0.366609
	32.610000	0.350166
	32.615000	0.406074
	32.620000	0.419229
	32.625000	0.356743
	32.630000	0.350166
	32.635000	0.409363
	32.640000	0.419229
	32.645000	0.366609
	32.650000	0.350166
	32.655000	0.406074
	32.660000	0.422518
	32.665000	0.363321
	32.670000	0.353454
	32.675000	0.406074
	32.680000	0.415940
	32.685000	0.366609
	32.690000	0.353454
	32.695000	0.409363
	32.700000	0.425806
	32.705000	0.363321
	32.710000	0.353454
	32.715000	0.409363
	32.720000	0.422518
	32.725000	0.369898
	32.730000	0.356743
	32.735000	0.409363
	32.740000	0.422518
	32.745000	0.360032
	32.750000	0.353454
	32.755000	0.406074
	32.760000	0.422518
	32.765000	0.369898
	32.770000	0.350166
	32.775000	0.412651
	32.780000	0.422518
	32.785000	0.366609
	32.790000	0.353454
	32.795000	0.409363
	32.800000	0.422518
	32.805000	0.369898
	32.810000	0.356743
	32.815000	0.406074
	32.820000	0.422518
	32.825000	0.366609
	32.830000	0.353454
	32.835000	0.409363
	32.840000	0.422518
	32.845000	0.366609
	32.850000	0.356743
	32.855000	0.409363
	32.860000	0.419229
	32.865000	0.366609
	32.870000	0.353454
	32.875000	0.406074
	32.880000	0.419229
	32.885000	0.366609
	32.890000	0.356743
	32.895000	0.409363
	32.900000	0.419229
	32.905000	0.369898
	32.910000	0.356743
	32.915000	0.406074
	32.920000	0.422518
	32.925000	0.366609
	32.930000	0.356743
	32.935000	0.409363
	32.940000	0.425806
	32.945000	0.363321
	32.950000	0.356743
	32.955000	0.412651
	32.960000	0.429095
	32.965000	0.366609
	32.970000	0.356743
	32.975000	0.412651
	32.980000	0.422518
	32.985000	0.369898
	32.990000	0.356743
	32.995000	0.406074
	33.000000	0.422518
	33.005000	0.369898
	33.010000	0.356743
	33.015000	0.412651
	33.020000	0.419229
	33.025000	0.366609
	33.030000	0.360032
	33.035000	0.412651
	33.040000	0.432384
	33.045000	0.369898
	33.050000	0.356743
	33.055000	0.409363
	33.060000	0.425806
	33.065000	0.373187
	33.070000	0.360032
	33.075000	0.412651
	33.080000	0.429095
	33.085000	0.376475
	33.090000	0.363321
	33.095000	0.415940
	33.100000	0.432384
	33.105000	0.373187
	33.110000	0.360032
	33.115000	0.415940
	33.120000	0.425806
	33.125000	0.369898
	33.130000	0.363321
	33.135000	0.412651
	33.140000	0.432384
	33.145000	0.373187
	33.150000	0.363321
	33.155000	0.415940
	33.160000	0.432384
	33.165000	0.379764
	33.170000	0.360032
	33.175000	0.415940
	33.180000	0.429095
	33.185000	0.379764
	33.190000	0.366609
	33.195000	0.415940
	33.200000	0.432384
	33.205000	0.376475
	33.210000	0.360032
	33.215000	0.412651
	33.220000	0.429095
	33.225000	0.383053
	33.230000	0.360032
	33.235000	0.412651
	33.240000	0.435672
	33.245000	0.379764
	33.250000	0.363321
	33.255000	0.415940
	33.260000	0.432384
	33.265000	0.379764
	33.270000	0.366609
	33.275000	0.419229
	33.280000	0.432384
	33.285000	0.379764
	33.290000	0.366609
	33.295000	0.415940
	33.300000	0.432384
	33.305000	0.376475
	33.310000	0.363321
	33.315000	0.415940
	33.320000	0.438961
	33.325000	0.383053
	33.330000	0.363321
	33.335000	0.415940
	33.340000	0.435672
	33.345000	0.383053
	33.350000	0.366609
	33.355000	0.415940
	33.360000	0.432384
	33.365000	0.379764
	33.370000	0.360032
	33.375000	0.415940
	33.380000	0.432384
	33.385000	0.383053
	33.390000	0.363321
	33.395000	0.415940
	33.400000	0.432384
	33.405000	0.386342
	33.410000	0.363321
	33.415000	0.419229
	33.420000	0.435672
	33.425000	0.379764
	33.430000	0.366609
	33.435000	0.419229
	33.440000	0.435672
	33.445000	0.379764
	33.450000	0.366609
	33.455000	0.419229
	33.460000	0.435672
	33.465000	0.383053
	33.470000	0.363321
	33.475000	0.419229
	33.480000	0.438961
	33.485000	0.383053
	33.490000	0.363321
	33.495000	0.419229
	33.500000	0.442250
	33.505000	0.383053
	33.510000	0.369898
	33.515000	0.415940
	33.520000	0.438961
	33.525000	0.383053
	33.530000	0.366609
	33.535000	0.415940
	33.540000	0.442250
	33.545000	0.389630
	33.550000	0.363321
	33.555000	0.419229
	33.560000	0.438961
	33.565000	0.383053
	33.570000	0.369898
	33.575000	0.422518
	33.580000	0.438961
	33.585000	0.386342
	33.590000	0.366609
	33.595000	0.419229
	33.600000	0.435672
	33.605000	0.386342
	33.610000	0.363321
	33.615000	0.419229
	33.620000	0.438961
	33.625000	0.386342
	33.630000	0.366609
	33.635000	0.422518
	33.640000	0.438961
	33.645000	0.386342
	33.650000	0.369898
	33.655000	0.415940
	33.660000	0.442250
	33.665000	0.389630
	33.670000	0.366609
	33.675000	0.419229
	33.680000	0.438961
	33.685000	0.389630
	33.690000	0.369898
	33.695000	0.419229
	33.700000	0.442250
	33.705000	0.389630
	33.710000	0.366609
	33.715000	0.419229
	33.720000	0.442250
	33.725000	0.389630
	33.730000	0.369898
	33.735000	0.419229
	33.740000	0.445539
	33.745000	0.389630
	33.750000	0.369898
	33.755000	0.415940
	33.760000	0.445539
	33.765000	0.392919
	33.770000	0.369898
	33.775000	0.419229
	33.780000	0.445539
	33.785000	0.389630
	33.790000	0.366609
	33.795000	0.422518
	33.800000	0.442250
	33.805000	0.392919
	33.810000	0.373187
	33.815000	0.422518
	33.820000	0.445539
	33.825000	0.392919
	33.830000	0.369898
	33.835000	0.425806
	33.840000	0.452116
	33.845000	0.389630
	33.850000	0.373187
	33.855000	0.419229
	33.860000	0.442250
	33.865000	0.389630
	33.870000	0.373187
	33.875000	0.425806
	33.880000	0.448827
	33.885000	0.392919
	33.890000	0.373187
	33.895000	0.422518
	33.900000	0.445539
	33.905000	0.392919
	33.910000	0.369898
	33.915000	0.419229
	33.920000	0.445539
	33.925000	0.392919
	33.930000	0.373187
	33.935000	0.422518
	33.940000	0.448827
	33.945000	0.392919
	33.950000	0.369898
	33.955000	0.419229
	33.960000	0.448827
	33.965000	0.392919
	33.970000	0.376475
	33.975000	0.425806
	33.980000	0.452116
	33.985000	0.396208
	33.990000	0.369898
	33.995000	0.425806
	34.000000	0.448827
	34.005000	0.392919
	34.010000	0.366609
	34.015000	0.422518
	34.020000	0.448827
	34.025000	0.392919
	34.030000	0.373187
	34.035000	0.425806
	34.040000	0.445539
	34.045000	0.396208
	34.050000	0.373187
	34.055000	0.422518
	34.060000	0.448827
	34.065000	0.392919
	34.070000	0.373187
	34.075000	0.425806
	34.080000	0.448827
	34.085000	0.392919
	34.090000	0.373187
	34.095000	0.422518
	34.100000	0.445539
	34.105000	0.396208
	34.110000	0.373187
	34.115000	0.422518
	34.120000	0.448827
	34.125000	0.402785
	34.130000	0.379764
	34.135000	0.422518
	34.140000	0.452116
	34.145000	0.399496
	34.150000	0.373187
	34.155000	0.425806
	34.160000	0.452116
	34.165000	0.399496
	34.170000	0.373187
	34.175000	0.422518
	34.180000	0.448827
	34.185000	0.399496
	34.190000	0.376475
	34.195000	0.422518
	34.200000	0.448827
	34.205000	0.399496
	34.210000	0.376475
	34.215000	0.419229
	34.220000	0.452116
	34.225000	0.399496
	34.230000	0.369898
	34.235000	0.429095
	34.240000	0.452116
	34.245000	0.399496
	34.250000	0.373187
	34.255000	0.425806
	34.260000	0.458694
	34.265000	0.396208
	34.270000	0.376475
	34.275000	0.425806
	34.280000	0.445539
	34.285000	0.399496
	34.290000	0.383053
	34.295000	0.425806
	34.300000	0.448827
	34.305000	0.396208
	34.310000	0.376475
	34.315000	0.425806
	34.320000	0.455405
	34.325000	0.402785
	34.330000	0.373187
	34.335000	0.429095
	34.340000	0.452116
	34.345000	0.402785
	34.350000	0.376475
	34.355000	0.425806
	34.360000	0.455405
	34.365000	0.399496
	34.370000	0.379764
	34.375000	0.419229
	34.380000	0.455405
	34.385000	0.402785
	34.390000	0.373187
	34.395000	0.429095
	34.400000	0.448827
	34.405000	0.399496
	34.410000	0.373187
	34.415000	0.425806
	34.420000	0.455405
	34.425000	0.399496
	34.430000	0.376475
	34.435000	0.425806
	34.440000	0.455405
	34.445000	0.402785
	34.450000	0.376475
	34.455000	0.425806
	34.460000	0.458694
	34.465000	0.399496
	34.470000	0.379764
	34.475000	0.425806
	34.480000	0.455405
	34.485000	0.406074
	34.490000	0.379764
	34.495000	0.425806
	34.500000	0.461982
	34.505000	0.402785
	34.510000	0.373187
	34.515000	0.422518
	34.520000	0.452116
	34.525000	0.399496
	34.530000	0.376475
	34.535000	0.422518
	34.540000	0.455405
	34.545000	0.406074
	34.550000	0.373187
	34.555000	0.425806
	34.560000	0.455405
	34.565000	0.402785
	34.570000	0.379764
	34.575000	0.425806
	34.580000	0.448827
	34.585000	0.409363
	34.590000	0.379764
	34.595000	0.425806
	34.600000	0.455405
	34.605000	0.406074
	34.610000	0.376475
	34.615000	0.425806
	34.620000	0.448827
	34.625000	0.406074
	34.630000	0.379764
	34.635000	0.432384
	34.640000	0.452116
	34.645000	0.406074
	34.650000	0.376475
	34.655000	0.425806
	34.660000	0.452116
	34.665000	0.409363
	34.670000	0.373187
	34.675000	0.429095
	34.680000	0.452116
	34.685000	0.406074
	34.690000	0.379764
	34.695000	0.419229
	34.700000	0.452116
	34.705000	0.406074
	34.710000	0.376475
	34.715000	0.429095
	34.720000	0.455405
	34.725000	0.402785
	34.730000	0.379764
	34.735000	0.425806
	34.740000	0.455405
	34.745000	0.409363
	34.750000	0.379764
	34.755000	0.425806
	34.760000	0.452116
	34.765000	0.409363
	34.770000	0.373187
	34.775000	0.425806
	34.780000	0.458694
	34.785000	0.409363
	34.790000	0.376475
	34.795000	0.429095
	34.800000	0.458694
	34.805000	0.406074
	34.810000	0.383053
	34.815000	0.425806
	34.820000	0.452116
	34.825000	0.406074
	34.830000	0.379764
	34.835000	0.422518
	34.840000	0.455405
	34.845000	0.409363
	34.850000	0.376475
	34.855000	0.425806
	34.860000	0.455405
	34.865000	0.409363
	34.870000	0.379764
	34.875000	0.429095
	34.880000	0.458694
	34.885000	0.409363
	34.890000	0.383053
	34.895000	0.432384
	34.900000	0.458694
	34.905000	0.409363
	34.910000	0.383053
	34.915000	0.425806
	34.920000	0.455405
	34.925000	0.409363
	34.930000	0.379764
	34.935000	0.429095
	34.940000	0.458694
	34.945000	0.412651
	34.950000	0.383053
	34.955000	0.425806
	34.960000	0.458694
	34.965000	0.412651
	34.970000	0.379764
	34.975000	0.425806
	34.980000	0.458694
	34.985000	0.415940
	34.990000	0.383053
	34.995000	0.432384
	35.000000	0.461982
	35.005000	0.409363
	35.010000	0.383053
	35.015000	0.422518
	35.020000	0.458694
	35.025000	0.412651
	35.030000	0.379764
	35.035000	0.429095
	35.040000	0.458694
	35.045000	0.415940
	35.050000	0.383053
	35.055000	0.422518
	35.060000	0.465271
	35.065000	0.419229
	35.070000	0.379764
	35.075000	0.429095
	35.080000	0.461982
	35.085000	0.409363
	35.090000	0.383053
	35.095000	0.432384
	35.100000	0.461982
	35.105000	0.412651
	35.110000	0.379764
	35.115000	0.429095
	35.120000	0.461982
	35.125000	0.412651
	35.130000	0.383053
	35.135000	0.425806
	35.140000	0.458694
	35.145000	0.415940
	35.150000	0.379764
	35.155000	0.422518
	35.160000	0.465271
	35.165000	0.415940
	35.170000	0.383053
	35.175000	0.425806
	35.180000	0.465271
	35.185000	0.415940
	35.190000	0.383053
	35.195000	0.432384
	35.200000	0.461982
	35.205000	0.415940
	35.210000	0.383053
	35.215000	0.425806
	35.220000	0.465271
	35.225000	0.412651
	35.230000	0.383053
	35.235000	0.429095
	35.240000	0.458694
	35.245000	0.419229
	35.250000	0.386342
	35.255000	0.425806
	35.260000	0.465271
	35.265000	0.419229
	35.270000	0.383053
	35.275000	0.425806
	35.280000	0.461982
	35.285000	0.415940
	35.290000	0.383053
	35.295000	0.429095
	35.300000	0.465271
	35.305000	0.412651
	35.310000	0.379764
	35.315000	0.422518
	35.320000	0.465271
	35.325000	0.415940
	35.330000	0.383053
	35.335000	0.429095
	35.340000	0.461982
