2024/7/11 	 10:35:43 
 This file comes from Vt only measurement 	 1.000000E-1 
 Voltage Sensitivity 	 0.000000E+0 
 Sampling rate 	 200 
 Number of samples per channel 	 -1 
 No filter from Labview 	 	 	 
 	 
 ***End_of_Header*** 
 	 Time 	  Voltage 	 Filtered Voltage 	 
	0.000000	-0.322085
	0.005000	-0.212491
	0.010000	-0.228608
	0.015000	-0.338202
	0.020000	-0.331755
	0.025000	-0.228608
	0.030000	-0.225384
	0.035000	-0.344649
	0.040000	-0.341425
	0.045000	-0.238278
	0.050000	-0.231831
	0.055000	-0.347872
	0.060000	-0.341425
	0.065000	-0.231831
	0.070000	-0.241501
	0.075000	-0.347872
	0.080000	-0.344649
	0.085000	-0.241501
	0.090000	-0.241501
	0.095000	-0.354319
	0.100000	-0.351095
	0.105000	-0.241501
	0.110000	-0.254395
	0.115000	-0.360765
	0.120000	-0.354319
	0.125000	-0.238278
	0.130000	-0.247948
	0.135000	-0.357542
	0.140000	-0.354319
	0.145000	-0.254395
	0.150000	-0.244725
	0.155000	-0.363989
	0.160000	-0.354319
	0.165000	-0.244725
	0.170000	-0.260841
	0.175000	-0.360765
	0.180000	-0.367212
	0.185000	-0.251171
	0.190000	-0.257618
	0.195000	-0.367212
	0.200000	-0.360765
	0.205000	-0.257618
	0.210000	-0.260841
	0.215000	-0.376882
	0.220000	-0.370436
	0.225000	-0.264065
	0.230000	-0.264065
	0.235000	-0.376882
	0.240000	-0.370436
	0.245000	-0.270511
	0.250000	-0.270511
	0.255000	-0.383329
	0.260000	-0.383329
	0.265000	-0.273735
	0.270000	-0.270511
	0.275000	-0.376882
	0.280000	-0.376882
	0.285000	-0.276958
	0.290000	-0.270511
	0.295000	-0.386552
	0.300000	-0.380106
	0.305000	-0.273735
	0.310000	-0.267288
	0.315000	-0.386552
	0.320000	-0.383329
	0.325000	-0.276958
	0.330000	-0.276958
	0.335000	-0.380106
	0.340000	-0.389776
	0.345000	-0.273735
	0.350000	-0.283405
	0.355000	-0.389776
	0.360000	-0.396222
	0.365000	-0.283405
	0.370000	-0.283405
	0.375000	-0.389776
	0.380000	-0.386552
	0.385000	-0.283405
	0.390000	-0.280181
	0.395000	-0.389776
	0.400000	-0.389776
	0.405000	-0.286628
	0.410000	-0.276958
	0.415000	-0.386552
	0.420000	-0.386552
	0.425000	-0.283405
	0.430000	-0.283405
	0.435000	-0.389776
	0.440000	-0.392999
	0.445000	-0.286628
	0.450000	-0.276958
	0.455000	-0.392999
	0.460000	-0.392999
	0.465000	-0.283405
	0.470000	-0.276958
	0.475000	-0.392999
	0.480000	-0.392999
	0.485000	-0.283405
	0.490000	-0.283405
	0.495000	-0.386552
	0.500000	-0.396222
	0.505000	-0.286628
	0.510000	-0.280181
	0.515000	-0.396222
	0.520000	-0.392999
	0.525000	-0.289852
	0.530000	-0.276958
	0.535000	-0.392999
	0.540000	-0.392999
	0.545000	-0.283405
	0.550000	-0.276958
	0.555000	-0.386552
	0.560000	-0.392999
	0.565000	-0.289852
	0.570000	-0.283405
	0.575000	-0.386552
	0.580000	-0.396222
	0.585000	-0.283405
	0.590000	-0.286628
	0.595000	-0.386552
	0.600000	-0.399446
	0.605000	-0.293075
	0.610000	-0.280181
	0.615000	-0.389776
	0.620000	-0.402669
	0.625000	-0.283405
	0.630000	-0.286628
	0.635000	-0.386552
	0.640000	-0.399446
	0.645000	-0.293075
	0.650000	-0.276958
	0.655000	-0.392999
	0.660000	-0.402669
	0.665000	-0.289852
	0.670000	-0.283405
	0.675000	-0.386552
	0.680000	-0.396222
	0.685000	-0.289852
	0.690000	-0.280181
	0.695000	-0.389776
	0.700000	-0.396222
	0.705000	-0.286628
	0.710000	-0.289852
	0.715000	-0.396222
	0.720000	-0.402669
	0.725000	-0.296298
	0.730000	-0.283405
	0.735000	-0.392999
	0.740000	-0.405892
	0.745000	-0.289852
	0.750000	-0.280181
	0.755000	-0.396222
	0.760000	-0.399446
	0.765000	-0.296298
	0.770000	-0.283405
	0.775000	-0.392999
	0.780000	-0.402669
	0.785000	-0.296298
	0.790000	-0.289852
	0.795000	-0.396222
	0.800000	-0.409116
	0.805000	-0.302745
	0.810000	-0.276958
	0.815000	-0.392999
	0.820000	-0.405892
	0.825000	-0.305968
	0.830000	-0.293075
	0.835000	-0.392999
	0.840000	-0.402669
	0.845000	-0.299522
	0.850000	-0.283405
	0.855000	-0.389776
	0.860000	-0.409116
	0.865000	-0.305968
	0.870000	-0.276958
	0.875000	-0.396222
	0.880000	-0.405892
	0.885000	-0.299522
	0.890000	-0.280181
	0.895000	-0.389776
	0.900000	-0.409116
	0.905000	-0.296298
	0.910000	-0.289852
	0.915000	-0.386552
	0.920000	-0.405892
	0.925000	-0.293075
	0.930000	-0.273735
	0.935000	-0.386552
	0.940000	-0.392999
	0.945000	-0.293075
	0.950000	-0.273735
	0.955000	-0.376882
	0.960000	-0.389776
	0.965000	-0.273735
	0.970000	-0.260841
	0.975000	-0.363989
	0.980000	-0.376882
	0.985000	-0.273735
	0.990000	-0.247948
	0.995000	-0.351095
	1.000000	-0.367212
	1.005000	-0.257618
	1.010000	-0.241501
	1.015000	-0.344649
	1.020000	-0.360765
	1.025000	-0.254395
	1.030000	-0.238278
	1.035000	-0.341425
	1.040000	-0.357542
	1.045000	-0.251171
	1.050000	-0.228608
	1.055000	-0.341425
	1.060000	-0.354319
	1.065000	-0.247948
	1.070000	-0.228608
	1.075000	-0.334979
	1.080000	-0.354319
	1.085000	-0.244725
	1.090000	-0.225384
	1.095000	-0.338202
	1.100000	-0.354319
	1.105000	-0.254395
	1.110000	-0.235054
	1.115000	-0.334979
	1.120000	-0.360765
	1.125000	-0.247948
	1.130000	-0.228608
	1.135000	-0.331755
	1.140000	-0.344649
	1.145000	-0.238278
	1.150000	-0.215714
	1.155000	-0.328532
	1.160000	-0.347872
	1.165000	-0.235054
	1.170000	-0.215714
	1.175000	-0.315638
	1.180000	-0.334979
	1.185000	-0.228608
	1.190000	-0.206044
	1.195000	-0.312415
	1.200000	-0.338202
	1.205000	-0.228608
	1.210000	-0.202821
	1.215000	-0.312415
	1.220000	-0.322085
	1.225000	-0.215714
	1.230000	-0.199597
	1.235000	-0.302745
	1.240000	-0.322085
	1.245000	-0.222161
	1.250000	-0.196374
	1.255000	-0.305968
	1.260000	-0.322085
	1.265000	-0.218938
	1.270000	-0.202821
	1.275000	-0.309192
	1.280000	-0.328532
	1.285000	-0.209268
	1.290000	-0.186704
	1.295000	-0.296298
	1.300000	-0.318862
	1.305000	-0.218938
	1.310000	-0.196374
	1.315000	-0.302745
	1.320000	-0.318862
	1.325000	-0.212491
	1.330000	-0.183481
	1.335000	-0.302745
	1.340000	-0.331755
	1.345000	-0.215714
	1.350000	-0.196374
	1.355000	-0.299522
	1.360000	-0.328532
	1.365000	-0.225384
	1.370000	-0.196374
	1.375000	-0.309192
	1.380000	-0.328532
	1.385000	-0.228608
	1.390000	-0.199597
	1.395000	-0.309192
	1.400000	-0.334979
	1.405000	-0.225384
	1.410000	-0.196374
	1.415000	-0.305968
	1.420000	-0.341425
	1.425000	-0.225384
	1.430000	-0.199597
	1.435000	-0.305968
	1.440000	-0.341425
	1.445000	-0.228608
	1.450000	-0.212491
	1.455000	-0.322085
	1.460000	-0.344649
	1.465000	-0.235054
	1.470000	-0.206044
	1.475000	-0.312415
	1.480000	-0.338202
	1.485000	-0.235054
	1.490000	-0.209268
	1.495000	-0.315638
	1.500000	-0.351095
	1.505000	-0.231831
	1.510000	-0.215714
	1.515000	-0.328532
	1.520000	-0.347872
	1.525000	-0.238278
	1.530000	-0.209268
	1.535000	-0.325308
	1.540000	-0.354319
	1.545000	-0.247948
	1.550000	-0.209268
	1.555000	-0.322085
	1.560000	-0.351095
	1.565000	-0.251171
	1.570000	-0.212491
	1.575000	-0.322085
	1.580000	-0.354319
	1.585000	-0.241501
	1.590000	-0.215714
	1.595000	-0.325308
	1.600000	-0.347872
	1.605000	-0.241501
	1.610000	-0.215714
	1.615000	-0.322085
	1.620000	-0.341425
	1.625000	-0.235054
	1.630000	-0.212491
	1.635000	-0.312415
	1.640000	-0.347872
	1.645000	-0.241501
	1.650000	-0.215714
	1.655000	-0.318862
	1.660000	-0.351095
	1.665000	-0.241501
	1.670000	-0.225384
	1.675000	-0.328532
	1.680000	-0.357542
	1.685000	-0.257618
	1.690000	-0.222161
	1.695000	-0.328532
	1.700000	-0.354319
	1.705000	-0.260841
	1.710000	-0.225384
	1.715000	-0.322085
	1.720000	-0.354319
	1.725000	-0.251171
	1.730000	-0.218938
	1.735000	-0.312415
	1.740000	-0.341425
	1.745000	-0.238278
	1.750000	-0.206044
	1.755000	-0.299522
	1.760000	-0.331755
	1.765000	-0.225384
	1.770000	-0.193151
	1.775000	-0.293075
	1.780000	-0.318862
	1.785000	-0.212491
	1.790000	-0.180257
	1.795000	-0.267288
	1.800000	-0.293075
	1.805000	-0.180257
	1.810000	-0.141577
	1.815000	-0.238278
	1.820000	-0.251171
	1.825000	-0.141577
	1.830000	-0.099673
	1.835000	-0.193151
	1.840000	-0.218938
	1.845000	-0.109343
	1.850000	-0.070663
	1.855000	-0.164141
	1.860000	-0.196374
	1.865000	-0.090003
	1.870000	-0.057770
	1.875000	-0.148024
	1.880000	-0.170587
	1.885000	-0.070663
	1.890000	-0.019089
	1.895000	-0.115790
	1.900000	-0.122237
	1.905000	-0.015866
	1.910000	0.038931
	1.915000	-0.048100
	1.920000	-0.060993
	1.925000	0.051825
	1.930000	0.093728
	1.935000	0.019591
	1.940000	-0.002973
	1.945000	0.103398
	1.950000	0.148525
	1.955000	0.058271
	1.960000	0.029261
	1.965000	0.135632
	1.970000	0.183982
	1.975000	0.100175
	1.980000	0.074388
	1.985000	0.180759
	1.990000	0.232333
	1.995000	0.154972
	2.000000	0.132408
	2.005000	0.229109
	2.010000	0.274236
	2.015000	0.190429
	2.020000	0.154972
	2.025000	0.251673
	2.030000	0.293576
	2.035000	0.209769
	2.040000	0.171089
	2.045000	0.274236
	2.050000	0.316140
	2.055000	0.219439
	2.060000	0.196876
	2.065000	0.300023
	2.070000	0.338703
	2.075000	0.248449
	2.080000	0.225886
	2.085000	0.322587
	2.090000	0.364490
	2.095000	0.283906
	2.100000	0.242003
	2.105000	0.341927
	2.110000	0.380607
	2.115000	0.300023
	2.120000	0.267790
	2.125000	0.358044
	2.130000	0.399947
	2.135000	0.316140
	2.140000	0.280683
	2.145000	0.374160
	2.150000	0.412841
	2.155000	0.329033
	2.160000	0.293576
	2.165000	0.374160
	2.170000	0.409617
	2.175000	0.322587
	2.180000	0.271013
	2.185000	0.361267
	2.190000	0.399947
	2.195000	0.306470
	2.200000	0.267790
	2.205000	0.354820
	2.210000	0.390277
	2.215000	0.300023
	2.220000	0.254896
	2.225000	0.341927
	2.230000	0.377384
	2.235000	0.277460
	2.240000	0.238779
	2.245000	0.322587
	2.250000	0.358044
	2.255000	0.271013
	2.260000	0.222663
	2.265000	0.309693
	2.270000	0.335480
	2.275000	0.245226
	2.280000	0.206546
	2.285000	0.280683
	2.290000	0.322587
	2.295000	0.225886
	2.300000	0.187206
	2.305000	0.277460
	2.310000	0.316140
	2.315000	0.229109
	2.320000	0.180759
	2.325000	0.274236
	2.330000	0.312917
	2.335000	0.225886
	2.340000	0.187206
	2.345000	0.267790
	2.350000	0.306470
	2.355000	0.229109
	2.360000	0.190429
	2.365000	0.271013
	2.370000	0.319363
	2.375000	0.232333
	2.380000	0.200099
	2.385000	0.280683
	2.390000	0.335480
	2.395000	0.238779
	2.400000	0.193652
	2.405000	0.290353
	2.410000	0.335480
	2.415000	0.251673
	2.420000	0.216216
	2.425000	0.290353
	2.430000	0.335480
	2.435000	0.251673
	2.440000	0.219439
	2.445000	0.296800
	2.450000	0.338703
	2.455000	0.258119
	2.460000	0.209769
	2.465000	0.290353
	2.470000	0.335480
	2.475000	0.251673
	2.480000	0.203322
	2.485000	0.287130
	2.490000	0.325810
	2.495000	0.245226
	2.500000	0.196876
	2.505000	0.287130
	2.510000	0.325810
	2.515000	0.238779
	2.520000	0.193652
	2.525000	0.283906
	2.530000	0.322587
	2.535000	0.238779
	2.540000	0.190429
	2.545000	0.274236
	2.550000	0.306470
	2.555000	0.222663
	2.560000	0.183982
	2.565000	0.267790
	2.570000	0.303247
	2.575000	0.219439
	2.580000	0.183982
	2.585000	0.258119
	2.590000	0.303247
	2.595000	0.219439
	2.600000	0.171089
	2.605000	0.258119
	2.610000	0.296800
	2.615000	0.212992
	2.620000	0.171089
	2.625000	0.245226
	2.630000	0.290353
	2.635000	0.206546
	2.640000	0.164642
	2.645000	0.245226
	2.650000	0.290353
	2.655000	0.206546
	2.660000	0.158195
	2.665000	0.242003
	2.670000	0.277460
	2.675000	0.203322
	2.680000	0.151749
	2.685000	0.229109
	2.690000	0.283906
	2.695000	0.193652
	2.700000	0.151749
	2.705000	0.235556
	2.710000	0.271013
	2.715000	0.187206
	2.720000	0.151749
	2.725000	0.225886
	2.730000	0.277460
	2.735000	0.200099
	2.740000	0.148525
	2.745000	0.222663
	2.750000	0.267790
	2.755000	0.196876
	2.760000	0.145302
	2.765000	0.225886
	2.770000	0.271013
	2.775000	0.187206
	2.780000	0.148525
	2.785000	0.212992
	2.790000	0.261343
	2.795000	0.180759
	2.800000	0.138855
	2.805000	0.206546
	2.810000	0.251673
	2.815000	0.174312
	2.820000	0.125962
	2.825000	0.196876
	2.830000	0.242003
	2.835000	0.154972
	2.840000	0.113068
	2.845000	0.180759
	2.850000	0.222663
	2.855000	0.148525
	2.860000	0.093728
	2.865000	0.164642
	2.870000	0.216216
	2.875000	0.125962
	2.880000	0.077611
	2.885000	0.154972
	2.890000	0.193652
	2.895000	0.116292
	2.900000	0.064718
	2.905000	0.135632
	2.910000	0.177536
	2.915000	0.093728
	2.920000	0.042154
	2.925000	0.109845
	2.930000	0.161419
	2.935000	0.074388
	2.940000	0.022814
	2.945000	0.090505
	2.950000	0.129185
	2.955000	0.048601
	2.960000	0.003474
	2.965000	0.064718
	2.970000	0.096952
	2.975000	0.026038
	2.980000	-0.028759
	2.985000	0.035708
	2.990000	0.071165
	2.995000	-0.002973
	3.000000	-0.057770
	3.005000	0.003474
	3.010000	0.045378
	3.015000	-0.031983
	3.020000	-0.090003
	3.025000	-0.031983
	3.030000	0.003474
	3.035000	-0.077110
	3.040000	-0.135130
	3.045000	-0.073886
	3.050000	-0.031983
	3.055000	-0.119014
	3.060000	-0.180257
	3.065000	-0.119014
	3.070000	-0.090003
	3.075000	-0.167364
	3.080000	-0.231831
	3.085000	-0.183481
	3.090000	-0.154470
	3.095000	-0.244725
	3.100000	-0.309192
	3.105000	-0.264065
	3.110000	-0.244725
	3.115000	-0.334979
	3.120000	-0.415563
	3.125000	-0.360765
	3.130000	-0.338202
	3.135000	-0.425233
	3.140000	-0.499370
	3.145000	-0.444573
	3.150000	-0.409116
	3.155000	-0.512263
	3.160000	-0.570284
	3.165000	-0.521933
	3.170000	-0.486476
	3.175000	-0.563837
	3.180000	-0.637974
	3.185000	-0.576730
	3.190000	-0.528380
	3.195000	-0.615411
	3.200000	-0.679878
	3.205000	-0.596071
	3.210000	-0.554167
	3.215000	-0.634751
	3.220000	-0.702441
	3.225000	-0.625081
	3.230000	-0.579954
	3.235000	-0.657314
	3.240000	-0.718558
	3.245000	-0.650868
	3.250000	-0.592847
	3.255000	-0.679878
	3.260000	-0.737898
	3.265000	-0.657314
	3.270000	-0.605741
	3.275000	-0.679878
	3.280000	-0.744345
	3.285000	-0.657314
	3.290000	-0.608964
	3.295000	-0.676655
	3.300000	-0.734675
	3.305000	-0.663761
	3.310000	-0.605741
	3.315000	-0.683101
	3.320000	-0.741122
	3.325000	-0.663761
	3.330000	-0.608964
	3.335000	-0.686325
	3.340000	-0.741122
	3.345000	-0.666985
	3.350000	-0.612187
	3.355000	-0.679878
	3.360000	-0.734675
	3.365000	-0.657314
	3.370000	-0.605741
	3.375000	-0.683101
	3.380000	-0.737898
	3.385000	-0.663761
	3.390000	-0.602517
	3.395000	-0.683101
	3.400000	-0.741122
	3.405000	-0.660538
	3.410000	-0.605741
	3.415000	-0.683101
	3.420000	-0.741122
	3.425000	-0.660538
	3.430000	-0.599294
	3.435000	-0.683101
	3.440000	-0.737898
	3.445000	-0.660538
	3.450000	-0.599294
	3.455000	-0.676655
	3.460000	-0.741122
	3.465000	-0.660538
	3.470000	-0.596071
	3.475000	-0.679878
	3.480000	-0.737898
	3.485000	-0.663761
	3.490000	-0.592847
	3.495000	-0.683101
	3.500000	-0.737898
	3.505000	-0.657314
	3.510000	-0.589624
	3.515000	-0.670208
	3.520000	-0.737898
	3.525000	-0.654091
	3.530000	-0.589624
	3.535000	-0.663761
	3.540000	-0.731452
	3.545000	-0.650868
	3.550000	-0.583177
	3.555000	-0.657314
	3.560000	-0.715335
	3.565000	-0.631528
	3.570000	-0.570284
	3.575000	-0.647644
	3.580000	-0.712112
	3.585000	-0.625081
	3.590000	-0.554167
	3.595000	-0.637974
	3.600000	-0.695995
	3.605000	-0.618634
	3.610000	-0.550944
	3.615000	-0.625081
	3.620000	-0.695995
	3.625000	-0.608964
	3.630000	-0.547720
	3.635000	-0.628304
	3.640000	-0.686325
	3.645000	-0.599294
	3.650000	-0.534827
	3.655000	-0.615411
	3.660000	-0.676655
	3.665000	-0.599294
	3.670000	-0.528380
	3.675000	-0.612187
	3.680000	-0.679878
	3.685000	-0.599294
	3.690000	-0.525157
	3.695000	-0.605741
	3.700000	-0.666985
	3.705000	-0.592847
	3.710000	-0.525157
	3.715000	-0.602517
	3.720000	-0.673431
	3.725000	-0.589624
	3.730000	-0.528380
	3.735000	-0.605741
	3.740000	-0.666985
	3.745000	-0.586401
	3.750000	-0.525157
	3.755000	-0.605741
	3.760000	-0.666985
	3.765000	-0.589624
	3.770000	-0.521933
	3.775000	-0.599294
	3.780000	-0.666985
	3.785000	-0.589624
	3.790000	-0.525157
	3.795000	-0.602517
	3.800000	-0.666985
	3.805000	-0.586401
	3.810000	-0.521933
	3.815000	-0.599294
	3.820000	-0.666985
	3.825000	-0.589624
	3.830000	-0.521933
	3.835000	-0.602517
	3.840000	-0.663761
	3.845000	-0.589624
	3.850000	-0.515487
	3.855000	-0.596071
	3.860000	-0.673431
	3.865000	-0.586401
	3.870000	-0.525157
	3.875000	-0.596071
	3.880000	-0.666985
	3.885000	-0.583177
	3.890000	-0.518710
	3.895000	-0.592847
	3.900000	-0.660538
	3.905000	-0.576730
	3.910000	-0.509040
	3.915000	-0.586401
	3.920000	-0.657314
	3.925000	-0.573507
	3.930000	-0.512263
	3.935000	-0.589624
	3.940000	-0.657314
	3.945000	-0.573507
	3.950000	-0.502593
	3.955000	-0.586401
	3.960000	-0.650868
	3.965000	-0.576730
	3.970000	-0.502593
	3.975000	-0.583177
	3.980000	-0.650868
	3.985000	-0.573507
	3.990000	-0.492923
	3.995000	-0.579954
	4.000000	-0.650868
	4.005000	-0.573507
	4.010000	-0.489700
	4.015000	-0.570284
	4.020000	-0.644421
	4.025000	-0.560614
	4.030000	-0.492923
	4.035000	-0.573507
	4.040000	-0.641198
	4.045000	-0.560614
	4.050000	-0.483253
	4.055000	-0.567060
	4.060000	-0.641198
	4.065000	-0.550944
	4.070000	-0.489700
	4.075000	-0.560614
	4.080000	-0.641198
	4.085000	-0.560614
	4.090000	-0.486476
	4.095000	-0.560614
	4.100000	-0.637974
	4.105000	-0.554167
	4.110000	-0.483253
	4.115000	-0.560614
	4.120000	-0.641198
	4.125000	-0.563837
	4.130000	-0.483253
	4.135000	-0.557390
	4.140000	-0.631528
	4.145000	-0.550944
	4.150000	-0.483253
	4.155000	-0.557390
	4.160000	-0.631528
	4.165000	-0.547720
	4.170000	-0.473583
	4.175000	-0.554167
	4.180000	-0.621858
	4.185000	-0.547720
	4.190000	-0.476806
	4.195000	-0.547720
	4.200000	-0.621858
	4.205000	-0.547720
	4.210000	-0.467136
	4.215000	-0.541274
	4.220000	-0.621858
	4.225000	-0.550944
	4.230000	-0.467136
	4.235000	-0.544497
	4.240000	-0.615411
	4.245000	-0.538050
	4.250000	-0.463913
	4.255000	-0.541274
	4.260000	-0.615411
	4.265000	-0.538050
	4.270000	-0.460690
	4.275000	-0.541274
	4.280000	-0.605741
	4.285000	-0.541274
	4.290000	-0.457466
	4.295000	-0.534827
	4.300000	-0.605741
	4.305000	-0.531603
	4.310000	-0.460690
	4.315000	-0.534827
	4.320000	-0.612187
	4.325000	-0.528380
	4.330000	-0.454243
	4.335000	-0.534827
	4.340000	-0.605741
	4.345000	-0.528380
	4.350000	-0.451019
	4.355000	-0.525157
	4.360000	-0.608964
	4.365000	-0.521933
	4.370000	-0.451019
	4.375000	-0.528380
	4.380000	-0.602517
	4.385000	-0.528380
	4.390000	-0.447796
	4.395000	-0.525157
	4.400000	-0.596071
	4.405000	-0.525157
	4.410000	-0.447796
	4.415000	-0.521933
	4.420000	-0.599294
	4.425000	-0.518710
	4.430000	-0.451019
	4.435000	-0.521933
	4.440000	-0.596071
	4.445000	-0.525157
	4.450000	-0.447796
	4.455000	-0.518710
	4.460000	-0.596071
	4.465000	-0.518710
	4.470000	-0.447796
	4.475000	-0.515487
	4.480000	-0.596071
	4.485000	-0.512263
	4.490000	-0.438126
	4.495000	-0.518710
	4.500000	-0.592847
	4.505000	-0.518710
	4.510000	-0.438126
	4.515000	-0.515487
	4.520000	-0.586401
	4.525000	-0.515487
	4.530000	-0.441349
	4.535000	-0.521933
	4.540000	-0.596071
	4.545000	-0.521933
	4.550000	-0.444573
	4.555000	-0.515487
	4.560000	-0.586401
	4.565000	-0.528380
	4.570000	-0.441349
	4.575000	-0.518710
	4.580000	-0.592847
	4.585000	-0.528380
	4.590000	-0.444573
	4.595000	-0.512263
	4.600000	-0.589624
	4.605000	-0.525157
	4.610000	-0.438126
	4.615000	-0.515487
	4.620000	-0.586401
	4.625000	-0.528380
	4.630000	-0.444573
	4.635000	-0.509040
	4.640000	-0.592847
	4.645000	-0.528380
	4.650000	-0.438126
	4.655000	-0.512263
	4.660000	-0.599294
	4.665000	-0.525157
	4.670000	-0.444573
	4.675000	-0.512263
	4.680000	-0.589624
	4.685000	-0.518710
	4.690000	-0.438126
	4.695000	-0.505817
	4.700000	-0.589624
	4.705000	-0.521933
	4.710000	-0.438126
	4.715000	-0.505817
	4.720000	-0.592847
	4.725000	-0.528380
	4.730000	-0.438126
	4.735000	-0.509040
	4.740000	-0.586401
	4.745000	-0.518710
	4.750000	-0.431679
	4.755000	-0.502593
	4.760000	-0.586401
	4.765000	-0.515487
	4.770000	-0.438126
	4.775000	-0.499370
	4.780000	-0.583177
	4.785000	-0.505817
	4.790000	-0.428456
	4.795000	-0.499370
	4.800000	-0.576730
	4.805000	-0.505817
	4.810000	-0.431679
	4.815000	-0.496147
	4.820000	-0.579954
	4.825000	-0.512263
	4.830000	-0.422009
	4.835000	-0.489700
	4.840000	-0.579954
	4.845000	-0.509040
	4.850000	-0.428456
	4.855000	-0.499370
	4.860000	-0.573507
	4.865000	-0.505817
	4.870000	-0.428456
	4.875000	-0.496147
	4.880000	-0.576730
	4.885000	-0.509040
	4.890000	-0.418786
	4.895000	-0.492923
	4.900000	-0.579954
	4.905000	-0.502593
	4.910000	-0.431679
	4.915000	-0.496147
	4.920000	-0.579954
	4.925000	-0.505817
	4.930000	-0.425233
	4.935000	-0.492923
	4.940000	-0.573507
	4.945000	-0.505817
	4.950000	-0.418786
	4.955000	-0.489700
	4.960000	-0.563837
	4.965000	-0.496147
	4.970000	-0.415563
	4.975000	-0.476806
	4.980000	-0.554167
	4.985000	-0.496147
	4.990000	-0.409116
	4.995000	-0.463913
	5.000000	-0.554167
	5.005000	-0.489700
	5.010000	-0.405892
	5.015000	-0.467136
	5.020000	-0.557390
	5.025000	-0.489700
	5.030000	-0.405892
	5.035000	-0.470360
	5.040000	-0.554167
	5.045000	-0.480030
	5.050000	-0.399446
	5.055000	-0.473583
	5.060000	-0.547720
	5.065000	-0.483253
	5.070000	-0.399446
	5.075000	-0.457466
	5.080000	-0.547720
	5.085000	-0.483253
	5.090000	-0.399446
	5.095000	-0.467136
	5.100000	-0.547720
	5.105000	-0.480030
	5.110000	-0.402669
	5.115000	-0.457466
	5.120000	-0.538050
	5.125000	-0.483253
	5.130000	-0.399446
	5.135000	-0.454243
	5.140000	-0.538050
	5.145000	-0.473583
	5.150000	-0.389776
	5.155000	-0.457466
	5.160000	-0.544497
	5.165000	-0.480030
	5.170000	-0.396222
	5.175000	-0.454243
	5.180000	-0.541274
	5.185000	-0.476806
	5.190000	-0.389776
	5.195000	-0.451019
	5.200000	-0.547720
	5.205000	-0.480030
	5.210000	-0.386552
	5.215000	-0.457466
	5.220000	-0.538050
	5.225000	-0.470360
	5.230000	-0.386552
	5.235000	-0.447796
	5.240000	-0.541274
	5.245000	-0.473583
	5.250000	-0.386552
	5.255000	-0.451019
	5.260000	-0.538050
	5.265000	-0.470360
	5.270000	-0.396222
	5.275000	-0.454243
	5.280000	-0.538050
	5.285000	-0.476806
	5.290000	-0.392999
	5.295000	-0.454243
	5.300000	-0.538050
	5.305000	-0.480030
	5.310000	-0.389776
	5.315000	-0.451019
	5.320000	-0.538050
	5.325000	-0.476806
	5.330000	-0.392999
	5.335000	-0.451019
	5.340000	-0.541274
	5.345000	-0.483253
	5.350000	-0.389776
	5.355000	-0.457466
	5.360000	-0.538050
	5.365000	-0.480030
	5.370000	-0.396222
	5.375000	-0.454243
	5.380000	-0.538050
	5.385000	-0.486476
	5.390000	-0.392999
	5.395000	-0.451019
	5.400000	-0.538050
	5.405000	-0.476806
	5.410000	-0.399446
	5.415000	-0.451019
	5.420000	-0.534827
	5.425000	-0.480030
	5.430000	-0.396222
	5.435000	-0.451019
	5.440000	-0.541274
	5.445000	-0.476806
	5.450000	-0.392999
	5.455000	-0.447796
	5.460000	-0.538050
	5.465000	-0.476806
	5.470000	-0.389776
	5.475000	-0.451019
	5.480000	-0.538050
	5.485000	-0.476806
	5.490000	-0.389776
	5.495000	-0.444573
	5.500000	-0.538050
	5.505000	-0.476806
	5.510000	-0.386552
	5.515000	-0.451019
	5.520000	-0.534827
	5.525000	-0.483253
	5.530000	-0.389776
	5.535000	-0.451019
	5.540000	-0.534827
	5.545000	-0.480030
	5.550000	-0.380106
	5.555000	-0.444573
	5.560000	-0.534827
	5.565000	-0.480030
	5.570000	-0.383329
	5.575000	-0.454243
	5.580000	-0.528380
	5.585000	-0.480030
	5.590000	-0.386552
	5.595000	-0.441349
	5.600000	-0.538050
	5.605000	-0.470360
	5.610000	-0.386552
	5.615000	-0.444573
	5.620000	-0.538050
	5.625000	-0.476806
	5.630000	-0.389776
	5.635000	-0.451019
	5.640000	-0.541274
	5.645000	-0.476806
	5.650000	-0.386552
	5.655000	-0.441349
	5.660000	-0.538050
	5.665000	-0.486476
	5.670000	-0.389776
	5.675000	-0.447796
	5.680000	-0.541274
	5.685000	-0.483253
	5.690000	-0.392999
	5.695000	-0.451019
	5.700000	-0.531603
	5.705000	-0.480030
	5.710000	-0.386552
	5.715000	-0.447796
	5.720000	-0.534827
	5.725000	-0.483253
	5.730000	-0.392999
	5.735000	-0.441349
	5.740000	-0.538050
	5.745000	-0.476806
	5.750000	-0.383329
	5.755000	-0.441349
	5.760000	-0.538050
	5.765000	-0.483253
	5.770000	-0.389776
	5.775000	-0.441349
	5.780000	-0.534827
	5.785000	-0.476806
	5.790000	-0.389776
	5.795000	-0.434903
	5.800000	-0.528380
	5.805000	-0.476806
	5.810000	-0.392999
	5.815000	-0.438126
	5.820000	-0.531603
	5.825000	-0.480030
	5.830000	-0.383329
	5.835000	-0.444573
	5.840000	-0.521933
	5.845000	-0.483253
	5.850000	-0.392999
	5.855000	-0.431679
	5.860000	-0.531603
	5.865000	-0.483253
	5.870000	-0.389776
	5.875000	-0.431679
	5.880000	-0.531603
	5.885000	-0.483253
	5.890000	-0.386552
	5.895000	-0.441349
	5.900000	-0.525157
	5.905000	-0.470360
	5.910000	-0.383329
	5.915000	-0.441349
	5.920000	-0.531603
	5.925000	-0.483253
	5.930000	-0.389776
	5.935000	-0.434903
	5.940000	-0.531603
	5.945000	-0.483253
	5.950000	-0.383329
	5.955000	-0.434903
	5.960000	-0.525157
	5.965000	-0.480030
	5.970000	-0.380106
	5.975000	-0.438126
	5.980000	-0.528380
	5.985000	-0.470360
	5.990000	-0.386552
	5.995000	-0.438126
	6.000000	-0.534827
	6.005000	-0.476806
	6.010000	-0.380106
	6.015000	-0.434903
	6.020000	-0.528380
	6.025000	-0.473583
	6.030000	-0.386552
	6.035000	-0.431679
	6.040000	-0.528380
	6.045000	-0.480030
	6.050000	-0.389776
	6.055000	-0.431679
	6.060000	-0.531603
	6.065000	-0.473583
	6.070000	-0.386552
	6.075000	-0.441349
	6.080000	-0.538050
	6.085000	-0.476806
	6.090000	-0.392999
	6.095000	-0.434903
	6.100000	-0.541274
	6.105000	-0.483253
	6.110000	-0.380106
	6.115000	-0.431679
	6.120000	-0.528380
	6.125000	-0.483253
	6.130000	-0.386552
	6.135000	-0.438126
	6.140000	-0.528380
	6.145000	-0.486476
	6.150000	-0.386552
	6.155000	-0.434903
	6.160000	-0.534827
	6.165000	-0.486476
	6.170000	-0.392999
	6.175000	-0.434903
	6.180000	-0.534827
	6.185000	-0.483253
	6.190000	-0.389776
	6.195000	-0.438126
	6.200000	-0.538050
	6.205000	-0.483253
	6.210000	-0.392999
	6.215000	-0.431679
	6.220000	-0.534827
	6.225000	-0.492923
	6.230000	-0.396222
	6.235000	-0.441349
	6.240000	-0.534827
	6.245000	-0.486476
	6.250000	-0.392999
	6.255000	-0.441349
	6.260000	-0.534827
	6.265000	-0.489700
	6.270000	-0.386552
	6.275000	-0.434903
	6.280000	-0.531603
	6.285000	-0.480030
	6.290000	-0.392999
	6.295000	-0.434903
	6.300000	-0.538050
	6.305000	-0.483253
	6.310000	-0.392999
	6.315000	-0.431679
	6.320000	-0.531603
	6.325000	-0.486476
	6.330000	-0.396222
	6.335000	-0.434903
	6.340000	-0.528380
	6.345000	-0.483253
	6.350000	-0.396222
	6.355000	-0.434903
	6.360000	-0.534827
	6.365000	-0.483253
	6.370000	-0.392999
	6.375000	-0.434903
	6.380000	-0.534827
	6.385000	-0.489700
	6.390000	-0.389776
	6.395000	-0.441349
	6.400000	-0.531603
	6.405000	-0.489700
	6.410000	-0.392999
	6.415000	-0.438126
	6.420000	-0.531603
	6.425000	-0.483253
	6.430000	-0.392999
	6.435000	-0.431679
	6.440000	-0.528380
	6.445000	-0.486476
	6.450000	-0.399446
	6.455000	-0.438126
	6.460000	-0.534827
	6.465000	-0.489700
	6.470000	-0.396222
	6.475000	-0.431679
	6.480000	-0.534827
	6.485000	-0.489700
	6.490000	-0.392999
	6.495000	-0.434903
	6.500000	-0.534827
	6.505000	-0.483253
	6.510000	-0.392999
	6.515000	-0.434903
	6.520000	-0.528380
	6.525000	-0.489700
	6.530000	-0.392999
	6.535000	-0.431679
	6.540000	-0.534827
	6.545000	-0.483253
	6.550000	-0.386552
	6.555000	-0.428456
	6.560000	-0.531603
	6.565000	-0.480030
	6.570000	-0.383329
	6.575000	-0.422009
	6.580000	-0.525157
	6.585000	-0.473583
	6.590000	-0.386552
	6.595000	-0.415563
	6.600000	-0.502593
	6.605000	-0.463913
	6.610000	-0.360765
	6.615000	-0.399446
	6.620000	-0.492923
	6.625000	-0.447796
	6.630000	-0.347872
	6.635000	-0.383329
	6.640000	-0.483253
	6.645000	-0.431679
	6.650000	-0.341425
	6.655000	-0.370436
	6.660000	-0.463913
	6.665000	-0.425233
	6.670000	-0.322085
	6.675000	-0.363989
	6.680000	-0.463913
	6.685000	-0.431679
	6.690000	-0.318862
	6.695000	-0.363989
	6.700000	-0.463913
	6.705000	-0.422009
	6.710000	-0.322085
	6.715000	-0.357542
	6.720000	-0.460690
	6.725000	-0.422009
	6.730000	-0.322085
	6.735000	-0.357542
	6.740000	-0.454243
	6.745000	-0.418786
	6.750000	-0.318862
	6.755000	-0.357542
	6.760000	-0.460690
	6.765000	-0.415563
	6.770000	-0.315638
	6.775000	-0.357542
	6.780000	-0.457466
	6.785000	-0.412339
	6.790000	-0.315638
	6.795000	-0.354319
	6.800000	-0.460690
	6.805000	-0.418786
	6.810000	-0.315638
	6.815000	-0.357542
	6.820000	-0.460690
	6.825000	-0.425233
	6.830000	-0.338202
	6.835000	-0.373659
	6.840000	-0.476806
	6.845000	-0.441349
	6.850000	-0.347872
	6.855000	-0.386552
	6.860000	-0.492923
	6.865000	-0.454243
	6.870000	-0.360765
	6.875000	-0.396222
	6.880000	-0.499370
	6.885000	-0.457466
	6.890000	-0.363989
	6.895000	-0.392999
	6.900000	-0.505817
	6.905000	-0.463913
	6.910000	-0.363989
	6.915000	-0.402669
	6.920000	-0.499370
	6.925000	-0.467136
	6.930000	-0.360765
	6.935000	-0.399446
	6.940000	-0.505817
	6.945000	-0.470360
	6.950000	-0.363989
	6.955000	-0.405892
	6.960000	-0.509040
	6.965000	-0.473583
	6.970000	-0.370436
	6.975000	-0.402669
	6.980000	-0.512263
	6.985000	-0.473583
	6.990000	-0.373659
	6.995000	-0.409116
	7.000000	-0.518710
	7.005000	-0.480030
	7.010000	-0.373659
	7.015000	-0.409116
	7.020000	-0.512263
	7.025000	-0.473583
	7.030000	-0.370436
	7.035000	-0.415563
	7.040000	-0.512263
	7.045000	-0.476806
	7.050000	-0.383329
	7.055000	-0.409116
	7.060000	-0.515487
	7.065000	-0.473583
	7.070000	-0.380106
	7.075000	-0.412339
	7.080000	-0.515487
	7.085000	-0.473583
	7.090000	-0.376882
	7.095000	-0.409116
	7.100000	-0.515487
	7.105000	-0.476806
	7.110000	-0.373659
	7.115000	-0.402669
	7.120000	-0.509040
	7.125000	-0.473583
	7.130000	-0.373659
	7.135000	-0.405892
	7.140000	-0.505817
	7.145000	-0.473583
	7.150000	-0.383329
	7.155000	-0.405892
	7.160000	-0.512263
	7.165000	-0.470360
	7.170000	-0.376882
	7.175000	-0.405892
	7.180000	-0.505817
	7.185000	-0.476806
	7.190000	-0.370436
	7.195000	-0.402669
	7.200000	-0.509040
	7.205000	-0.476806
	7.210000	-0.383329
	7.215000	-0.402669
	7.220000	-0.509040
	7.225000	-0.483253
	7.230000	-0.380106
	7.235000	-0.405892
	7.240000	-0.509040
	7.245000	-0.483253
	7.250000	-0.376882
	7.255000	-0.402669
	7.260000	-0.496147
	7.265000	-0.463913
	7.270000	-0.367212
	7.275000	-0.399446
	7.280000	-0.492923
	7.285000	-0.460690
	7.290000	-0.354319
	7.295000	-0.380106
	7.300000	-0.476806
	7.305000	-0.434903
	7.310000	-0.331755
	7.315000	-0.360765
	7.320000	-0.454243
	7.325000	-0.425233
	7.330000	-0.312415
	7.335000	-0.347872
	7.340000	-0.434903
	7.345000	-0.405892
	7.350000	-0.296298
	7.355000	-0.318862
	7.360000	-0.409116
	7.365000	-0.376882
	7.370000	-0.270511
	7.375000	-0.293075
	7.380000	-0.373659
	7.385000	-0.338202
	7.390000	-0.238278
	7.395000	-0.260841
	7.400000	-0.347872
	7.405000	-0.315638
	7.410000	-0.209268
	7.415000	-0.231831
	7.420000	-0.328532
	7.425000	-0.289852
	7.430000	-0.180257
	7.435000	-0.196374
	7.440000	-0.283405
	7.445000	-0.247948
	7.450000	-0.138354
	7.455000	-0.148024
	7.460000	-0.222161
	7.465000	-0.183481
	7.470000	-0.057770
	7.475000	-0.073886
	7.480000	-0.148024
	7.485000	-0.112567
	7.490000	0.000251
	7.495000	-0.002973
	7.500000	-0.096450
	7.505000	-0.051323
	7.510000	0.055048
	7.515000	0.055048
	7.520000	-0.028759
	7.525000	0.026038
	7.530000	0.145302
	7.535000	0.154972
	7.540000	0.080835
	7.545000	0.135632
	7.550000	0.254896
	7.555000	0.254896
	7.560000	0.183982
	7.565000	0.225886
	7.570000	0.345150
	7.575000	0.325810
	7.580000	0.245226
	7.585000	0.277460
	7.590000	0.377384
	7.595000	0.364490
	7.600000	0.277460
	7.605000	0.303247
	7.610000	0.399947
	7.615000	0.393501
	7.620000	0.293576
	7.625000	0.312917
	7.630000	0.412841
	7.635000	0.393501
	7.640000	0.303247
	7.645000	0.329033
	7.650000	0.422511
	7.655000	0.399947
	7.660000	0.309693
	7.665000	0.329033
	7.670000	0.422511
	7.675000	0.399947
	7.680000	0.309693
	7.685000	0.322587
	7.690000	0.422511
	7.695000	0.399947
	7.700000	0.309693
	7.705000	0.322587
	7.710000	0.419287
	7.715000	0.393501
	7.720000	0.300023
	7.725000	0.319363
	7.730000	0.412841
	7.735000	0.380607
	7.740000	0.283906
	7.745000	0.316140
	7.750000	0.393501
	7.755000	0.374160
	7.760000	0.277460
	7.765000	0.290353
	7.770000	0.387054
	7.775000	0.364490
	7.780000	0.271013
	7.785000	0.287130
	7.790000	0.377384
	7.795000	0.364490
	7.800000	0.261343
	7.805000	0.287130
	7.810000	0.374160
	7.815000	0.361267
	7.820000	0.264566
	7.825000	0.277460
	7.830000	0.370937
	7.835000	0.348374
	7.840000	0.248449
	7.845000	0.271013
	7.850000	0.361267
	7.855000	0.341927
	7.860000	0.242003
	7.865000	0.254896
	7.870000	0.354820
	7.875000	0.332257
	7.880000	0.242003
	7.885000	0.248449
	7.890000	0.341927
	7.895000	0.319363
	7.900000	0.229109
	7.905000	0.238779
	7.910000	0.335480
	7.915000	0.303247
	7.920000	0.216216
	7.925000	0.222663
	7.930000	0.319363
	7.935000	0.300023
	7.940000	0.200099
	7.945000	0.216216
	7.950000	0.309693
	7.955000	0.293576
	7.960000	0.187206
	7.965000	0.206546
	7.970000	0.296800
	7.975000	0.283906
	7.980000	0.177536
	7.985000	0.203322
	7.990000	0.296800
	7.995000	0.277460
	8.000000	0.180759
	8.005000	0.200099
	8.010000	0.283906
	8.015000	0.271013
	8.020000	0.171089
	8.025000	0.187206
	8.030000	0.277460
	8.035000	0.258119
	8.040000	0.164642
	8.045000	0.177536
	8.050000	0.264566
	8.055000	0.254896
	8.060000	0.154972
	8.065000	0.183982
	8.070000	0.267790
	8.075000	0.258119
	8.080000	0.154972
	8.085000	0.171089
	8.090000	0.251673
	8.095000	0.248449
	8.100000	0.154972
	8.105000	0.167865
	8.110000	0.258119
	8.115000	0.248449
	8.120000	0.145302
	8.125000	0.154972
	8.130000	0.248449
	8.135000	0.235556
	8.140000	0.138855
	8.145000	0.158195
	8.150000	0.238779
	8.155000	0.229109
	8.160000	0.145302
	8.165000	0.148525
	8.170000	0.238779
	8.175000	0.225886
	8.180000	0.129185
	8.185000	0.142079
	8.190000	0.235556
	8.195000	0.219439
	8.200000	0.132408
	8.205000	0.148525
	8.210000	0.232333
	8.215000	0.225886
	8.220000	0.122738
	8.225000	0.142079
	8.230000	0.225886
	8.235000	0.222663
	8.240000	0.122738
	8.245000	0.132408
	8.250000	0.225886
	8.255000	0.212992
	8.260000	0.122738
	8.265000	0.132408
	8.270000	0.212992
	8.275000	0.203322
	8.280000	0.109845
	8.285000	0.119515
	8.290000	0.206546
	8.295000	0.190429
	8.300000	0.100175
	8.305000	0.109845
	8.310000	0.196876
	8.315000	0.187206
	8.320000	0.100175
	8.325000	0.103398
	8.330000	0.183982
	8.335000	0.167865
	8.340000	0.077611
	8.345000	0.087281
	8.350000	0.174312
	8.355000	0.161419
	8.360000	0.071165
	8.365000	0.074388
	8.370000	0.158195
	8.375000	0.145302
	8.380000	0.048601
	8.385000	0.067941
	8.390000	0.142079
	8.395000	0.132408
	8.400000	0.042154
	8.405000	0.051825
	8.410000	0.129185
	8.415000	0.116292
	8.420000	0.026038
	8.425000	0.035708
	8.430000	0.125962
	8.435000	0.116292
	8.440000	0.026038
	8.445000	0.022814
	8.450000	0.106622
	8.455000	0.090505
	8.460000	-0.006196
	8.465000	0.006697
	8.470000	0.087281
	8.475000	0.071165
	8.480000	-0.012643
	8.485000	-0.015866
	8.490000	0.051825
	8.495000	0.045378
	8.500000	-0.044876
	8.505000	-0.048100
	8.510000	0.029261
	8.515000	0.013144
	8.520000	-0.070663
	8.525000	-0.073886
	8.530000	0.003474
	8.535000	-0.012643
	8.540000	-0.102897
	8.545000	-0.106120
	8.550000	-0.038430
	8.555000	-0.057770
	8.560000	-0.144800
	8.565000	-0.144800
	8.570000	-0.086780
	8.575000	-0.102897
	8.580000	-0.206044
	8.585000	-0.202821
	8.590000	-0.125460
	8.595000	-0.157694
	8.600000	-0.254395
	8.605000	-0.273735
	8.610000	-0.199597
	8.615000	-0.222161
	8.620000	-0.328532
	8.625000	-0.334979
	8.630000	-0.273735
	8.635000	-0.299522
	8.640000	-0.409116
	8.645000	-0.418786
	8.650000	-0.341425
	8.655000	-0.376882
	8.660000	-0.483253
	8.665000	-0.496147
	8.670000	-0.438126
	8.675000	-0.467136
	8.680000	-0.583177
	8.685000	-0.602517
	8.690000	-0.541274
	8.695000	-0.563837
	8.700000	-0.679878
	8.705000	-0.686325
	8.710000	-0.608964
	8.715000	-0.628304
	8.720000	-0.728228
	8.725000	-0.725005
	8.730000	-0.657314
	8.735000	-0.666985
	8.740000	-0.763685
	8.745000	-0.763685
	8.750000	-0.683101
	8.755000	-0.692771
	8.760000	-0.792696
	8.765000	-0.792696
	8.770000	-0.705665
	8.775000	-0.718558
	8.780000	-0.824929
	8.785000	-0.818482
	8.790000	-0.731452
	8.795000	-0.744345
	8.800000	-0.837823
	8.805000	-0.837823
	8.810000	-0.741122
	8.815000	-0.750792
	8.820000	-0.857163
	8.825000	-0.841046
	8.830000	-0.757239
	8.835000	-0.763685
	8.840000	-0.863609
	8.845000	-0.847493
	8.850000	-0.763685
	8.855000	-0.766909
	8.860000	-0.870056
	8.865000	-0.863609
	8.870000	-0.773355
	8.875000	-0.776579
	8.880000	-0.876503
	8.885000	-0.876503
	8.890000	-0.783025
	8.895000	-0.786249
	8.900000	-0.889396
	8.905000	-0.889396
	8.910000	-0.792696
	8.915000	-0.799142
	8.920000	-0.895843
	8.925000	-0.889396
	8.930000	-0.795919
	8.935000	-0.799142
	8.940000	-0.902290
	8.945000	-0.899066
	8.950000	-0.789472
	8.955000	-0.795919
	8.960000	-0.895843
	8.965000	-0.889396
	8.970000	-0.789472
	8.975000	-0.789472
	8.980000	-0.889396
	8.985000	-0.882950
	8.990000	-0.783025
	8.995000	-0.786249
	9.000000	-0.876503
	9.005000	-0.882950
	9.010000	-0.779802
	9.015000	-0.776579
	9.020000	-0.876503
	9.025000	-0.873280
	9.030000	-0.766909
	9.035000	-0.779802
	9.040000	-0.876503
	9.045000	-0.866833
	9.050000	-0.766909
	9.055000	-0.770132
	9.060000	-0.873280
	9.065000	-0.866833
	9.070000	-0.754015
	9.075000	-0.760462
	9.080000	-0.860386
	9.085000	-0.850716
	9.090000	-0.750792
	9.095000	-0.750792
	9.100000	-0.850716
	9.105000	-0.850716
	9.110000	-0.747569
	9.115000	-0.747569
	9.120000	-0.844269
	9.125000	-0.837823
	9.130000	-0.741122
	9.135000	-0.741122
	9.140000	-0.841046
	9.145000	-0.834599
	9.150000	-0.734675
	9.155000	-0.728228
	9.160000	-0.831376
	9.165000	-0.831376
	9.170000	-0.728228
	9.175000	-0.718558
	9.180000	-0.828152
	9.185000	-0.824929
	9.190000	-0.712112
	9.195000	-0.715335
	9.200000	-0.818482
	9.205000	-0.818482
	9.210000	-0.712112
	9.215000	-0.708888
	9.220000	-0.808812
	9.225000	-0.812036
	9.230000	-0.702441
	9.235000	-0.708888
	9.240000	-0.802366
	9.245000	-0.805589
	9.250000	-0.702441
	9.255000	-0.695995
	9.260000	-0.799142
	9.265000	-0.799142
	9.270000	-0.692771
	9.275000	-0.686325
	9.280000	-0.792696
	9.285000	-0.789472
	9.290000	-0.679878
	9.295000	-0.679878
	9.300000	-0.779802
	9.305000	-0.786249
	9.310000	-0.670208
	9.315000	-0.670208
	9.320000	-0.776579
	9.325000	-0.773355
	9.330000	-0.660538
	9.335000	-0.657314
	9.340000	-0.766909
	9.345000	-0.763685
	9.350000	-0.657314
	9.355000	-0.654091
	9.360000	-0.763685
	9.365000	-0.757239
	9.370000	-0.654091
	9.375000	-0.641198
	9.380000	-0.750792
	9.385000	-0.754015
	9.390000	-0.644421
	9.395000	-0.631528
	9.400000	-0.750792
	9.405000	-0.744345
	9.410000	-0.641198
	9.415000	-0.634751
	9.420000	-0.737898
	9.425000	-0.747569
	9.430000	-0.628304
	9.435000	-0.634751
	9.440000	-0.737898
	9.445000	-0.734675
	9.450000	-0.628304
	9.455000	-0.621858
	9.460000	-0.725005
	9.465000	-0.728228
	9.470000	-0.625081
	9.475000	-0.618634
	9.480000	-0.728228
	9.485000	-0.728228
	9.490000	-0.621858
	9.495000	-0.612187
	9.500000	-0.725005
	9.505000	-0.718558
	9.510000	-0.615411
	9.515000	-0.615411
	9.520000	-0.712112
	9.525000	-0.715335
	9.530000	-0.608964
	9.535000	-0.605741
	9.540000	-0.705665
	9.545000	-0.705665
	9.550000	-0.599294
	9.555000	-0.602517
	9.560000	-0.695995
	9.565000	-0.699218
	9.570000	-0.592847
	9.575000	-0.589624
	9.580000	-0.702441
	9.585000	-0.705665
	9.590000	-0.596071
	9.595000	-0.589624
	9.600000	-0.689548
	9.605000	-0.699218
	9.610000	-0.596071
	9.615000	-0.579954
	9.620000	-0.692771
	9.625000	-0.689548
	9.630000	-0.579954
	9.635000	-0.583177
	9.640000	-0.683101
	9.645000	-0.686325
	9.650000	-0.586401
	9.655000	-0.573507
	9.660000	-0.683101
	9.665000	-0.679878
	9.670000	-0.576730
	9.675000	-0.576730
	9.680000	-0.676655
	9.685000	-0.683101
	9.690000	-0.570284
	9.695000	-0.563837
	9.700000	-0.673431
	9.705000	-0.683101
	9.710000	-0.570284
	9.715000	-0.560614
	9.720000	-0.670208
	9.725000	-0.676655
	9.730000	-0.563837
	9.735000	-0.563837
	9.740000	-0.663761
	9.745000	-0.670208
	9.750000	-0.560614
	9.755000	-0.557390
	9.760000	-0.660538
	9.765000	-0.666985
	9.770000	-0.563837
	9.775000	-0.544497
	9.780000	-0.657314
	9.785000	-0.657314
	9.790000	-0.560614
	9.795000	-0.547720
	9.800000	-0.654091
	9.805000	-0.670208
	9.810000	-0.557390
	9.815000	-0.544497
	9.820000	-0.657314
	9.825000	-0.663761
	9.830000	-0.554167
	9.835000	-0.544497
	9.840000	-0.644421
	9.845000	-0.647644
	9.850000	-0.547720
	9.855000	-0.534827
	9.860000	-0.641198
	9.865000	-0.654091
	9.870000	-0.550944
	9.875000	-0.534827
	9.880000	-0.644421
	9.885000	-0.650868
	9.890000	-0.550944
	9.895000	-0.544497
	9.900000	-0.647644
	9.905000	-0.657314
	9.910000	-0.547720
	9.915000	-0.534827
	9.920000	-0.650868
	9.925000	-0.657314
	9.930000	-0.541274
	9.935000	-0.531603
	9.940000	-0.644421
	9.945000	-0.650868
	9.950000	-0.547720
	9.955000	-0.534827
	9.960000	-0.641198
	9.965000	-0.647644
	9.970000	-0.544497
	9.975000	-0.525157
	9.980000	-0.631528
	9.985000	-0.647644
	9.990000	-0.541274
	9.995000	-0.525157
	10.000000	-0.634751
	10.005000	-0.637974
	10.010000	-0.541274
	10.015000	-0.525157
	10.020000	-0.631528
	10.025000	-0.637974
	10.030000	-0.531603
	10.035000	-0.521933
	10.040000	-0.631528
	10.045000	-0.637974
	10.050000	-0.538050
	10.055000	-0.518710
	10.060000	-0.625081
	10.065000	-0.634751
	10.070000	-0.521933
	10.075000	-0.518710
	10.080000	-0.618634
	10.085000	-0.634751
	10.090000	-0.518710
	10.095000	-0.515487
	10.100000	-0.621858
	10.105000	-0.628304
	10.110000	-0.528380
	10.115000	-0.509040
	10.120000	-0.612187
	10.125000	-0.621858
	10.130000	-0.528380
	10.135000	-0.509040
	10.140000	-0.618634
	10.145000	-0.618634
	10.150000	-0.525157
	10.155000	-0.502593
	10.160000	-0.615411
	10.165000	-0.631528
	10.170000	-0.515487
	10.175000	-0.502593
	10.180000	-0.612187
	10.185000	-0.618634
	10.190000	-0.518710
	10.195000	-0.509040
	10.200000	-0.612187
	10.205000	-0.618634
	10.210000	-0.512263
	10.215000	-0.502593
	10.220000	-0.612187
	10.225000	-0.621858
	10.230000	-0.509040
	10.235000	-0.496147
	10.240000	-0.602517
	10.245000	-0.618634
	10.250000	-0.518710
	10.255000	-0.496147
	10.260000	-0.602517
	10.265000	-0.618634
	10.270000	-0.515487
	10.275000	-0.492923
	10.280000	-0.605741
	10.285000	-0.615411
	10.290000	-0.512263
	10.295000	-0.492923
	10.300000	-0.599294
	10.305000	-0.618634
	10.310000	-0.505817
	10.315000	-0.496147
	10.320000	-0.602517
	10.325000	-0.612187
	10.330000	-0.512263
	10.335000	-0.492923
	10.340000	-0.599294
	10.345000	-0.608964
	10.350000	-0.512263
	10.355000	-0.489700
	10.360000	-0.599294
	10.365000	-0.615411
	10.370000	-0.509040
	10.375000	-0.492923
	10.380000	-0.596071
	10.385000	-0.602517
	10.390000	-0.505817
	10.395000	-0.486476
	10.400000	-0.592847
	10.405000	-0.612187
	10.410000	-0.499370
	10.415000	-0.486476
	10.420000	-0.586401
	10.425000	-0.602517
	10.430000	-0.499370
	10.435000	-0.486476
	10.440000	-0.589624
	10.445000	-0.608964
	10.450000	-0.502593
	10.455000	-0.483253
	10.460000	-0.589624
	10.465000	-0.605741
	10.470000	-0.499370
	10.475000	-0.486476
	10.480000	-0.586401
	10.485000	-0.608964
	10.490000	-0.502593
	10.495000	-0.476806
	10.500000	-0.589624
	10.505000	-0.605741
	10.510000	-0.496147
	10.515000	-0.476806
	10.520000	-0.576730
	10.525000	-0.599294
	10.530000	-0.499370
	10.535000	-0.476806
	10.540000	-0.586401
	10.545000	-0.602517
	10.550000	-0.492923
	10.555000	-0.483253
	10.560000	-0.579954
	10.565000	-0.596071
	10.570000	-0.489700
	10.575000	-0.470360
	10.580000	-0.579954
	10.585000	-0.592847
	10.590000	-0.496147
	10.595000	-0.470360
	10.600000	-0.583177
	10.605000	-0.599294
	10.610000	-0.496147
	10.615000	-0.483253
	10.620000	-0.576730
	10.625000	-0.602517
	10.630000	-0.489700
	10.635000	-0.470360
	10.640000	-0.583177
	10.645000	-0.599294
	10.650000	-0.486476
	10.655000	-0.476806
	10.660000	-0.576730
	10.665000	-0.599294
	10.670000	-0.486476
	10.675000	-0.476806
	10.680000	-0.579954
	10.685000	-0.599294
	10.690000	-0.492923
	10.695000	-0.470360
	10.700000	-0.579954
	10.705000	-0.599294
	10.710000	-0.492923
	10.715000	-0.470360
	10.720000	-0.573507
	10.725000	-0.596071
	10.730000	-0.486476
	10.735000	-0.463913
	10.740000	-0.579954
	10.745000	-0.592847
	10.750000	-0.492923
	10.755000	-0.467136
	10.760000	-0.567060
	10.765000	-0.589624
	10.770000	-0.496147
	10.775000	-0.467136
	10.780000	-0.573507
	10.785000	-0.583177
	10.790000	-0.486476
	10.795000	-0.463913
	10.800000	-0.573507
	10.805000	-0.592847
	10.810000	-0.486476
	10.815000	-0.463913
	10.820000	-0.576730
	10.825000	-0.589624
	10.830000	-0.480030
	10.835000	-0.457466
	10.840000	-0.563837
	10.845000	-0.589624
	10.850000	-0.486476
	10.855000	-0.457466
	10.860000	-0.563837
	10.865000	-0.592847
	10.870000	-0.489700
	10.875000	-0.460690
	10.880000	-0.567060
	10.885000	-0.583177
	10.890000	-0.489700
	10.895000	-0.460690
	10.900000	-0.567060
	10.905000	-0.583177
	10.910000	-0.476806
	10.915000	-0.463913
	10.920000	-0.567060
	10.925000	-0.583177
	10.930000	-0.483253
	10.935000	-0.454243
	10.940000	-0.560614
	10.945000	-0.592847
	10.950000	-0.483253
	10.955000	-0.463913
	10.960000	-0.560614
	10.965000	-0.586401
	10.970000	-0.483253
	10.975000	-0.463913
	10.980000	-0.570284
	10.985000	-0.583177
	10.990000	-0.480030
	10.995000	-0.454243
	11.000000	-0.560614
	11.005000	-0.583177
	11.010000	-0.483253
	11.015000	-0.457466
	11.020000	-0.563837
	11.025000	-0.586401
	11.030000	-0.483253
	11.035000	-0.457466
	11.040000	-0.567060
	11.045000	-0.579954
	11.050000	-0.476806
	11.055000	-0.457466
	11.060000	-0.557390
	11.065000	-0.583177
	11.070000	-0.476806
	11.075000	-0.457466
	11.080000	-0.567060
	11.085000	-0.586401
	11.090000	-0.476806
	11.095000	-0.457466
	11.100000	-0.557390
	11.105000	-0.586401
	11.110000	-0.480030
	11.115000	-0.451019
	11.120000	-0.567060
	11.125000	-0.579954
	11.130000	-0.486476
	11.135000	-0.454243
	11.140000	-0.550944
	11.145000	-0.573507
	11.150000	-0.470360
	11.155000	-0.454243
	11.160000	-0.554167
	11.165000	-0.579954
	11.170000	-0.473583
	11.175000	-0.444573
	11.180000	-0.554167
	11.185000	-0.583177
	11.190000	-0.480030
	11.195000	-0.444573
	11.200000	-0.554167
	11.205000	-0.573507
	11.210000	-0.473583
	11.215000	-0.447796
	11.220000	-0.554167
	11.225000	-0.573507
	11.230000	-0.480030
	11.235000	-0.444573
	11.240000	-0.550944
	11.245000	-0.576730
	11.250000	-0.473583
	11.255000	-0.447796
	11.260000	-0.547720
	11.265000	-0.576730
	11.270000	-0.473583
	11.275000	-0.454243
	11.280000	-0.550944
	11.285000	-0.573507
	11.290000	-0.473583
	11.295000	-0.444573
	11.300000	-0.541274
	11.305000	-0.570284
	11.310000	-0.467136
	11.315000	-0.447796
	11.320000	-0.550944
	11.325000	-0.579954
	11.330000	-0.476806
	11.335000	-0.441349
	11.340000	-0.541274
	11.345000	-0.576730
	11.350000	-0.473583
	11.355000	-0.441349
	11.360000	-0.544497
	11.365000	-0.573507
	11.370000	-0.473583
	11.375000	-0.444573
	11.380000	-0.544497
	11.385000	-0.576730
	11.390000	-0.470360
	11.395000	-0.438126
	11.400000	-0.544497
	11.405000	-0.570284
	11.410000	-0.470360
	11.415000	-0.444573
	11.420000	-0.544497
	11.425000	-0.579954
	11.430000	-0.470360
	11.435000	-0.438126
	11.440000	-0.547720
	11.445000	-0.576730
	11.450000	-0.467136
	11.455000	-0.441349
	11.460000	-0.547720
	11.465000	-0.573507
	11.470000	-0.473583
	11.475000	-0.441349
	11.480000	-0.544497
	11.485000	-0.573507
	11.490000	-0.470360
	11.495000	-0.444573
	11.500000	-0.544497
	11.505000	-0.576730
	11.510000	-0.476806
	11.515000	-0.441349
	11.520000	-0.538050
	11.525000	-0.573507
	11.530000	-0.473583
	11.535000	-0.441349
	11.540000	-0.547720
	11.545000	-0.576730
	11.550000	-0.470360
	11.555000	-0.434903
	11.560000	-0.547720
	11.565000	-0.576730
	11.570000	-0.473583
	11.575000	-0.441349
	11.580000	-0.544497
	11.585000	-0.570284
	11.590000	-0.470360
	11.595000	-0.438126
	11.600000	-0.544497
	11.605000	-0.573507
	11.610000	-0.467136
	11.615000	-0.434903
	11.620000	-0.544497
	11.625000	-0.573507
	11.630000	-0.473583
	11.635000	-0.441349
	11.640000	-0.538050
	11.645000	-0.567060
	11.650000	-0.467136
	11.655000	-0.438126
	11.660000	-0.531603
	11.665000	-0.570284
	11.670000	-0.463913
	11.675000	-0.425233
	11.680000	-0.534827
	11.685000	-0.563837
	11.690000	-0.457466
	11.695000	-0.425233
	11.700000	-0.538050
	11.705000	-0.563837
	11.710000	-0.467136
	11.715000	-0.431679
	11.720000	-0.528380
	11.725000	-0.560614
	11.730000	-0.470360
	11.735000	-0.431679
	11.740000	-0.534827
	11.745000	-0.567060
	11.750000	-0.467136
	11.755000	-0.428456
	11.760000	-0.531603
	11.765000	-0.563837
	11.770000	-0.460690
	11.775000	-0.431679
	11.780000	-0.531603
	11.785000	-0.567060
	11.790000	-0.467136
	11.795000	-0.431679
	11.800000	-0.538050
	11.805000	-0.567060
	11.810000	-0.454243
	11.815000	-0.441349
	11.820000	-0.528380
	11.825000	-0.563837
	11.830000	-0.460690
	11.835000	-0.438126
	11.840000	-0.525157
	11.845000	-0.563837
	11.850000	-0.467136
	11.855000	-0.431679
	11.860000	-0.521933
	11.865000	-0.567060
	11.870000	-0.463913
	11.875000	-0.431679
	11.880000	-0.528380
	11.885000	-0.554167
	11.890000	-0.457466
	11.895000	-0.425233
	11.900000	-0.531603
	11.905000	-0.570284
	11.910000	-0.467136
	11.915000	-0.428456
	11.920000	-0.531603
	11.925000	-0.560614
	11.930000	-0.463913
	11.935000	-0.425233
	11.940000	-0.525157
	11.945000	-0.567060
	11.950000	-0.463913
	11.955000	-0.428456
	11.960000	-0.531603
	11.965000	-0.563837
	11.970000	-0.460690
	11.975000	-0.422009
	11.980000	-0.528380
	11.985000	-0.567060
	11.990000	-0.457466
	11.995000	-0.425233
	12.000000	-0.525157
	12.005000	-0.560614
	12.010000	-0.460690
	12.015000	-0.428456
	12.020000	-0.521933
	12.025000	-0.563837
	12.030000	-0.467136
	12.035000	-0.422009
	12.040000	-0.528380
	12.045000	-0.563837
	12.050000	-0.460690
	12.055000	-0.418786
	12.060000	-0.528380
	12.065000	-0.557390
	12.070000	-0.460690
	12.075000	-0.428456
	12.080000	-0.528380
	12.085000	-0.560614
	12.090000	-0.460690
	12.095000	-0.422009
	12.100000	-0.531603
	12.105000	-0.567060
	12.110000	-0.463913
	12.115000	-0.428456
	12.120000	-0.518710
	12.125000	-0.557390
	12.130000	-0.460690
	12.135000	-0.418786
	12.140000	-0.528380
	12.145000	-0.560614
	12.150000	-0.460690
	12.155000	-0.425233
	12.160000	-0.528380
	12.165000	-0.570284
	12.170000	-0.457466
	12.175000	-0.422009
	12.180000	-0.531603
	12.185000	-0.567060
	12.190000	-0.457466
	12.195000	-0.418786
	12.200000	-0.531603
	12.205000	-0.563837
	12.210000	-0.460690
	12.215000	-0.425233
	12.220000	-0.528380
	12.225000	-0.563837
	12.230000	-0.463913
	12.235000	-0.422009
	12.240000	-0.534827
	12.245000	-0.557390
	12.250000	-0.460690
	12.255000	-0.422009
	12.260000	-0.528380
	12.265000	-0.567060
	12.270000	-0.460690
	12.275000	-0.431679
	12.280000	-0.528380
	12.285000	-0.563837
	12.290000	-0.463913
	12.295000	-0.422009
	12.300000	-0.531603
	12.305000	-0.563837
	12.310000	-0.463913
	12.315000	-0.428456
	12.320000	-0.521933
	12.325000	-0.567060
	12.330000	-0.467136
	12.335000	-0.422009
	12.340000	-0.528380
	12.345000	-0.560614
	12.350000	-0.463913
	12.355000	-0.431679
	12.360000	-0.525157
	12.365000	-0.570284
	12.370000	-0.467136
	12.375000	-0.434903
	12.380000	-0.525157
	12.385000	-0.560614
	12.390000	-0.463913
	12.395000	-0.428456
	12.400000	-0.528380
	12.405000	-0.567060
	12.410000	-0.460690
	12.415000	-0.425233
	12.420000	-0.531603
	12.425000	-0.567060
	12.430000	-0.467136
	12.435000	-0.428456
	12.440000	-0.525157
	12.445000	-0.563837
	12.450000	-0.470360
	12.455000	-0.425233
	12.460000	-0.521933
	12.465000	-0.567060
	12.470000	-0.463913
	12.475000	-0.418786
	12.480000	-0.528380
	12.485000	-0.557390
	12.490000	-0.470360
	12.495000	-0.422009
	12.500000	-0.521933
	12.505000	-0.560614
	12.510000	-0.467136
	12.515000	-0.428456
	12.520000	-0.521933
	12.525000	-0.567060
	12.530000	-0.467136
	12.535000	-0.428456
	12.540000	-0.528380
	12.545000	-0.570284
	12.550000	-0.467136
	12.555000	-0.425233
	12.560000	-0.528380
	12.565000	-0.567060
	12.570000	-0.467136
	12.575000	-0.425233
	12.580000	-0.528380
	12.585000	-0.560614
	12.590000	-0.470360
	12.595000	-0.425233
	12.600000	-0.531603
	12.605000	-0.567060
	12.610000	-0.470360
	12.615000	-0.434903
	12.620000	-0.531603
	12.625000	-0.570284
	12.630000	-0.470360
	12.635000	-0.428456
	12.640000	-0.534827
	12.645000	-0.570284
	12.650000	-0.473583
	12.655000	-0.428456
	12.660000	-0.525157
	12.665000	-0.557390
	12.670000	-0.473583
	12.675000	-0.438126
	12.680000	-0.528380
	12.685000	-0.563837
	12.690000	-0.473583
	12.695000	-0.434903
	12.700000	-0.531603
	12.705000	-0.563837
	12.710000	-0.473583
	12.715000	-0.431679
	12.720000	-0.518710
	12.725000	-0.560614
	12.730000	-0.463913
	12.735000	-0.431679
	12.740000	-0.518710
	12.745000	-0.554167
	12.750000	-0.467136
	12.755000	-0.425233
	12.760000	-0.521933
	12.765000	-0.554167
	12.770000	-0.467136
	12.775000	-0.434903
	12.780000	-0.525157
	12.785000	-0.554167
	12.790000	-0.470360
	12.795000	-0.431679
	12.800000	-0.521933
	12.805000	-0.554167
	12.810000	-0.457466
	12.815000	-0.434903
	12.820000	-0.518710
	12.825000	-0.557390
	12.830000	-0.460690
	12.835000	-0.431679
	12.840000	-0.518710
	12.845000	-0.554167
	12.850000	-0.467136
	12.855000	-0.425233
	12.860000	-0.525157
	12.865000	-0.560614
	12.870000	-0.463913
	12.875000	-0.425233
	12.880000	-0.515487
	12.885000	-0.560614
	12.890000	-0.460690
	12.895000	-0.431679
	12.900000	-0.512263
	12.905000	-0.557390
	12.910000	-0.463913
	12.915000	-0.418786
	12.920000	-0.515487
	12.925000	-0.557390
	12.930000	-0.467136
	12.935000	-0.422009
	12.940000	-0.509040
	12.945000	-0.554167
	12.950000	-0.473583
	12.955000	-0.428456
	12.960000	-0.518710
	12.965000	-0.560614
	12.970000	-0.460690
	12.975000	-0.422009
	12.980000	-0.515487
	12.985000	-0.563837
	12.990000	-0.463913
	12.995000	-0.425233
	13.000000	-0.512263
	13.005000	-0.557390
	13.010000	-0.463913
	13.015000	-0.418786
	13.020000	-0.518710
	13.025000	-0.550944
	13.030000	-0.463913
	13.035000	-0.418786
	13.040000	-0.512263
	13.045000	-0.544497
	13.050000	-0.457466
	13.055000	-0.422009
	13.060000	-0.502593
	13.065000	-0.541274
	13.070000	-0.454243
	13.075000	-0.402669
	13.080000	-0.492923
	13.085000	-0.528380
	13.090000	-0.434903
	13.095000	-0.383329
	13.100000	-0.476806
	13.105000	-0.512263
	13.110000	-0.412339
	13.115000	-0.363989
	13.120000	-0.460690
	13.125000	-0.499370
	13.130000	-0.402669
	13.135000	-0.354319
	13.140000	-0.447796
	13.145000	-0.489700
	13.150000	-0.383329
	13.155000	-0.341425
	13.160000	-0.434903
	13.165000	-0.470360
	13.170000	-0.383329
	13.175000	-0.338202
	13.180000	-0.422009
	13.185000	-0.457466
	13.190000	-0.360765
	13.195000	-0.325308
	13.200000	-0.412339
	13.205000	-0.447796
	13.210000	-0.367212
	13.215000	-0.318862
	13.220000	-0.399446
	13.225000	-0.451019
	13.230000	-0.357542
	13.235000	-0.322085
	13.240000	-0.409116
	13.245000	-0.447796
	13.250000	-0.360765
	13.255000	-0.315638
	13.260000	-0.409116
	13.265000	-0.447796
	13.270000	-0.354319
	13.275000	-0.305968
	13.280000	-0.405892
	13.285000	-0.447796
	13.290000	-0.360765
	13.295000	-0.312415
	13.300000	-0.399446
	13.305000	-0.441349
	13.310000	-0.360765
	13.315000	-0.315638
	13.320000	-0.396222
	13.325000	-0.444573
	13.330000	-0.347872
	13.335000	-0.315638
	13.340000	-0.399446
	13.345000	-0.447796
	13.350000	-0.360765
	13.355000	-0.309192
	13.360000	-0.396222
	13.365000	-0.444573
	13.370000	-0.354319
	13.375000	-0.305968
	13.380000	-0.399446
	13.385000	-0.444573
	13.390000	-0.347872
	13.395000	-0.309192
	13.400000	-0.399446
	13.405000	-0.434903
	13.410000	-0.344649
	13.415000	-0.299522
	13.420000	-0.386552
	13.425000	-0.434903
	13.430000	-0.338202
	13.435000	-0.296298
	13.440000	-0.386552
	13.445000	-0.428456
	13.450000	-0.338202
	13.455000	-0.293075
	13.460000	-0.380106
	13.465000	-0.431679
	13.470000	-0.331755
	13.475000	-0.283405
	13.480000	-0.373659
	13.485000	-0.418786
	13.490000	-0.331755
	13.495000	-0.286628
	13.500000	-0.376882
	13.505000	-0.415563
	13.510000	-0.325308
	13.515000	-0.276958
	13.520000	-0.367212
	13.525000	-0.415563
	13.530000	-0.322085
	13.535000	-0.276958
	13.540000	-0.363989
	13.545000	-0.405892
	13.550000	-0.318862
	13.555000	-0.270511
	13.560000	-0.373659
	13.565000	-0.409116
	13.570000	-0.328532
	13.575000	-0.270511
	13.580000	-0.370436
	13.585000	-0.412339
	13.590000	-0.318862
	13.595000	-0.273735
	13.600000	-0.363989
	13.605000	-0.409116
	13.610000	-0.318862
	13.615000	-0.270511
	13.620000	-0.367212
	13.625000	-0.405892
	13.630000	-0.312415
	13.635000	-0.273735
	13.640000	-0.367212
	13.645000	-0.399446
	13.650000	-0.315638
	13.655000	-0.273735
	13.660000	-0.360765
	13.665000	-0.399446
	13.670000	-0.315638
	13.675000	-0.267288
	13.680000	-0.360765
	13.685000	-0.412339
	13.690000	-0.315638
	13.695000	-0.273735
	13.700000	-0.360765
	13.705000	-0.405892
	13.710000	-0.312415
	13.715000	-0.270511
	13.720000	-0.354319
	13.725000	-0.399446
	13.730000	-0.309192
	13.735000	-0.260841
	13.740000	-0.357542
	13.745000	-0.402669
	13.750000	-0.318862
	13.755000	-0.264065
	13.760000	-0.351095
	13.765000	-0.405892
	13.770000	-0.309192
	13.775000	-0.267288
	13.780000	-0.357542
	13.785000	-0.409116
	13.790000	-0.315638
	13.795000	-0.276958
	13.800000	-0.363989
	13.805000	-0.405892
	13.810000	-0.318862
	13.815000	-0.270511
	13.820000	-0.357542
	13.825000	-0.405892
	13.830000	-0.318862
	13.835000	-0.273735
	13.840000	-0.363989
	13.845000	-0.405892
	13.850000	-0.318862
	13.855000	-0.270511
	13.860000	-0.363989
	13.865000	-0.412339
	13.870000	-0.322085
	13.875000	-0.273735
	13.880000	-0.367212
	13.885000	-0.412339
	13.890000	-0.318862
	13.895000	-0.273735
	13.900000	-0.367212
	13.905000	-0.412339
	13.910000	-0.328532
	13.915000	-0.273735
	13.920000	-0.363989
	13.925000	-0.409116
	13.930000	-0.325308
	13.935000	-0.270511
	13.940000	-0.363989
	13.945000	-0.412339
	13.950000	-0.315638
	13.955000	-0.270511
	13.960000	-0.367212
	13.965000	-0.415563
	13.970000	-0.318862
	13.975000	-0.273735
	13.980000	-0.363989
	13.985000	-0.415563
	13.990000	-0.315638
	13.995000	-0.267288
	14.000000	-0.363989
	14.005000	-0.409116
	14.010000	-0.322085
	14.015000	-0.273735
	14.020000	-0.373659
	14.025000	-0.412339
	14.030000	-0.325308
	14.035000	-0.270511
	14.040000	-0.367212
	14.045000	-0.415563
	14.050000	-0.325308
	14.055000	-0.276958
	14.060000	-0.373659
	14.065000	-0.425233
	14.070000	-0.328532
	14.075000	-0.273735
	14.080000	-0.367212
	14.085000	-0.418786
	14.090000	-0.331755
	14.095000	-0.280181
	14.100000	-0.367212
	14.105000	-0.425233
	14.110000	-0.338202
	14.115000	-0.276958
	14.120000	-0.373659
	14.125000	-0.422009
	14.130000	-0.331755
	14.135000	-0.280181
	14.140000	-0.376882
	14.145000	-0.422009
	14.150000	-0.331755
	14.155000	-0.283405
	14.160000	-0.370436
	14.165000	-0.425233
	14.170000	-0.328532
	14.175000	-0.280181
	14.180000	-0.373659
	14.185000	-0.428456
	14.190000	-0.331755
	14.195000	-0.273735
	14.200000	-0.373659
	14.205000	-0.431679
	14.210000	-0.338202
	14.215000	-0.280181
	14.220000	-0.370436
	14.225000	-0.428456
	14.230000	-0.341425
	14.235000	-0.289852
	14.240000	-0.380106
	14.245000	-0.428456
	14.250000	-0.334979
	14.255000	-0.280181
	14.260000	-0.373659
	14.265000	-0.431679
	14.270000	-0.338202
	14.275000	-0.280181
	14.280000	-0.370436
	14.285000	-0.428456
	14.290000	-0.344649
	14.295000	-0.286628
	14.300000	-0.376882
	14.305000	-0.434903
	14.310000	-0.347872
	14.315000	-0.286628
	14.320000	-0.373659
	14.325000	-0.431679
	14.330000	-0.351095
	14.335000	-0.283405
	14.340000	-0.383329
	14.345000	-0.438126
	14.350000	-0.347872
	14.355000	-0.293075
	14.360000	-0.380106
	14.365000	-0.434903
	14.370000	-0.344649
	14.375000	-0.289852
	14.380000	-0.383329
	14.385000	-0.431679
	14.390000	-0.351095
	14.395000	-0.293075
	14.400000	-0.386552
	14.405000	-0.444573
	14.410000	-0.357542
	14.415000	-0.299522
	14.420000	-0.380106
	14.425000	-0.441349
	14.430000	-0.347872
	14.435000	-0.293075
	14.440000	-0.386552
	14.445000	-0.444573
	14.450000	-0.347872
	14.455000	-0.296298
	14.460000	-0.386552
	14.465000	-0.441349
	14.470000	-0.357542
	14.475000	-0.302745
	14.480000	-0.376882
	14.485000	-0.451019
	14.490000	-0.354319
	14.495000	-0.299522
	14.500000	-0.389776
	14.505000	-0.441349
	14.510000	-0.344649
	14.515000	-0.299522
	14.520000	-0.392999
	14.525000	-0.447796
	14.530000	-0.360765
	14.535000	-0.299522
	14.540000	-0.383329
	14.545000	-0.441349
	14.550000	-0.360765
	14.555000	-0.296298
	14.560000	-0.392999
	14.565000	-0.447796
	14.570000	-0.357542
	14.575000	-0.309192
	14.580000	-0.392999
	14.585000	-0.451019
	14.590000	-0.357542
	14.595000	-0.305968
	14.600000	-0.396222
	14.605000	-0.454243
	14.610000	-0.363989
	14.615000	-0.309192
	14.620000	-0.399446
	14.625000	-0.454243
	14.630000	-0.363989
	14.635000	-0.309192
	14.640000	-0.399446
	14.645000	-0.457466
	14.650000	-0.370436
	14.655000	-0.309192
	14.660000	-0.399446
	14.665000	-0.463913
	14.670000	-0.367212
	14.675000	-0.309192
	14.680000	-0.402669
	14.685000	-0.457466
	14.690000	-0.367212
	14.695000	-0.309192
	14.700000	-0.402669
	14.705000	-0.454243
	14.710000	-0.363989
	14.715000	-0.302745
	14.720000	-0.396222
	14.725000	-0.454243
	14.730000	-0.360765
	14.735000	-0.299522
	14.740000	-0.396222
	14.745000	-0.451019
	14.750000	-0.360765
	14.755000	-0.299522
	14.760000	-0.383329
	14.765000	-0.454243
	14.770000	-0.354319
	14.775000	-0.293075
	14.780000	-0.389776
	14.785000	-0.441349
	14.790000	-0.357542
	14.795000	-0.299522
	14.800000	-0.383329
	14.805000	-0.444573
	14.810000	-0.351095
	14.815000	-0.280181
	14.820000	-0.383329
	14.825000	-0.438126
	14.830000	-0.344649
	14.835000	-0.280181
	14.840000	-0.373659
	14.845000	-0.428456
	14.850000	-0.338202
	14.855000	-0.280181
	14.860000	-0.376882
	14.865000	-0.425233
	14.870000	-0.338202
	14.875000	-0.276958
	14.880000	-0.360765
	14.885000	-0.428456
	14.890000	-0.341425
	14.895000	-0.273735
	14.900000	-0.370436
	14.905000	-0.422009
	14.910000	-0.334979
	14.915000	-0.276958
	14.920000	-0.367212
	14.925000	-0.428456
	14.930000	-0.334979
	14.935000	-0.273735
	14.940000	-0.360765
	14.945000	-0.425233
	14.950000	-0.334979
	14.955000	-0.273735
	14.960000	-0.370436
	14.965000	-0.422009
	14.970000	-0.344649
	14.975000	-0.280181
	14.980000	-0.367212
	14.985000	-0.428456
	14.990000	-0.344649
	14.995000	-0.276958
	15.000000	-0.373659
	15.005000	-0.428456
	15.010000	-0.341425
	15.015000	-0.276958
	15.020000	-0.370436
	15.025000	-0.425233
	15.030000	-0.344649
	15.035000	-0.276958
	15.040000	-0.367212
	15.045000	-0.428456
	15.050000	-0.344649
	15.055000	-0.276958
	15.060000	-0.363989
	15.065000	-0.425233
	15.070000	-0.341425
	15.075000	-0.283405
	15.080000	-0.367212
	15.085000	-0.425233
	15.090000	-0.338202
	15.095000	-0.286628
	15.100000	-0.370436
	15.105000	-0.425233
	15.110000	-0.341425
	15.115000	-0.273735
	15.120000	-0.363989
	15.125000	-0.431679
	15.130000	-0.341425
	15.135000	-0.280181
	15.140000	-0.370436
	15.145000	-0.434903
	15.150000	-0.334979
	15.155000	-0.283405
	15.160000	-0.367212
	15.165000	-0.428456
	15.170000	-0.347872
	15.175000	-0.280181
	15.180000	-0.367212
	15.185000	-0.434903
	15.190000	-0.351095
	15.195000	-0.286628
	15.200000	-0.367212
	15.205000	-0.434903
	15.210000	-0.351095
	15.215000	-0.289852
	15.220000	-0.373659
	15.225000	-0.434903
	15.230000	-0.344649
	15.235000	-0.289852
	15.240000	-0.370436
	15.245000	-0.434903
	15.250000	-0.351095
	15.255000	-0.289852
	15.260000	-0.373659
	15.265000	-0.431679
	15.270000	-0.347872
	15.275000	-0.286628
	15.280000	-0.373659
	15.285000	-0.434903
	15.290000	-0.341425
	15.295000	-0.286628
	15.300000	-0.376882
	15.305000	-0.431679
	15.310000	-0.347872
	15.315000	-0.289852
	15.320000	-0.370436
	15.325000	-0.425233
	15.330000	-0.331755
	15.335000	-0.280181
	15.340000	-0.363989
	15.345000	-0.425233
	15.350000	-0.338202
	15.355000	-0.273735
	15.360000	-0.360765
	15.365000	-0.412339
	15.370000	-0.325308
	15.375000	-0.273735
	15.380000	-0.347872
	15.385000	-0.402669
	15.390000	-0.312415
	15.395000	-0.251171
	15.400000	-0.328532
	15.405000	-0.383329
	15.410000	-0.299522
	15.415000	-0.235054
	15.420000	-0.315638
	15.425000	-0.357542
	15.430000	-0.270511
	15.435000	-0.202821
	15.440000	-0.283405
	15.445000	-0.322085
	15.450000	-0.231831
	15.455000	-0.160917
	15.460000	-0.241501
	15.465000	-0.280181
	15.470000	-0.183481
	15.475000	-0.119014
	15.480000	-0.196374
	15.485000	-0.247948
	15.490000	-0.160917
	15.495000	-0.086780
	15.500000	-0.170587
	15.505000	-0.212491
	15.510000	-0.128684
	15.515000	-0.051323
	15.520000	-0.119014
	15.525000	-0.160917
	15.530000	-0.067440
	15.535000	0.000251
	15.540000	-0.060993
	15.545000	-0.112567
	15.550000	-0.022313
	15.555000	0.045378
	15.560000	-0.028759
	15.565000	-0.086780
	15.570000	0.006697
	15.575000	0.071165
	15.580000	-0.006196
	15.585000	-0.051323
	15.590000	0.051825
	15.595000	0.125962
	15.600000	0.064718
	15.605000	0.038931
	15.610000	0.138855
	15.615000	0.229109
	15.620000	0.183982
	15.625000	0.148525
	15.630000	0.248449
	15.635000	0.322587
	15.640000	0.264566
	15.645000	0.229109
	15.650000	0.319363
	15.655000	0.380607
	15.660000	0.312917
	15.665000	0.274236
	15.670000	0.361267
	15.675000	0.422511
	15.680000	0.348374
	15.685000	0.290353
	15.690000	0.387054
	15.695000	0.438628
	15.700000	0.361267
	15.705000	0.322587
	15.710000	0.403171
	15.715000	0.454744
	15.720000	0.374160
	15.725000	0.325810
	15.730000	0.403171
	15.735000	0.464414
	15.740000	0.383830
	15.745000	0.329033
	15.750000	0.399947
	15.755000	0.467638
	15.760000	0.390277
	15.765000	0.332257
	15.770000	0.416064
	15.775000	0.467638
	15.780000	0.393501
	15.785000	0.338703
	15.790000	0.419287
	15.795000	0.470861
	15.800000	0.396724
	15.805000	0.338703
	15.810000	0.419287
	15.815000	0.470861
	15.820000	0.403171
	15.825000	0.341927
	15.830000	0.416064
	15.835000	0.474085
	15.840000	0.399947
	15.845000	0.338703
	15.850000	0.412841
	15.855000	0.467638
	15.860000	0.390277
	15.865000	0.325810
	15.870000	0.403171
	15.875000	0.464414
	15.880000	0.380607
	15.885000	0.335480
	15.890000	0.390277
	15.895000	0.451521
	15.900000	0.380607
	15.905000	0.316140
	15.910000	0.390277
	15.915000	0.445074
	15.920000	0.367714
	15.925000	0.309693
	15.930000	0.383830
	15.935000	0.438628
	15.940000	0.364490
	15.945000	0.303247
	15.950000	0.383830
	15.955000	0.425734
	15.960000	0.354820
	15.965000	0.300023
	15.970000	0.377384
	15.975000	0.425734
	15.980000	0.345150
	15.985000	0.293576
	15.990000	0.361267
	15.995000	0.416064
	16.000000	0.341927
	16.005000	0.287130
	16.010000	0.361267
	16.015000	0.409617
	16.020000	0.332257
	16.025000	0.271013
	16.030000	0.341927
	16.035000	0.406394
	16.040000	0.329033
	16.045000	0.267790
	16.050000	0.341927
	16.055000	0.399947
	16.060000	0.322587
	16.065000	0.271013
	16.070000	0.345150
	16.075000	0.390277
	16.080000	0.322587
	16.085000	0.261343
	16.090000	0.341927
	16.095000	0.387054
	16.100000	0.322587
	16.105000	0.264566
	16.110000	0.329033
	16.115000	0.387054
	16.120000	0.322587
	16.125000	0.264566
	16.130000	0.335480
	16.135000	0.387054
	16.140000	0.316140
	16.145000	0.261343
	16.150000	0.332257
	16.155000	0.383830
	16.160000	0.319363
	16.165000	0.261343
	16.170000	0.332257
	16.175000	0.383830
	16.180000	0.322587
	16.185000	0.258119
	16.190000	0.325810
	16.195000	0.387054
	16.200000	0.306470
	16.205000	0.245226
	16.210000	0.322587
	16.215000	0.367714
	16.220000	0.306470
	16.225000	0.232333
	16.230000	0.306470
	16.235000	0.358044
	16.240000	0.277460
	16.245000	0.212992
	16.250000	0.287130
	16.255000	0.332257
	16.260000	0.258119
	16.265000	0.203322
	16.270000	0.267790
	16.275000	0.319363
	16.280000	0.242003
	16.285000	0.180759
	16.290000	0.251673
	16.295000	0.293576
	16.300000	0.229109
	16.305000	0.164642
	16.310000	0.242003
	16.315000	0.280683
	16.320000	0.216216
	16.325000	0.154972
	16.330000	0.216216
	16.335000	0.271013
	16.340000	0.200099
	16.345000	0.135632
	16.350000	0.193652
	16.355000	0.251673
	16.360000	0.183982
	16.365000	0.119515
	16.370000	0.180759
	16.375000	0.219439
	16.380000	0.158195
	16.385000	0.096952
	16.390000	0.154972
	16.395000	0.196876
	16.400000	0.119515
	16.405000	0.058271
	16.410000	0.109845
	16.415000	0.148525
	16.420000	0.074388
	16.425000	0.000251
	16.430000	0.051825
	16.435000	0.074388
	16.440000	-0.002973
	16.445000	-0.067440
	16.450000	-0.022313
	16.455000	0.000251
	16.460000	-0.083557
	16.465000	-0.173811
	16.470000	-0.128684
	16.475000	-0.112567
	16.480000	-0.206044
	16.485000	-0.293075
	16.490000	-0.267288
	16.495000	-0.247948
	16.500000	-0.351095
	16.505000	-0.444573
	16.510000	-0.422009
	16.515000	-0.402669
	16.520000	-0.502593
	16.525000	-0.599294
	16.530000	-0.550944
	16.535000	-0.518710
	16.540000	-0.605741
	16.545000	-0.686325
	16.550000	-0.634751
	16.555000	-0.589624
	16.560000	-0.676655
	16.565000	-0.750792
	16.570000	-0.692771
	16.575000	-0.650868
	16.580000	-0.734675
	16.585000	-0.802366
	16.590000	-0.737898
	16.595000	-0.689548
	16.600000	-0.763685
	16.605000	-0.828152
	16.610000	-0.760462
	16.615000	-0.699218
	16.620000	-0.779802
	16.625000	-0.844269
	16.630000	-0.776579
	16.635000	-0.715335
	16.640000	-0.792696
	16.645000	-0.850716
	16.650000	-0.779802
	16.655000	-0.721782
	16.660000	-0.802366
	16.665000	-0.860386
	16.670000	-0.792696
	16.675000	-0.737898
	16.680000	-0.812036
	16.685000	-0.879726
	16.690000	-0.795919
	16.695000	-0.747569
	16.700000	-0.824929
	16.705000	-0.889396
	16.710000	-0.815259
	16.715000	-0.750792
	16.720000	-0.828152
	16.725000	-0.895843
	16.730000	-0.812036
	16.735000	-0.763685
	16.740000	-0.841046
	16.745000	-0.895843
	16.750000	-0.821706
	16.755000	-0.754015
	16.760000	-0.844269
	16.765000	-0.892620
	16.770000	-0.818482
	16.775000	-0.760462
	16.780000	-0.831376
	16.785000	-0.902290
	16.790000	-0.818482
	16.795000	-0.754015
	16.800000	-0.828152
	16.805000	-0.889396
	16.810000	-0.808812
	16.815000	-0.747569
	16.820000	-0.821706
	16.825000	-0.882950
	16.830000	-0.799142
	16.835000	-0.744345
	16.840000	-0.821706
	16.845000	-0.876503
	16.850000	-0.795919
	16.855000	-0.728228
	16.860000	-0.805589
	16.865000	-0.860386
	16.870000	-0.779802
	16.875000	-0.721782
	16.880000	-0.802366
	16.885000	-0.860386
	16.890000	-0.773355
	16.895000	-0.708888
	16.900000	-0.789472
	16.905000	-0.847493
	16.910000	-0.766909
	16.915000	-0.702441
	16.920000	-0.783025
	16.925000	-0.844269
	16.930000	-0.760462
	16.935000	-0.692771
	16.940000	-0.773355
	16.945000	-0.831376
	16.950000	-0.747569
	16.955000	-0.679878
	16.960000	-0.766909
	16.965000	-0.821706
	16.970000	-0.737898
	16.975000	-0.673431
	16.980000	-0.754015
	16.985000	-0.818482
	16.990000	-0.731452
	16.995000	-0.673431
	17.000000	-0.754015
	17.005000	-0.805589
	17.010000	-0.725005
	17.015000	-0.660538
	17.020000	-0.741122
	17.025000	-0.795919
	17.030000	-0.721782
	17.035000	-0.650868
	17.040000	-0.741122
	17.045000	-0.792696
	17.050000	-0.715335
	17.055000	-0.644421
	17.060000	-0.728228
	17.065000	-0.789472
	17.070000	-0.702441
	17.075000	-0.647644
	17.080000	-0.715335
	17.085000	-0.779802
	17.090000	-0.695995
	17.095000	-0.631528
	17.100000	-0.708888
	17.105000	-0.776579
	17.110000	-0.692771
	17.115000	-0.631528
	17.120000	-0.715335
	17.125000	-0.779802
	17.130000	-0.695995
	17.135000	-0.631528
	17.140000	-0.708888
	17.145000	-0.766909
	17.150000	-0.692771
	17.155000	-0.618634
	17.160000	-0.702441
	17.165000	-0.773355
	17.170000	-0.683101
	17.175000	-0.621858
	17.180000	-0.699218
	17.185000	-0.763685
	17.190000	-0.676655
	17.195000	-0.612187
	17.200000	-0.699218
	17.205000	-0.760462
	17.210000	-0.679878
	17.215000	-0.605741
	17.220000	-0.692771
	17.225000	-0.763685
	17.230000	-0.666985
	17.235000	-0.608964
	17.240000	-0.689548
	17.245000	-0.754015
	17.250000	-0.673431
	17.255000	-0.612187
	17.260000	-0.686325
	17.265000	-0.744345
	17.270000	-0.666985
	17.275000	-0.596071
	17.280000	-0.679878
	17.285000	-0.747569
	17.290000	-0.663761
	17.295000	-0.592847
	17.300000	-0.673431
	17.305000	-0.744345
	17.310000	-0.657314
	17.315000	-0.592847
	17.320000	-0.670208
	17.325000	-0.734675
	17.330000	-0.650868
	17.335000	-0.576730
	17.340000	-0.660538
	17.345000	-0.728228
	17.350000	-0.641198
	17.355000	-0.573507
	17.360000	-0.654091
	17.365000	-0.721782
	17.370000	-0.637974
	17.375000	-0.567060
	17.380000	-0.650868
	17.385000	-0.718558
	17.390000	-0.634751
	17.395000	-0.567060
	17.400000	-0.644421
	17.405000	-0.715335
	17.410000	-0.625081
	17.415000	-0.560614
	17.420000	-0.644421
	17.425000	-0.708888
	17.430000	-0.618634
	17.435000	-0.554167
	17.440000	-0.641198
	17.445000	-0.702441
	17.450000	-0.612187
	17.455000	-0.550944
	17.460000	-0.637974
	17.465000	-0.708888
	17.470000	-0.621858
	17.475000	-0.554167
	17.480000	-0.634751
	17.485000	-0.692771
	17.490000	-0.625081
	17.495000	-0.547720
	17.500000	-0.628304
	17.505000	-0.695995
	17.510000	-0.615411
	17.515000	-0.547720
	17.520000	-0.625081
	17.525000	-0.695995
	17.530000	-0.602517
	17.535000	-0.541274
	17.540000	-0.621858
	17.545000	-0.689548
	17.550000	-0.608964
	17.555000	-0.547720
	17.560000	-0.625081
	17.565000	-0.689548
	17.570000	-0.602517
	17.575000	-0.534827
	17.580000	-0.618634
	17.585000	-0.686325
	17.590000	-0.605741
	17.595000	-0.531603
	17.600000	-0.615411
	17.605000	-0.676655
	17.610000	-0.599294
	17.615000	-0.531603
	17.620000	-0.612187
	17.625000	-0.683101
	17.630000	-0.583177
	17.635000	-0.528380
	17.640000	-0.618634
	17.645000	-0.673431
	17.650000	-0.596071
	17.655000	-0.521933
	17.660000	-0.608964
	17.665000	-0.676655
	17.670000	-0.599294
	17.675000	-0.512263
	17.680000	-0.602517
	17.685000	-0.673431
	17.690000	-0.589624
	17.695000	-0.518710
	17.700000	-0.599294
	17.705000	-0.670208
	17.710000	-0.579954
	17.715000	-0.518710
	17.720000	-0.592847
	17.725000	-0.660538
	17.730000	-0.576730
	17.735000	-0.515487
	17.740000	-0.596071
	17.745000	-0.660538
	17.750000	-0.579954
	17.755000	-0.505817
	17.760000	-0.589624
	17.765000	-0.657314
	17.770000	-0.573507
	17.775000	-0.499370
	17.780000	-0.586401
	17.785000	-0.657314
	17.790000	-0.570284
	17.795000	-0.509040
	17.800000	-0.583177
	17.805000	-0.647644
	17.810000	-0.567060
	17.815000	-0.505817
	17.820000	-0.589624
	17.825000	-0.650868
	17.830000	-0.573507
	17.835000	-0.496147
	17.840000	-0.579954
	17.845000	-0.647644
	17.850000	-0.560614
	17.855000	-0.496147
	17.860000	-0.576730
	17.865000	-0.650868
	17.870000	-0.567060
	17.875000	-0.502593
	17.880000	-0.583177
	17.885000	-0.641198
	17.890000	-0.560614
	17.895000	-0.499370
	17.900000	-0.579954
	17.905000	-0.647644
	17.910000	-0.563837
	17.915000	-0.492923
	17.920000	-0.570284
	17.925000	-0.641198
	17.930000	-0.560614
	17.935000	-0.492923
	17.940000	-0.573507
	17.945000	-0.644421
	17.950000	-0.563837
	17.955000	-0.492923
	17.960000	-0.573507
	17.965000	-0.644421
	17.970000	-0.554167
	17.975000	-0.496147
	17.980000	-0.576730
	17.985000	-0.637974
	17.990000	-0.557390
	17.995000	-0.489700
	18.000000	-0.570284
	18.005000	-0.644421
	18.010000	-0.560614
	18.015000	-0.489700
	18.020000	-0.573507
	18.025000	-0.641198
	18.030000	-0.550944
	18.035000	-0.489700
	18.040000	-0.570284
	18.045000	-0.637974
	18.050000	-0.554167
	18.055000	-0.489700
	18.060000	-0.570284
	18.065000	-0.641198
	18.070000	-0.554167
	18.075000	-0.486476
	18.080000	-0.576730
	18.085000	-0.641198
	18.090000	-0.557390
	18.095000	-0.499370
	18.100000	-0.570284
	18.105000	-0.631528
	18.110000	-0.557390
	18.115000	-0.486476
	18.120000	-0.567060
	18.125000	-0.634751
	18.130000	-0.547720
	18.135000	-0.483253
	18.140000	-0.567060
	18.145000	-0.634751
	18.150000	-0.550944
	18.155000	-0.486476
	18.160000	-0.567060
	18.165000	-0.634751
	18.170000	-0.544497
	18.175000	-0.486476
	18.180000	-0.563837
	18.185000	-0.631528
	18.190000	-0.541274
	18.195000	-0.480030
	18.200000	-0.567060
	18.205000	-0.631528
	18.210000	-0.550944
	18.215000	-0.476806
	18.220000	-0.570284
	18.225000	-0.634751
	18.230000	-0.550944
	18.235000	-0.480030
	18.240000	-0.560614
	18.245000	-0.634751
	18.250000	-0.547720
	18.255000	-0.486476
	18.260000	-0.560614
	18.265000	-0.631528
	18.270000	-0.547720
	18.275000	-0.483253
	18.280000	-0.563837
	18.285000	-0.631528
	18.290000	-0.544497
	18.295000	-0.480030
	18.300000	-0.560614
	18.305000	-0.631528
	18.310000	-0.547720
	18.315000	-0.473583
	18.320000	-0.557390
	18.325000	-0.621858
	18.330000	-0.544497
	18.335000	-0.476806
	18.340000	-0.554167
	18.345000	-0.628304
	18.350000	-0.544497
	18.355000	-0.476806
	18.360000	-0.557390
	18.365000	-0.628304
	18.370000	-0.544497
	18.375000	-0.470360
	18.380000	-0.550944
	18.385000	-0.625081
	18.390000	-0.538050
	18.395000	-0.473583
	18.400000	-0.554167
	18.405000	-0.628304
	18.410000	-0.534827
	18.415000	-0.470360
	18.420000	-0.557390
	18.425000	-0.628304
	18.430000	-0.534827
	18.435000	-0.470360
	18.440000	-0.557390
	18.445000	-0.612187
	18.450000	-0.534827
	18.455000	-0.470360
	18.460000	-0.560614
	18.465000	-0.621858
	18.470000	-0.538050
	18.475000	-0.470360
	18.480000	-0.547720
	18.485000	-0.625081
	18.490000	-0.541274
	18.495000	-0.473583
	18.500000	-0.557390
	18.505000	-0.618634
	18.510000	-0.541274
	18.515000	-0.470360
	18.520000	-0.557390
	18.525000	-0.621858
	18.530000	-0.538050
	18.535000	-0.467136
	18.540000	-0.547720
	18.545000	-0.621858
	18.550000	-0.534827
	18.555000	-0.470360
	18.560000	-0.547720
	18.565000	-0.615411
	18.570000	-0.534827
	18.575000	-0.473583
	18.580000	-0.544497
	18.585000	-0.621858
	18.590000	-0.541274
	18.595000	-0.467136
	18.600000	-0.557390
	18.605000	-0.612187
	18.610000	-0.534827
	18.615000	-0.470360
	18.620000	-0.550944
	18.625000	-0.621858
	18.630000	-0.541274
	18.635000	-0.467136
	18.640000	-0.550944
	18.645000	-0.612187
	18.650000	-0.528380
	18.655000	-0.467136
	18.660000	-0.550944
	18.665000	-0.615411
	18.670000	-0.534827
	18.675000	-0.467136
	18.680000	-0.550944
	18.685000	-0.615411
	18.690000	-0.531603
	18.695000	-0.463913
	18.700000	-0.554167
	18.705000	-0.612187
	18.710000	-0.531603
	18.715000	-0.460690
	18.720000	-0.547720
	18.725000	-0.612187
	18.730000	-0.538050
	18.735000	-0.470360
	18.740000	-0.544497
	18.745000	-0.618634
	18.750000	-0.528380
	18.755000	-0.460690
	18.760000	-0.547720
	18.765000	-0.612187
	18.770000	-0.534827
	18.775000	-0.460690
	18.780000	-0.547720
	18.785000	-0.615411
	18.790000	-0.528380
	18.795000	-0.463913
	18.800000	-0.547720
	18.805000	-0.615411
	18.810000	-0.528380
	18.815000	-0.463913
	18.820000	-0.541274
	18.825000	-0.612187
	18.830000	-0.531603
	18.835000	-0.457466
	18.840000	-0.544497
	18.845000	-0.605741
	18.850000	-0.525157
	18.855000	-0.460690
	18.860000	-0.541274
	18.865000	-0.608964
	18.870000	-0.521933
	18.875000	-0.463913
	18.880000	-0.547720
	18.885000	-0.605741
	18.890000	-0.528380
	18.895000	-0.457466
	18.900000	-0.538050
	18.905000	-0.615411
	18.910000	-0.528380
	18.915000	-0.460690
	18.920000	-0.541274
	18.925000	-0.615411
	18.930000	-0.531603
	18.935000	-0.467136
	18.940000	-0.541274
	18.945000	-0.615411
	18.950000	-0.528380
	18.955000	-0.454243
	18.960000	-0.544497
	18.965000	-0.612187
	18.970000	-0.528380
	18.975000	-0.463913
	18.980000	-0.541274
	18.985000	-0.605741
	18.990000	-0.518710
	18.995000	-0.463913
	19.000000	-0.541274
	19.005000	-0.602517
	19.010000	-0.528380
	19.015000	-0.451019
	19.020000	-0.547720
	19.025000	-0.608964
	19.030000	-0.525157
	19.035000	-0.454243
	19.040000	-0.534827
	19.045000	-0.602517
	19.050000	-0.525157
	19.055000	-0.454243
	19.060000	-0.541274
	19.065000	-0.605741
	19.070000	-0.515487
	19.075000	-0.454243
	19.080000	-0.538050
	19.085000	-0.602517
	19.090000	-0.512263
	19.095000	-0.451019
	19.100000	-0.541274
	19.105000	-0.599294
	19.110000	-0.518710
	19.115000	-0.444573
	19.120000	-0.525157
	19.125000	-0.596071
	19.130000	-0.509040
	19.135000	-0.444573
	19.140000	-0.518710
	19.145000	-0.592847
	19.150000	-0.502593
	19.155000	-0.438126
	19.160000	-0.518710
	19.165000	-0.596071
	19.170000	-0.502593
	19.175000	-0.441349
	19.180000	-0.525157
	19.185000	-0.589624
	19.190000	-0.499370
	19.195000	-0.431679
	19.200000	-0.521933
	19.205000	-0.583177
	19.210000	-0.499370
	19.215000	-0.428456
	19.220000	-0.515487
	19.225000	-0.583177
	19.230000	-0.499370
	19.235000	-0.428456
	19.240000	-0.512263
	19.245000	-0.586401
	19.250000	-0.496147
	19.255000	-0.431679
	19.260000	-0.512263
	19.265000	-0.579954
	19.270000	-0.496147
	19.275000	-0.431679
	19.280000	-0.515487
	19.285000	-0.576730
	19.290000	-0.489700
	19.295000	-0.428456
	19.300000	-0.505817
	19.305000	-0.576730
	19.310000	-0.496147
	19.315000	-0.428456
	19.320000	-0.505817
	19.325000	-0.579954
	19.330000	-0.489700
	19.335000	-0.431679
	19.340000	-0.502593
	19.345000	-0.579954
	19.350000	-0.489700
	19.355000	-0.422009
	19.360000	-0.509040
	19.365000	-0.576730
	19.370000	-0.486476
	19.375000	-0.425233
	19.380000	-0.499370
	19.385000	-0.570284
	19.390000	-0.486476
	19.395000	-0.415563
	19.400000	-0.505817
	19.405000	-0.570284
	19.410000	-0.489700
	19.415000	-0.412339
	19.420000	-0.509040
	19.425000	-0.570284
	19.430000	-0.480030
	19.435000	-0.415563
	19.440000	-0.499370
	19.445000	-0.560614
	19.450000	-0.480030
	19.455000	-0.415563
	19.460000	-0.502593
	19.465000	-0.567060
	19.470000	-0.483253
	19.475000	-0.412339
	19.480000	-0.499370
	19.485000	-0.557390
	19.490000	-0.483253
	19.495000	-0.415563
	19.500000	-0.496147
	19.505000	-0.563837
	19.510000	-0.476806
	19.515000	-0.415563
	19.520000	-0.502593
	19.525000	-0.563837
	19.530000	-0.476806
	19.535000	-0.405892
	19.540000	-0.496147
	19.545000	-0.557390
	19.550000	-0.476806
	19.555000	-0.409116
	19.560000	-0.489700
	19.565000	-0.563837
	19.570000	-0.473583
	19.575000	-0.409116
	19.580000	-0.496147
	19.585000	-0.563837
	19.590000	-0.480030
	19.595000	-0.412339
	19.600000	-0.499370
	19.605000	-0.567060
	19.610000	-0.473583
	19.615000	-0.412339
	19.620000	-0.489700
	19.625000	-0.557390
	19.630000	-0.476806
	19.635000	-0.412339
	19.640000	-0.486476
	19.645000	-0.557390
	19.650000	-0.483253
	19.655000	-0.409116
	19.660000	-0.486476
	19.665000	-0.560614
	19.670000	-0.470360
	19.675000	-0.412339
	19.680000	-0.489700
	19.685000	-0.563837
	19.690000	-0.480030
	19.695000	-0.412339
	19.700000	-0.499370
	19.705000	-0.567060
	19.710000	-0.476806
	19.715000	-0.415563
	19.720000	-0.499370
	19.725000	-0.567060
	19.730000	-0.480030
	19.735000	-0.412339
	19.740000	-0.499370
	19.745000	-0.567060
	19.750000	-0.486476
	19.755000	-0.418786
	19.760000	-0.505817
	19.765000	-0.567060
	19.770000	-0.476806
	19.775000	-0.412339
	19.780000	-0.496147
	19.785000	-0.563837
	19.790000	-0.480030
	19.795000	-0.409116
	19.800000	-0.496147
	19.805000	-0.560614
	19.810000	-0.476806
	19.815000	-0.412339
	19.820000	-0.499370
	19.825000	-0.547720
	19.830000	-0.470360
	19.835000	-0.405892
	19.840000	-0.486476
	19.845000	-0.550944
	19.850000	-0.473583
	19.855000	-0.399446
	19.860000	-0.483253
	19.865000	-0.554167
	19.870000	-0.463913
	19.875000	-0.399446
	19.880000	-0.489700
	19.885000	-0.554167
	19.890000	-0.463913
	19.895000	-0.396222
	19.900000	-0.483253
	19.905000	-0.538050
	19.910000	-0.457466
	19.915000	-0.380106
	19.920000	-0.460690
	19.925000	-0.521933
	19.930000	-0.438126
	19.935000	-0.367212
	19.940000	-0.447796
	19.945000	-0.509040
	19.950000	-0.422009
	19.955000	-0.360765
	19.960000	-0.444573
	19.965000	-0.496147
	19.970000	-0.415563
	19.975000	-0.351095
	19.980000	-0.425233
	19.985000	-0.489700
	19.990000	-0.402669
	19.995000	-0.334979
	20.000000	-0.415563
	20.005000	-0.470360
	20.010000	-0.383329
	20.015000	-0.315638
	20.020000	-0.392999
	20.025000	-0.454243
	20.030000	-0.360765
	20.035000	-0.293075
	20.040000	-0.367212
	20.045000	-0.428456
	20.050000	-0.334979
	20.055000	-0.270511
	20.060000	-0.338202
	20.065000	-0.392999
	20.070000	-0.302745
	20.075000	-0.228608
	20.080000	-0.299522
	20.085000	-0.351095
	20.090000	-0.254395
	20.095000	-0.186704
	20.100000	-0.257618
	20.105000	-0.302745
	20.110000	-0.209268
	20.115000	-0.141577
	20.120000	-0.202821
	20.125000	-0.254395
	20.130000	-0.160917
	20.135000	-0.086780
	20.140000	-0.157694
	20.145000	-0.215714
	20.150000	-0.109343
	20.155000	-0.041653
	20.160000	-0.109343
	20.165000	-0.160917
	20.170000	-0.070663
	20.175000	0.013144
	20.180000	-0.051323
	20.185000	-0.093227
	20.190000	0.003474
	20.195000	0.096952
	20.200000	0.035708
	20.205000	0.000251
	20.210000	0.093728
	20.215000	0.167865
	20.220000	0.103398
	20.225000	0.055048
	20.230000	0.135632
	20.235000	0.203322
	20.240000	0.142079
	20.245000	0.071165
	20.250000	0.145302
	20.255000	0.225886
	20.260000	0.151749
	20.265000	0.096952
	20.270000	0.183982
	20.275000	0.251673
	20.280000	0.180759
	20.285000	0.122738
	20.290000	0.200099
	20.295000	0.271013
	20.300000	0.203322
	20.305000	0.135632
	20.310000	0.212992
	20.315000	0.274236
	20.320000	0.190429
	20.325000	0.135632
	20.330000	0.209769
	20.335000	0.264566
	20.340000	0.187206
	20.345000	0.113068
	20.350000	0.203322
	20.355000	0.254896
	20.360000	0.180759
	20.365000	0.109845
	20.370000	0.187206
	20.375000	0.248449
	20.380000	0.171089
	20.385000	0.106622
	20.390000	0.187206
	20.395000	0.251673
	20.400000	0.171089
	20.405000	0.109845
	20.410000	0.193652
	20.415000	0.251673
	20.420000	0.177536
	20.425000	0.116292
	20.430000	0.187206
	20.435000	0.251673
	20.440000	0.180759
	20.445000	0.116292
	20.450000	0.196876
	20.455000	0.254896
	20.460000	0.187206
	20.465000	0.125962
	20.470000	0.193652
	20.475000	0.258119
	20.480000	0.177536
	20.485000	0.122738
	20.490000	0.196876
	20.495000	0.254896
	20.500000	0.177536
	20.505000	0.116292
	20.510000	0.190429
	20.515000	0.251673
	20.520000	0.174312
	20.525000	0.119515
	20.530000	0.190429
	20.535000	0.245226
	20.540000	0.167865
	20.545000	0.113068
	20.550000	0.187206
	20.555000	0.248449
	20.560000	0.167865
	20.565000	0.109845
	20.570000	0.177536
	20.575000	0.242003
	20.580000	0.161419
	20.585000	0.096952
	20.590000	0.180759
	20.595000	0.238779
	20.600000	0.154972
	20.605000	0.106622
	20.610000	0.180759
	20.615000	0.229109
	20.620000	0.154972
	20.625000	0.100175
	20.630000	0.167865
	20.635000	0.229109
	20.640000	0.161419
	20.645000	0.100175
	20.650000	0.174312
	20.655000	0.225886
	20.660000	0.154972
	20.665000	0.093728
	20.670000	0.174312
	20.675000	0.229109
	20.680000	0.148525
	20.685000	0.087281
	20.690000	0.161419
	20.695000	0.225886
	20.700000	0.148525
	20.705000	0.087281
	20.710000	0.164642
	20.715000	0.216216
	20.720000	0.142079
	20.725000	0.080835
	20.730000	0.154972
	20.735000	0.212992
	20.740000	0.129185
	20.745000	0.071165
	20.750000	0.151749
	20.755000	0.212992
	20.760000	0.129185
	20.765000	0.074388
	20.770000	0.145302
	20.775000	0.193652
	20.780000	0.122738
	20.785000	0.064718
	20.790000	0.132408
	20.795000	0.180759
	20.800000	0.103398
	20.805000	0.042154
	20.810000	0.113068
	20.815000	0.161419
	20.820000	0.084058
	20.825000	0.022814
	20.830000	0.096952
	20.835000	0.142079
	20.840000	0.067941
	20.845000	0.003474
	20.850000	0.071165
	20.855000	0.122738
	20.860000	0.045378
	20.865000	-0.015866
	20.870000	0.055048
	20.875000	0.103398
	20.880000	0.032484
	20.885000	-0.028759
	20.890000	0.038931
	20.895000	0.080835
	20.900000	0.003474
	20.905000	-0.054546
	20.910000	0.003474
	20.915000	0.045378
	20.920000	-0.035206
	20.925000	-0.096450
	20.930000	-0.035206
	20.935000	0.006697
	20.940000	-0.080333
	20.945000	-0.148024
	20.950000	-0.096450
	20.955000	-0.057770
	20.960000	-0.148024
	20.965000	-0.225384
	20.970000	-0.183481
	20.975000	-0.144800
	20.980000	-0.241501
	20.985000	-0.322085
	20.990000	-0.273735
	20.995000	-0.241501
	21.000000	-0.338202
	21.005000	-0.415563
	21.010000	-0.367212
	21.015000	-0.334979
	21.020000	-0.431679
	21.025000	-0.512263
	21.030000	-0.457466
	21.035000	-0.425233
	21.040000	-0.531603
	21.045000	-0.602517
	21.050000	-0.547720
	21.055000	-0.521933
	21.060000	-0.605741
	21.065000	-0.686325
	21.070000	-0.631528
	21.075000	-0.589624
	21.080000	-0.676655
	21.085000	-0.750792
	21.090000	-0.683101
	21.095000	-0.641198
	21.100000	-0.728228
	21.105000	-0.795919
	21.110000	-0.728228
	21.115000	-0.689548
	21.120000	-0.770132
	21.125000	-0.834599
	21.130000	-0.760462
	21.135000	-0.715335
	21.140000	-0.805589
	21.145000	-0.866833
	21.150000	-0.802366
	21.155000	-0.750792
	21.160000	-0.834599
	21.165000	-0.892620
	21.170000	-0.821706
	21.175000	-0.770132
	21.180000	-0.863609
	21.185000	-0.924853
	21.190000	-0.853939
	21.195000	-0.792696
	21.200000	-0.892620
	21.205000	-0.947417
	21.210000	-0.876503
	21.215000	-0.824929
	21.220000	-0.905513
	21.225000	-0.969980
	21.230000	-0.889396
	21.235000	-0.831376
	21.240000	-0.905513
	21.245000	-0.969980
	21.250000	-0.879726
	21.255000	-0.824929
	21.260000	-0.905513
	21.265000	-0.966757
	21.270000	-0.892620
	21.275000	-0.824929
	21.280000	-0.902290
	21.285000	-0.969980
	21.290000	-0.886173
	21.295000	-0.824929
	21.300000	-0.905513
	21.305000	-0.953863
	21.310000	-0.879726
	21.315000	-0.818482
	21.320000	-0.905513
	21.325000	-0.960310
	21.330000	-0.876503
	21.335000	-0.824929
	21.340000	-0.899066
	21.345000	-0.957087
	21.350000	-0.873280
	21.355000	-0.821706
	21.360000	-0.899066
	21.365000	-0.960310
	21.370000	-0.876503
	21.375000	-0.812036
	21.380000	-0.895843
	21.385000	-0.966757
	21.390000	-0.873280
	21.395000	-0.808812
	21.400000	-0.892620
	21.405000	-0.950640
	21.410000	-0.863609
	21.415000	-0.802366
	21.420000	-0.886173
	21.425000	-0.947417
	21.430000	-0.853939
	21.435000	-0.786249
	21.440000	-0.876503
	21.445000	-0.931300
	21.450000	-0.844269
	21.455000	-0.779802
	21.460000	-0.876503
	21.465000	-0.928077
	21.470000	-0.831376
	21.475000	-0.770132
	21.480000	-0.853939
	21.485000	-0.921630
	21.490000	-0.834599
	21.495000	-0.766909
	21.500000	-0.850716
	21.505000	-0.911960
	21.510000	-0.815259
	21.515000	-0.760462
	21.520000	-0.834599
	21.525000	-0.899066
	21.530000	-0.808812
	21.535000	-0.744345
	21.540000	-0.831376
	21.545000	-0.892620
	21.550000	-0.805589
	21.555000	-0.731452
	21.560000	-0.821706
	21.565000	-0.886173
	21.570000	-0.789472
	21.575000	-0.721782
	21.580000	-0.805589
	21.585000	-0.870056
	21.590000	-0.773355
	21.595000	-0.718558
	21.600000	-0.812036
	21.605000	-0.866833
	21.610000	-0.776579
	21.615000	-0.718558
	21.620000	-0.792696
	21.625000	-0.866833
	21.630000	-0.766909
	21.635000	-0.705665
	21.640000	-0.789472
	21.645000	-0.853939
	21.650000	-0.770132
	21.655000	-0.699218
	21.660000	-0.789472
	21.665000	-0.847493
	21.670000	-0.757239
	21.675000	-0.695995
	21.680000	-0.789472
	21.685000	-0.844269
	21.690000	-0.754015
	21.695000	-0.689548
	21.700000	-0.770132
	21.705000	-0.837823
	21.710000	-0.747569
	21.715000	-0.683101
	21.720000	-0.770132
	21.725000	-0.831376
	21.730000	-0.737898
	21.735000	-0.679878
	21.740000	-0.760462
	21.745000	-0.824929
	21.750000	-0.731452
	21.755000	-0.670208
	21.760000	-0.747569
	21.765000	-0.815259
	21.770000	-0.725005
	21.775000	-0.663761
	21.780000	-0.744345
	21.785000	-0.815259
	21.790000	-0.721782
	21.795000	-0.657314
	21.800000	-0.747569
	21.805000	-0.805589
	21.810000	-0.715335
	21.815000	-0.654091
	21.820000	-0.744345
	21.825000	-0.802366
	21.830000	-0.712112
	21.835000	-0.650868
	21.840000	-0.737898
	21.845000	-0.795919
	21.850000	-0.705665
	21.855000	-0.644421
	21.860000	-0.728228
	21.865000	-0.789472
	21.870000	-0.692771
	21.875000	-0.641198
	21.880000	-0.731452
	21.885000	-0.786249
	21.890000	-0.695995
	21.895000	-0.628304
	21.900000	-0.721782
	21.905000	-0.786249
	21.910000	-0.689548
	21.915000	-0.637974
	21.920000	-0.715335
	21.925000	-0.779802
	21.930000	-0.683101
	21.935000	-0.628304
	21.940000	-0.715335
	21.945000	-0.773355
	21.950000	-0.689548
	21.955000	-0.625081
	21.960000	-0.712112
	21.965000	-0.779802
	21.970000	-0.676655
	21.975000	-0.618634
	21.980000	-0.708888
	21.985000	-0.770132
	21.990000	-0.683101
	21.995000	-0.618634
	22.000000	-0.705665
	22.005000	-0.766909
	22.010000	-0.679878
	22.015000	-0.625081
	22.020000	-0.699218
	22.025000	-0.760462
	22.030000	-0.663761
	22.035000	-0.605741
	22.040000	-0.702441
	22.045000	-0.760462
	22.050000	-0.666985
	22.055000	-0.608964
	22.060000	-0.695995
	22.065000	-0.754015
	22.070000	-0.666985
	22.075000	-0.599294
	22.080000	-0.686325
	22.085000	-0.754015
	22.090000	-0.660538
	22.095000	-0.602517
	22.100000	-0.692771
	22.105000	-0.747569
	22.110000	-0.663761
	22.115000	-0.596071
	22.120000	-0.686325
	22.125000	-0.737898
	22.130000	-0.650868
	22.135000	-0.596071
	22.140000	-0.686325
	22.145000	-0.734675
	22.150000	-0.647644
	22.155000	-0.599294
	22.160000	-0.686325
	22.165000	-0.734675
	22.170000	-0.650868
	22.175000	-0.589624
	22.180000	-0.676655
	22.185000	-0.731452
	22.190000	-0.647644
	22.195000	-0.589624
	22.200000	-0.676655
	22.205000	-0.728228
	22.210000	-0.637974
	22.215000	-0.589624
	22.220000	-0.670208
	22.225000	-0.737898
	22.230000	-0.647644
	22.235000	-0.589624
	22.240000	-0.670208
	22.245000	-0.728228
	22.250000	-0.641198
	22.255000	-0.579954
	22.260000	-0.670208
	22.265000	-0.725005
	22.270000	-0.634751
	22.275000	-0.579954
	22.280000	-0.670208
	22.285000	-0.715335
	22.290000	-0.631528
	22.295000	-0.570284
	22.300000	-0.666985
	22.305000	-0.718558
	22.310000	-0.634751
	22.315000	-0.576730
	22.320000	-0.660538
	22.325000	-0.712112
	22.330000	-0.625081
	22.335000	-0.570284
	22.340000	-0.660538
	22.345000	-0.708888
	22.350000	-0.625081
	22.355000	-0.567060
	22.360000	-0.654091
	22.365000	-0.705665
	22.370000	-0.618634
	22.375000	-0.570284
	22.380000	-0.660538
	22.385000	-0.705665
	22.390000	-0.621858
	22.395000	-0.563837
	22.400000	-0.657314
	22.405000	-0.712112
	22.410000	-0.615411
	22.415000	-0.563837
	22.420000	-0.650868
	22.425000	-0.708888
	22.430000	-0.612187
	22.435000	-0.567060
	22.440000	-0.644421
	22.445000	-0.705665
	22.450000	-0.618634
	22.455000	-0.557390
	22.460000	-0.644421
	22.465000	-0.702441
	22.470000	-0.605741
	22.475000	-0.554167
	22.480000	-0.647644
	22.485000	-0.699218
	22.490000	-0.605741
	22.495000	-0.547720
	22.500000	-0.641198
	22.505000	-0.695995
	22.510000	-0.605741
	22.515000	-0.554167
	22.520000	-0.634751
	22.525000	-0.692771
	22.530000	-0.592847
	22.535000	-0.544497
	22.540000	-0.634751
	22.545000	-0.689548
	22.550000	-0.605741
	22.555000	-0.550944
	22.560000	-0.634751
	22.565000	-0.689548
	22.570000	-0.608964
	22.575000	-0.547720
	22.580000	-0.637974
	22.585000	-0.686325
	22.590000	-0.599294
	22.595000	-0.547720
	22.600000	-0.628304
	22.605000	-0.683101
	22.610000	-0.599294
	22.615000	-0.547720
	22.620000	-0.631528
	22.625000	-0.686325
	22.630000	-0.599294
	22.635000	-0.541274
	22.640000	-0.625081
	22.645000	-0.679878
	22.650000	-0.599294
	22.655000	-0.541274
	22.660000	-0.631528
	22.665000	-0.686325
	22.670000	-0.589624
	22.675000	-0.544497
	22.680000	-0.621858
	22.685000	-0.676655
	22.690000	-0.589624
	22.695000	-0.538050
	22.700000	-0.625081
	22.705000	-0.683101
	22.710000	-0.583177
	22.715000	-0.534827
	22.720000	-0.618634
	22.725000	-0.676655
	22.730000	-0.592847
	22.735000	-0.534827
	22.740000	-0.625081
	22.745000	-0.676655
	22.750000	-0.583177
	22.755000	-0.531603
	22.760000	-0.621858
	22.765000	-0.670208
	22.770000	-0.583177
	22.775000	-0.528380
	22.780000	-0.615411
	22.785000	-0.673431
	22.790000	-0.583177
	22.795000	-0.521933
	22.800000	-0.615411
	22.805000	-0.670208
	22.810000	-0.573507
	22.815000	-0.521933
	22.820000	-0.618634
	22.825000	-0.657314
	22.830000	-0.583177
	22.835000	-0.528380
	22.840000	-0.615411
	22.845000	-0.670208
	22.850000	-0.576730
	22.855000	-0.528380
	22.860000	-0.615411
	22.865000	-0.663761
	22.870000	-0.573507
	22.875000	-0.515487
	22.880000	-0.602517
	22.885000	-0.663761
	22.890000	-0.576730
	22.895000	-0.521933
	22.900000	-0.612187
	22.905000	-0.666985
	22.910000	-0.573507
	22.915000	-0.518710
	22.920000	-0.615411
	22.925000	-0.660538
	22.930000	-0.567060
	22.935000	-0.521933
	22.940000	-0.612187
	22.945000	-0.663761
	22.950000	-0.579954
	22.955000	-0.518710
	22.960000	-0.605741
	22.965000	-0.660538
	22.970000	-0.573507
	22.975000	-0.521933
	22.980000	-0.608964
	22.985000	-0.657314
	22.990000	-0.567060
	22.995000	-0.521933
	23.000000	-0.612187
	23.005000	-0.660538
	23.010000	-0.576730
	23.015000	-0.518710
	23.020000	-0.608964
	23.025000	-0.666985
	23.030000	-0.573507
	23.035000	-0.525157
	23.040000	-0.605741
	23.045000	-0.666985
	23.050000	-0.570284
	23.055000	-0.528380
	23.060000	-0.618634
	23.065000	-0.666985
	23.070000	-0.573507
	23.075000	-0.521933
	23.080000	-0.625081
	23.085000	-0.670208
	23.090000	-0.576730
	23.095000	-0.518710
	23.100000	-0.612187
	23.105000	-0.676655
	23.110000	-0.579954
	23.115000	-0.525157
	23.120000	-0.608964
	23.125000	-0.673431
	23.130000	-0.583177
	23.135000	-0.525157
	23.140000	-0.612187
	23.145000	-0.663761
	23.150000	-0.576730
	23.155000	-0.515487
	23.160000	-0.605741
	23.165000	-0.663761
	23.170000	-0.567060
	23.175000	-0.512263
	23.180000	-0.605741
	23.185000	-0.654091
	23.190000	-0.557390
	23.195000	-0.512263
	23.200000	-0.599294
	23.205000	-0.650868
	23.210000	-0.554167
	23.215000	-0.509040
	23.220000	-0.599294
	23.225000	-0.641198
	23.230000	-0.554167
	23.235000	-0.509040
	23.240000	-0.599294
	23.245000	-0.644421
	23.250000	-0.554167
	23.255000	-0.502593
	23.260000	-0.583177
	23.265000	-0.637974
	23.270000	-0.550944
	23.275000	-0.496147
	23.280000	-0.586401
	23.285000	-0.637974
	23.290000	-0.547720
	23.295000	-0.496147
	23.300000	-0.583177
	23.305000	-0.628304
	23.310000	-0.541274
	23.315000	-0.499370
	23.320000	-0.583177
	23.325000	-0.634751
	23.330000	-0.538050
	23.335000	-0.492923
	23.340000	-0.579954
	23.345000	-0.625081
	23.350000	-0.541274
	23.355000	-0.489700
	23.360000	-0.576730
	23.365000	-0.628304
	23.370000	-0.541274
	23.375000	-0.489700
	23.380000	-0.576730
	23.385000	-0.631528
	23.390000	-0.531603
	23.395000	-0.483253
	23.400000	-0.576730
	23.405000	-0.615411
	23.410000	-0.528380
	23.415000	-0.480030
	23.420000	-0.570284
	23.425000	-0.618634
	23.430000	-0.521933
	23.435000	-0.470360
	23.440000	-0.573507
	23.445000	-0.612187
	23.450000	-0.521933
	23.455000	-0.480030
	23.460000	-0.570284
	23.465000	-0.612187
	23.470000	-0.515487
	23.475000	-0.476806
	23.480000	-0.567060
	23.485000	-0.618634
	23.490000	-0.521933
	23.495000	-0.470360
	23.500000	-0.554167
	23.505000	-0.608964
	23.510000	-0.521933
	23.515000	-0.467136
	23.520000	-0.560614
	23.525000	-0.615411
	23.530000	-0.515487
	23.535000	-0.463913
	23.540000	-0.560614
	23.545000	-0.608964
	23.550000	-0.518710
	23.555000	-0.463913
	23.560000	-0.563837
	23.565000	-0.612187
	23.570000	-0.509040
	23.575000	-0.467136
	23.580000	-0.554167
	23.585000	-0.605741
	23.590000	-0.509040
	23.595000	-0.460690
	23.600000	-0.554167
	23.605000	-0.589624
	23.610000	-0.496147
	23.615000	-0.454243
	23.620000	-0.544497
	23.625000	-0.596071
	23.630000	-0.496147
	23.635000	-0.451019
	23.640000	-0.538050
	23.645000	-0.579954
	23.650000	-0.492923
	23.655000	-0.441349
	23.660000	-0.534827
	23.665000	-0.583177
	23.670000	-0.489700
	23.675000	-0.444573
	23.680000	-0.528380
	23.685000	-0.576730
	23.690000	-0.483253
	23.695000	-0.431679
	23.700000	-0.525157
	23.705000	-0.573507
	23.710000	-0.489700
	23.715000	-0.431679
	23.720000	-0.521933
	23.725000	-0.567060
	23.730000	-0.480030
	23.735000	-0.428456
	23.740000	-0.518710
	23.745000	-0.563837
	23.750000	-0.473583
	23.755000	-0.418786
	23.760000	-0.518710
	23.765000	-0.567060
	23.770000	-0.480030
	23.775000	-0.425233
	23.780000	-0.518710
	23.785000	-0.563837
	23.790000	-0.473583
	23.795000	-0.422009
	23.800000	-0.509040
	23.805000	-0.538050
	23.810000	-0.451019
	23.815000	-0.396222
	23.820000	-0.476806
	23.825000	-0.515487
	23.830000	-0.422009
	23.835000	-0.367212
	23.840000	-0.451019
	23.845000	-0.486476
	23.850000	-0.380106
	23.855000	-0.338202
	23.860000	-0.409116
	23.865000	-0.444573
	23.870000	-0.354319
	23.875000	-0.296298
	23.880000	-0.370436
	23.885000	-0.399446
	23.890000	-0.299522
	23.895000	-0.244725
	23.900000	-0.315638
	23.905000	-0.351095
	23.910000	-0.257618
	23.915000	-0.196374
	23.920000	-0.276958
	23.925000	-0.315638
	23.930000	-0.222161
	23.935000	-0.177034
	23.940000	-0.260841
	23.945000	-0.293075
	23.950000	-0.202821
	23.955000	-0.148024
	23.960000	-0.225384
	23.965000	-0.257618
	23.970000	-0.151247
	23.975000	-0.093227
	23.980000	-0.164141
	23.985000	-0.193151
	23.990000	-0.086780
	23.995000	-0.031983
	24.000000	-0.109343
	24.005000	-0.131907
	24.010000	-0.044876
	24.015000	0.003474
	24.020000	-0.070663
	24.025000	-0.106120
	24.030000	-0.009419
	24.035000	0.051825
	24.040000	-0.022313
	24.045000	-0.051323
	24.050000	0.064718
	24.055000	0.116292
	24.060000	0.048601
	24.065000	0.032484
	24.070000	0.132408
	24.075000	0.183982
	24.080000	0.116292
	24.085000	0.084058
	24.090000	0.174312
	24.095000	0.232333
	24.100000	0.154972
	24.105000	0.113068
	24.110000	0.212992
	24.115000	0.258119
	24.120000	0.174312
	24.125000	0.138855
	24.130000	0.225886
	24.135000	0.280683
	24.140000	0.193652
	24.145000	0.161419
	24.150000	0.245226
	24.155000	0.290353
	24.160000	0.206546
	24.165000	0.161419
	24.170000	0.254896
	24.175000	0.283906
	24.180000	0.209769
	24.185000	0.164642
	24.190000	0.242003
	24.195000	0.277460
	24.200000	0.196876
	24.205000	0.151749
	24.210000	0.235556
	24.215000	0.277460
	24.220000	0.193652
	24.225000	0.154972
	24.230000	0.245226
	24.235000	0.283906
	24.240000	0.206546
	24.245000	0.164642
	24.250000	0.248449
	24.255000	0.287130
	24.260000	0.206546
	24.265000	0.167865
	24.270000	0.251673
	24.275000	0.296800
	24.280000	0.212992
	24.285000	0.183982
	24.290000	0.264566
	24.295000	0.309693
	24.300000	0.232333
	24.305000	0.180759
	24.310000	0.271013
	24.315000	0.309693
	24.320000	0.229109
	24.325000	0.193652
	24.330000	0.271013
	24.335000	0.312917
	24.340000	0.232333
	24.345000	0.187206
	24.350000	0.264566
	24.355000	0.296800
	24.360000	0.229109
	24.365000	0.183982
	24.370000	0.267790
	24.375000	0.303247
	24.380000	0.222663
	24.385000	0.187206
	24.390000	0.264566
	24.395000	0.303247
	24.400000	0.222663
	24.405000	0.171089
	24.410000	0.254896
	24.415000	0.290353
	24.420000	0.219439
	24.425000	0.171089
	24.430000	0.248449
	24.435000	0.280683
	24.440000	0.196876
	24.445000	0.151749
	24.450000	0.229109
	24.455000	0.264566
	24.460000	0.177536
	24.465000	0.142079
	24.470000	0.219439
	24.475000	0.258119
	24.480000	0.161419
	24.485000	0.129185
	24.490000	0.209769
	24.495000	0.251673
	24.500000	0.151749
	24.505000	0.119515
	24.510000	0.187206
	24.515000	0.222663
	24.520000	0.138855
	24.525000	0.103398
	24.530000	0.183982
	24.535000	0.203322
	24.540000	0.119515
	24.545000	0.084058
	24.550000	0.161419
	24.555000	0.187206
	24.560000	0.103398
	24.565000	0.061495
	24.570000	0.132408
	24.575000	0.161419
	24.580000	0.067941
	24.585000	0.038931
	24.590000	0.106622
	24.595000	0.129185
	24.600000	0.048601
	24.605000	-0.002973
	24.610000	0.080835
	24.615000	0.106622
	24.620000	0.013144
	24.625000	-0.015866
	24.630000	0.048601
	24.635000	0.074388
	24.640000	-0.012643
	24.645000	-0.054546
	24.650000	0.009921
	24.655000	0.038931
	24.660000	-0.051323
	24.665000	-0.093227
	24.670000	-0.019089
	24.675000	0.006697
	24.680000	-0.090003
	24.685000	-0.128684
	24.690000	-0.067440
	24.695000	-0.044876
	24.700000	-0.135130
	24.705000	-0.180257
	24.710000	-0.109343
	24.715000	-0.090003
	24.720000	-0.183481
	24.725000	-0.231831
	24.730000	-0.167364
	24.735000	-0.148024
	24.740000	-0.238278
	24.745000	-0.289852
	24.750000	-0.225384
	24.755000	-0.206044
	24.760000	-0.312415
	24.765000	-0.363989
	24.770000	-0.299522
	24.775000	-0.286628
	24.780000	-0.386552
	24.785000	-0.441349
	24.790000	-0.383329
	24.795000	-0.373659
	24.800000	-0.473583
	24.805000	-0.534827
	24.810000	-0.473583
	24.815000	-0.451019
	24.820000	-0.560614
	24.825000	-0.605741
	24.830000	-0.538050
	24.835000	-0.518710
	24.840000	-0.608964
	24.845000	-0.657314
	24.850000	-0.579954
	24.855000	-0.554167
	24.860000	-0.644421
	24.865000	-0.695995
	24.870000	-0.615411
	24.875000	-0.586401
	24.880000	-0.679878
	24.885000	-0.731452
	24.890000	-0.647644
	24.895000	-0.621858
	24.900000	-0.712112
	24.905000	-0.750792
	24.910000	-0.679878
	24.915000	-0.644421
	24.920000	-0.731452
	24.925000	-0.770132
	24.930000	-0.689548
	24.935000	-0.650868
	24.940000	-0.744345
	24.945000	-0.779802
	24.950000	-0.702441
	24.955000	-0.670208
	24.960000	-0.757239
	24.965000	-0.795919
	24.970000	-0.712112
	24.975000	-0.679878
	24.980000	-0.766909
	24.985000	-0.808812
	24.990000	-0.725005
	24.995000	-0.686325
	25.000000	-0.779802
	25.005000	-0.808812
	25.010000	-0.731452
	25.015000	-0.695995
	25.020000	-0.783025
	25.025000	-0.821706
	25.030000	-0.731452
	25.035000	-0.689548
	25.040000	-0.786249
	25.045000	-0.824929
	25.050000	-0.731452
	25.055000	-0.702441
	25.060000	-0.789472
	25.065000	-0.824929
	25.070000	-0.728228
	25.075000	-0.702441
	25.080000	-0.792696
	25.085000	-0.818482
	25.090000	-0.734675
	25.095000	-0.702441
	25.100000	-0.783025
	25.105000	-0.824929
	25.110000	-0.731452
	25.115000	-0.699218
	25.120000	-0.786249
	25.125000	-0.821706
	25.130000	-0.731452
	25.135000	-0.702441
	25.140000	-0.786249
	25.145000	-0.821706
	25.150000	-0.734675
	25.155000	-0.689548
	25.160000	-0.789472
	25.165000	-0.824929
	25.170000	-0.731452
	25.175000	-0.689548
	25.180000	-0.783025
	25.185000	-0.815259
	25.190000	-0.721782
	25.195000	-0.683101
	25.200000	-0.786249
	25.205000	-0.815259
	25.210000	-0.721782
	25.215000	-0.683101
	25.220000	-0.773355
	25.225000	-0.808812
	25.230000	-0.712112
	25.235000	-0.670208
	25.240000	-0.770132
	25.245000	-0.802366
	25.250000	-0.705665
	25.255000	-0.666985
	25.260000	-0.763685
	25.265000	-0.792696
	25.270000	-0.699218
	25.275000	-0.663761
	25.280000	-0.747569
	25.285000	-0.786249
	25.290000	-0.686325
	25.295000	-0.650868
	25.300000	-0.750792
	25.305000	-0.783025
	25.310000	-0.686325
	25.315000	-0.644421
	25.320000	-0.734675
	25.325000	-0.773355
	25.330000	-0.676655
	25.335000	-0.637974
	25.340000	-0.728228
	25.345000	-0.773355
	25.350000	-0.666985
	25.355000	-0.634751
	25.360000	-0.728228
	25.365000	-0.760462
	25.370000	-0.654091
	25.375000	-0.621858
	25.380000	-0.721782
	25.385000	-0.750792
	25.390000	-0.647644
	25.395000	-0.612187
	25.400000	-0.715335
	25.405000	-0.747569
	25.410000	-0.650868
	25.415000	-0.602517
	25.420000	-0.715335
	25.425000	-0.744345
	25.430000	-0.644421
	25.435000	-0.602517
	25.440000	-0.705665
	25.445000	-0.737898
	25.450000	-0.637974
	25.455000	-0.592847
	25.460000	-0.695995
	25.465000	-0.728228
	25.470000	-0.625081
	25.475000	-0.599294
	25.480000	-0.699218
	25.485000	-0.728228
	25.490000	-0.625081
	25.495000	-0.592847
	25.500000	-0.692771
	25.505000	-0.721782
	25.510000	-0.615411
	25.515000	-0.586401
	25.520000	-0.689548
	25.525000	-0.725005
	25.530000	-0.612187
	25.535000	-0.586401
	25.540000	-0.679878
	25.545000	-0.715335
	25.550000	-0.608964
	25.555000	-0.576730
	25.560000	-0.683101
	25.565000	-0.715335
	25.570000	-0.608964
	25.575000	-0.573507
	25.580000	-0.673431
	25.585000	-0.699218
	25.590000	-0.602517
	25.595000	-0.573507
	25.600000	-0.676655
	25.605000	-0.705665
	25.610000	-0.605741
	25.615000	-0.567060
	25.620000	-0.673431
	25.625000	-0.695995
	25.630000	-0.599294
	25.635000	-0.567060
	25.640000	-0.660538
	25.645000	-0.695995
	25.650000	-0.596071
	25.655000	-0.557390
	25.660000	-0.663761
	25.665000	-0.695995
	25.670000	-0.592847
	25.675000	-0.560614
	25.680000	-0.663761
	25.685000	-0.689548
	25.690000	-0.589624
	25.695000	-0.554167
	25.700000	-0.650868
	25.705000	-0.695995
	25.710000	-0.586401
	25.715000	-0.547720
	25.720000	-0.650868
	25.725000	-0.683101
	25.730000	-0.579954
	25.735000	-0.547720
	25.740000	-0.654091
	25.745000	-0.683101
	25.750000	-0.576730
	25.755000	-0.544497
	25.760000	-0.644421
	25.765000	-0.676655
	25.770000	-0.570284
	25.775000	-0.541274
	25.780000	-0.641198
	25.785000	-0.673431
	25.790000	-0.579954
	25.795000	-0.534827
	25.800000	-0.641198
	25.805000	-0.673431
	25.810000	-0.560614
	25.815000	-0.538050
	25.820000	-0.634751
	25.825000	-0.663761
	25.830000	-0.570284
	25.835000	-0.528380
	25.840000	-0.625081
	25.845000	-0.670208
	25.850000	-0.557390
	25.855000	-0.528380
	25.860000	-0.634751
	25.865000	-0.650868
	25.870000	-0.567060
	25.875000	-0.531603
	25.880000	-0.628304
	25.885000	-0.657314
	25.890000	-0.560614
	25.895000	-0.521933
	25.900000	-0.631528
	25.905000	-0.657314
	25.910000	-0.554167
	25.915000	-0.521933
	25.920000	-0.625081
	25.925000	-0.660538
	25.930000	-0.554167
	25.935000	-0.525157
	25.940000	-0.628304
	25.945000	-0.657314
	25.950000	-0.547720
	25.955000	-0.518710
	25.960000	-0.631528
	25.965000	-0.650868
	25.970000	-0.544497
	25.975000	-0.512263
	25.980000	-0.618634
	25.985000	-0.650868
	25.990000	-0.547720
	25.995000	-0.515487
	26.000000	-0.608964
	26.005000	-0.641198
	26.010000	-0.544497
	26.015000	-0.518710
	26.020000	-0.621858
	26.025000	-0.650868
	26.030000	-0.538050
	26.035000	-0.509040
	26.040000	-0.612187
	26.045000	-0.641198
	26.050000	-0.531603
	26.055000	-0.512263
	26.060000	-0.615411
	26.065000	-0.644421
	26.070000	-0.534827
	26.075000	-0.509040
	26.080000	-0.612187
	26.085000	-0.644421
	26.090000	-0.534827
	26.095000	-0.499370
	26.100000	-0.602517
	26.105000	-0.634751
	26.110000	-0.534827
	26.115000	-0.505817
	26.120000	-0.602517
	26.125000	-0.637974
	26.130000	-0.538050
	26.135000	-0.496147
	26.140000	-0.605741
	26.145000	-0.634751
	26.150000	-0.531603
	26.155000	-0.502593
	26.160000	-0.608964
	26.165000	-0.637974
	26.170000	-0.528380
	26.175000	-0.502593
	26.180000	-0.608964
	26.185000	-0.634751
	26.190000	-0.528380
	26.195000	-0.502593
	26.200000	-0.612187
	26.205000	-0.628304
	26.210000	-0.531603
	26.215000	-0.499370
	26.220000	-0.612187
	26.225000	-0.634751
	26.230000	-0.531603
	26.235000	-0.496147
	26.240000	-0.608964
	26.245000	-0.634751
	26.250000	-0.534827
	26.255000	-0.505817
	26.260000	-0.608964
	26.265000	-0.641198
	26.270000	-0.528380
	26.275000	-0.499370
	26.280000	-0.612187
	26.285000	-0.634751
	26.290000	-0.528380
	26.295000	-0.505817
	26.300000	-0.602517
	26.305000	-0.637974
	26.310000	-0.531603
	26.315000	-0.499370
	26.320000	-0.605741
	26.325000	-0.631528
	26.330000	-0.525157
	26.335000	-0.499370
	26.340000	-0.605741
	26.345000	-0.625081
	26.350000	-0.528380
	26.355000	-0.499370
	26.360000	-0.602517
	26.365000	-0.631528
	26.370000	-0.531603
	26.375000	-0.505817
	26.380000	-0.602517
	26.385000	-0.621858
	26.390000	-0.521933
	26.395000	-0.505817
	26.400000	-0.608964
	26.405000	-0.631528
	26.410000	-0.531603
	26.415000	-0.496147
	26.420000	-0.602517
	26.425000	-0.631528
	26.430000	-0.528380
	26.435000	-0.502593
	26.440000	-0.599294
	26.445000	-0.631528
	26.450000	-0.528380
	26.455000	-0.496147
	26.460000	-0.602517
	26.465000	-0.621858
	26.470000	-0.518710
	26.475000	-0.496147
	26.480000	-0.605741
	26.485000	-0.628304
	26.490000	-0.525157
	26.495000	-0.492923
	26.500000	-0.602517
	26.505000	-0.625081
	26.510000	-0.512263
	26.515000	-0.496147
	26.520000	-0.602517
	26.525000	-0.625081
	26.530000	-0.518710
	26.535000	-0.499370
	26.540000	-0.592847
	26.545000	-0.618634
	26.550000	-0.515487
	26.555000	-0.489700
	26.560000	-0.599294
	26.565000	-0.618634
	26.570000	-0.525157
	26.575000	-0.496147
	26.580000	-0.596071
	26.585000	-0.618634
	26.590000	-0.518710
	26.595000	-0.489700
	26.600000	-0.599294
	26.605000	-0.615411
	26.610000	-0.515487
	26.615000	-0.483253
	26.620000	-0.599294
	26.625000	-0.615411
	26.630000	-0.512263
	26.635000	-0.480030
	26.640000	-0.583177
	26.645000	-0.612187
	26.650000	-0.512263
	26.655000	-0.480030
	26.660000	-0.586401
	26.665000	-0.605741
	26.670000	-0.509040
	26.675000	-0.480030
	26.680000	-0.579954
	26.685000	-0.596071
	26.690000	-0.496147
	26.695000	-0.473583
	26.700000	-0.586401
	26.705000	-0.599294
	26.710000	-0.492923
	26.715000	-0.483253
	26.720000	-0.573507
	26.725000	-0.602517
	26.730000	-0.492923
	26.735000	-0.480030
	26.740000	-0.573507
	26.745000	-0.599294
	26.750000	-0.492923
	26.755000	-0.467136
	26.760000	-0.573507
	26.765000	-0.602517
	26.770000	-0.492923
	26.775000	-0.470360
	26.780000	-0.576730
	26.785000	-0.596071
	26.790000	-0.496147
	26.795000	-0.476806
	26.800000	-0.576730
	26.805000	-0.605741
	26.810000	-0.486476
	26.815000	-0.473583
	26.820000	-0.583177
	26.825000	-0.599294
	26.830000	-0.492923
	26.835000	-0.483253
	26.840000	-0.583177
	26.845000	-0.605741
	26.850000	-0.499370
	26.855000	-0.480030
	26.860000	-0.579954
	26.865000	-0.599294
	26.870000	-0.492923
	26.875000	-0.476806
	26.880000	-0.589624
	26.885000	-0.596071
	26.890000	-0.496147
	26.895000	-0.480030
	26.900000	-0.579954
	26.905000	-0.605741
	26.910000	-0.499370
	26.915000	-0.476806
	26.920000	-0.583177
	26.925000	-0.602517
	26.930000	-0.502593
	26.935000	-0.476806
	26.940000	-0.583177
	26.945000	-0.602517
	26.950000	-0.505817
	26.955000	-0.480030
	26.960000	-0.589624
	26.965000	-0.605741
	26.970000	-0.505817
	26.975000	-0.483253
	26.980000	-0.589624
	26.985000	-0.608964
	26.990000	-0.509040
	26.995000	-0.483253
	27.000000	-0.586401
	27.005000	-0.605741
	27.010000	-0.499370
	27.015000	-0.483253
	27.020000	-0.589624
	27.025000	-0.605741
	27.030000	-0.502593
	27.035000	-0.480030
	27.040000	-0.592847
	27.045000	-0.602517
	27.050000	-0.496147
	27.055000	-0.483253
	27.060000	-0.583177
	27.065000	-0.602517
	27.070000	-0.502593
	27.075000	-0.486476
	27.080000	-0.586401
	27.085000	-0.602517
	27.090000	-0.502593
	27.095000	-0.483253
	27.100000	-0.583177
	27.105000	-0.605741
	27.110000	-0.509040
	27.115000	-0.486476
	27.120000	-0.586401
	27.125000	-0.605741
	27.130000	-0.502593
	27.135000	-0.480030
	27.140000	-0.586401
	27.145000	-0.608964
	27.150000	-0.502593
	27.155000	-0.480030
	27.160000	-0.589624
	27.165000	-0.608964
	27.170000	-0.499370
	27.175000	-0.483253
	27.180000	-0.586401
	27.185000	-0.602517
	27.190000	-0.505817
	27.195000	-0.483253
	27.200000	-0.589624
	27.205000	-0.608964
	27.210000	-0.499370
	27.215000	-0.473583
	27.220000	-0.583177
	27.225000	-0.608964
	27.230000	-0.499370
	27.235000	-0.476806
	27.240000	-0.589624
	27.245000	-0.612187
	27.250000	-0.496147
	27.255000	-0.476806
	27.260000	-0.579954
	27.265000	-0.605741
	27.270000	-0.499370
	27.275000	-0.483253
	27.280000	-0.592847
	27.285000	-0.599294
	27.290000	-0.496147
	27.295000	-0.489700
	27.300000	-0.592847
	27.305000	-0.605741
	27.310000	-0.499370
	27.315000	-0.486476
	27.320000	-0.586401
	27.325000	-0.605741
	27.330000	-0.499370
	27.335000	-0.486476
	27.340000	-0.589624
	27.345000	-0.605741
	27.350000	-0.496147
	27.355000	-0.476806
	27.360000	-0.592847
	27.365000	-0.605741
	27.370000	-0.505817
	27.375000	-0.483253
	27.380000	-0.589624
	27.385000	-0.608964
	27.390000	-0.502593
	27.395000	-0.486476
	27.400000	-0.592847
	27.405000	-0.608964
	27.410000	-0.505817
	27.415000	-0.483253
	27.420000	-0.589624
	27.425000	-0.602517
	27.430000	-0.499370
	27.435000	-0.480030
	27.440000	-0.589624
	27.445000	-0.608964
	27.450000	-0.499370
	27.455000	-0.486476
	27.460000	-0.592847
	27.465000	-0.599294
	27.470000	-0.496147
	27.475000	-0.483253
	27.480000	-0.596071
	27.485000	-0.608964
	27.490000	-0.489700
	27.495000	-0.483253
	27.500000	-0.596071
	27.505000	-0.608964
	27.510000	-0.499370
	27.515000	-0.480030
	27.520000	-0.592847
	27.525000	-0.612187
	27.530000	-0.496147
	27.535000	-0.486476
	27.540000	-0.589624
	27.545000	-0.608964
	27.550000	-0.502593
	27.555000	-0.483253
	27.560000	-0.592847
	27.565000	-0.605741
	27.570000	-0.499370
	27.575000	-0.486476
	27.580000	-0.592847
	27.585000	-0.608964
	27.590000	-0.499370
	27.595000	-0.480030
	27.600000	-0.589624
	27.605000	-0.608964
	27.610000	-0.499370
	27.615000	-0.480030
	27.620000	-0.599294
	27.625000	-0.608964
	27.630000	-0.505817
	27.635000	-0.486476
	27.640000	-0.599294
	27.645000	-0.608964
	27.650000	-0.492923
	27.655000	-0.480030
	27.660000	-0.589624
	27.665000	-0.608964
	27.670000	-0.499370
	27.675000	-0.483253
	27.680000	-0.589624
	27.685000	-0.596071
	27.690000	-0.489700
	27.695000	-0.489700
	27.700000	-0.596071
	27.705000	-0.605741
	27.710000	-0.496147
	27.715000	-0.483253
	27.720000	-0.596071
	27.725000	-0.596071
	27.730000	-0.492923
	27.735000	-0.486476
	27.740000	-0.592847
	27.745000	-0.599294
	27.750000	-0.496147
	27.755000	-0.483253
	27.760000	-0.586401
	27.765000	-0.599294
	27.770000	-0.492923
	27.775000	-0.489700
	27.780000	-0.592847
	27.785000	-0.599294
	27.790000	-0.496147
	27.795000	-0.480030
	27.800000	-0.599294
	27.805000	-0.605741
	27.810000	-0.499370
	27.815000	-0.480030
	27.820000	-0.589624
	27.825000	-0.602517
	27.830000	-0.492923
	27.835000	-0.480030
	27.840000	-0.599294
	27.845000	-0.605741
	27.850000	-0.496147
	27.855000	-0.486476
	27.860000	-0.592847
	27.865000	-0.596071
	27.870000	-0.496147
	27.875000	-0.483253
	27.880000	-0.596071
	27.885000	-0.599294
	27.890000	-0.492923
	27.895000	-0.489700
	27.900000	-0.596071
	27.905000	-0.605741
	27.910000	-0.496147
	27.915000	-0.489700
	27.920000	-0.592847
	27.925000	-0.596071
	27.930000	-0.492923
	27.935000	-0.483253
	27.940000	-0.596071
	27.945000	-0.605741
	27.950000	-0.499370
	27.955000	-0.489700
	27.960000	-0.596071
	27.965000	-0.605741
	27.970000	-0.492923
	27.975000	-0.486476
	27.980000	-0.592847
	27.985000	-0.599294
	27.990000	-0.499370
	27.995000	-0.486476
	28.000000	-0.592847
	28.005000	-0.602517
	28.010000	-0.492923
	28.015000	-0.483253
	28.020000	-0.599294
	28.025000	-0.602517
	28.030000	-0.499370
	28.035000	-0.476806
	28.040000	-0.596071
	28.045000	-0.602517
	28.050000	-0.492923
	28.055000	-0.489700
	28.060000	-0.596071
	28.065000	-0.602517
	28.070000	-0.492923
	28.075000	-0.486476
	28.080000	-0.602517
	28.085000	-0.596071
	28.090000	-0.492923
	28.095000	-0.483253
	28.100000	-0.596071
	28.105000	-0.599294
	28.110000	-0.489700
	28.115000	-0.489700
	28.120000	-0.596071
	28.125000	-0.592847
	28.130000	-0.496147
	28.135000	-0.492923
	28.140000	-0.599294
	28.145000	-0.596071
	28.150000	-0.492923
	28.155000	-0.483253
	28.160000	-0.596071
	28.165000	-0.602517
	28.170000	-0.489700
	28.175000	-0.483253
	28.180000	-0.596071
	28.185000	-0.596071
	28.190000	-0.499370
	28.195000	-0.483253
	28.200000	-0.592847
	28.205000	-0.596071
	28.210000	-0.489700
	28.215000	-0.486476
	28.220000	-0.599294
	28.225000	-0.602517
	28.230000	-0.483253
	28.235000	-0.483253
	28.240000	-0.589624
	28.245000	-0.592847
	28.250000	-0.483253
	28.255000	-0.489700
	28.260000	-0.589624
	28.265000	-0.599294
	28.270000	-0.489700
	28.275000	-0.486476
	28.280000	-0.592847
	28.285000	-0.599294
	28.290000	-0.496147
	28.295000	-0.489700
	28.300000	-0.592847
	28.305000	-0.592847
	28.310000	-0.486476
	28.315000	-0.486476
	28.320000	-0.599294
	28.325000	-0.596071
	28.330000	-0.489700
	28.335000	-0.489700
	28.340000	-0.596071
	28.345000	-0.596071
	28.350000	-0.483253
	28.355000	-0.489700
	28.360000	-0.599294
	28.365000	-0.596071
	28.370000	-0.496147
	28.375000	-0.489700
	28.380000	-0.589624
	28.385000	-0.599294
	28.390000	-0.483253
	28.395000	-0.489700
	28.400000	-0.599294
	28.405000	-0.599294
	28.410000	-0.476806
	28.415000	-0.489700
	28.420000	-0.592847
	28.425000	-0.596071
	28.430000	-0.489700
	28.435000	-0.480030
	28.440000	-0.596071
	28.445000	-0.602517
	28.450000	-0.492923
	28.455000	-0.489700
	28.460000	-0.596071
	28.465000	-0.592847
	28.470000	-0.492923
	28.475000	-0.483253
	28.480000	-0.596071
	28.485000	-0.592847
	28.490000	-0.492923
	28.495000	-0.483253
	28.500000	-0.592847
	28.505000	-0.599294
	28.510000	-0.492923
	28.515000	-0.486476
	28.520000	-0.599294
	28.525000	-0.592847
	28.530000	-0.486476
	28.535000	-0.486476
	28.540000	-0.599294
	28.545000	-0.602517
	28.550000	-0.492923
	28.555000	-0.486476
	28.560000	-0.599294
	28.565000	-0.599294
	28.570000	-0.492923
	28.575000	-0.489700
	28.580000	-0.599294
	28.585000	-0.592847
	28.590000	-0.496147
	28.595000	-0.489700
	28.600000	-0.589624
	28.605000	-0.599294
	28.610000	-0.489700
	28.615000	-0.489700
	28.620000	-0.602517
	28.625000	-0.599294
	28.630000	-0.489700
	28.635000	-0.489700
	28.640000	-0.605741
	28.645000	-0.596071
	28.650000	-0.492923
	28.655000	-0.492923
	28.660000	-0.602517
	28.665000	-0.602517
	28.670000	-0.492923
	28.675000	-0.492923
	28.680000	-0.599294
	28.685000	-0.602517
	28.690000	-0.492923
	28.695000	-0.486476
	28.700000	-0.608964
	28.705000	-0.602517
	28.710000	-0.489700
	28.715000	-0.489700
	28.720000	-0.602517
	28.725000	-0.599294
	28.730000	-0.489700
	28.735000	-0.496147
	28.740000	-0.605741
	28.745000	-0.602517
	28.750000	-0.489700
	28.755000	-0.492923
	28.760000	-0.602517
	28.765000	-0.592847
	28.770000	-0.492923
	28.775000	-0.496147
	28.780000	-0.602517
	28.785000	-0.602517
	28.790000	-0.489700
	28.795000	-0.492923
	28.800000	-0.596071
	28.805000	-0.599294
	28.810000	-0.489700
	28.815000	-0.492923
	28.820000	-0.602517
	28.825000	-0.592847
	28.830000	-0.489700
	28.835000	-0.499370
	28.840000	-0.612187
	28.845000	-0.602517
	28.850000	-0.489700
	28.855000	-0.496147
	28.860000	-0.602517
	28.865000	-0.602517
	28.870000	-0.492923
	28.875000	-0.489700
	28.880000	-0.605741
	28.885000	-0.608964
	28.890000	-0.489700
	28.895000	-0.499370
	28.900000	-0.602517
	28.905000	-0.602517
	28.910000	-0.496147
	28.915000	-0.496147
	28.920000	-0.602517
	28.925000	-0.605741
	28.930000	-0.496147
	28.935000	-0.496147
	28.940000	-0.615411
	28.945000	-0.599294
	28.950000	-0.492923
	28.955000	-0.489700
	28.960000	-0.602517
	28.965000	-0.599294
	28.970000	-0.492923
	28.975000	-0.505817
	28.980000	-0.605741
	28.985000	-0.599294
	28.990000	-0.489700
	28.995000	-0.499370
	29.000000	-0.605741
	29.005000	-0.599294
	29.010000	-0.499370
	29.015000	-0.499370
	29.020000	-0.605741
	29.025000	-0.599294
	29.030000	-0.489700
	29.035000	-0.499370
	29.040000	-0.605741
	29.045000	-0.605741
	29.050000	-0.492923
	29.055000	-0.499370
	29.060000	-0.605741
	29.065000	-0.592847
	29.070000	-0.496147
	29.075000	-0.499370
	29.080000	-0.602517
	29.085000	-0.605741
	29.090000	-0.492923
	29.095000	-0.505817
	29.100000	-0.602517
	29.105000	-0.596071
	29.110000	-0.489700
	29.115000	-0.492923
	29.120000	-0.605741
	29.125000	-0.599294
	29.130000	-0.489700
	29.135000	-0.499370
	29.140000	-0.608964
	29.145000	-0.592847
	29.150000	-0.483253
	29.155000	-0.492923
	29.160000	-0.599294
	29.165000	-0.596071
	29.170000	-0.480030
	29.175000	-0.489700
	29.180000	-0.592847
	29.185000	-0.586401
	29.190000	-0.476806
	29.195000	-0.483253
	29.200000	-0.596071
	29.205000	-0.579954
	29.210000	-0.483253
	29.215000	-0.476806
	29.220000	-0.592847
	29.225000	-0.573507
	29.230000	-0.473583
	29.235000	-0.483253
	29.240000	-0.592847
	29.245000	-0.583177
	29.250000	-0.470360
	29.255000	-0.483253
	29.260000	-0.592847
	29.265000	-0.583177
	29.270000	-0.470360
	29.275000	-0.476806
	29.280000	-0.586401
	29.285000	-0.579954
	29.290000	-0.470360
	29.295000	-0.476806
	29.300000	-0.586401
	29.305000	-0.579954
	29.310000	-0.470360
	29.315000	-0.476806
	29.320000	-0.583177
	29.325000	-0.573507
	29.330000	-0.467136
	29.335000	-0.467136
	29.340000	-0.579954
	29.345000	-0.567060
	29.350000	-0.463913
	29.355000	-0.476806
	29.360000	-0.589624
	29.365000	-0.583177
	29.370000	-0.460690
	29.375000	-0.476806
	29.380000	-0.586401
	29.385000	-0.570284
	29.390000	-0.470360
	29.395000	-0.473583
	29.400000	-0.583177
	29.405000	-0.573507
	29.410000	-0.463913
	29.415000	-0.473583
	29.420000	-0.576730
	29.425000	-0.573507
	29.430000	-0.470360
	29.435000	-0.480030
	29.440000	-0.586401
	29.445000	-0.576730
	29.450000	-0.463913
	29.455000	-0.486476
	29.460000	-0.586401
	29.465000	-0.570284
	29.470000	-0.460690
	29.475000	-0.483253
	29.480000	-0.589624
	29.485000	-0.576730
	29.490000	-0.473583
	29.495000	-0.480030
	29.500000	-0.583177
	29.505000	-0.576730
	29.510000	-0.476806
	29.515000	-0.489700
	29.520000	-0.592847
	29.525000	-0.579954
	29.530000	-0.473583
	29.535000	-0.492923
	29.540000	-0.599294
	29.545000	-0.586401
	29.550000	-0.463913
	29.555000	-0.492923
	29.560000	-0.602517
	29.565000	-0.579954
	29.570000	-0.480030
	29.575000	-0.483253
	29.580000	-0.592847
	29.585000	-0.579954
	29.590000	-0.476806
	29.595000	-0.492923
	29.600000	-0.596071
	29.605000	-0.583177
	29.610000	-0.480030
	29.615000	-0.492923
	29.620000	-0.596071
	29.625000	-0.586401
	29.630000	-0.480030
	29.635000	-0.492923
	29.640000	-0.599294
	29.645000	-0.583177
	29.650000	-0.473583
	29.655000	-0.489700
	29.660000	-0.596071
	29.665000	-0.579954
	29.670000	-0.483253
	29.675000	-0.492923
	29.680000	-0.599294
	29.685000	-0.579954
	29.690000	-0.476806
	29.695000	-0.483253
	29.700000	-0.586401
	29.705000	-0.576730
	29.710000	-0.473583
	29.715000	-0.483253
	29.720000	-0.586401
	29.725000	-0.567060
	29.730000	-0.463913
	29.735000	-0.470360
	29.740000	-0.579954
	29.745000	-0.557390
	29.750000	-0.447796
	29.755000	-0.467136
	29.760000	-0.557390
	29.765000	-0.531603
	29.770000	-0.431679
	29.775000	-0.438126
	29.780000	-0.531603
	29.785000	-0.505817
	29.790000	-0.399446
	29.795000	-0.405892
	29.800000	-0.509040
	29.805000	-0.480030
	29.810000	-0.380106
	29.815000	-0.380106
	29.820000	-0.476806
	29.825000	-0.467136
	29.830000	-0.351095
	29.835000	-0.360765
	29.840000	-0.457466
	29.845000	-0.425233
	29.850000	-0.318862
	29.855000	-0.322085
	29.860000	-0.412339
	29.865000	-0.370436
	29.870000	-0.267288
	29.875000	-0.267288
	29.880000	-0.370436
	29.885000	-0.344649
	29.890000	-0.241501
	29.895000	-0.244725
	29.900000	-0.341425
	29.905000	-0.305968
	29.910000	-0.209268
	29.915000	-0.202821
	29.920000	-0.283405
	29.925000	-0.247948
	29.930000	-0.128684
	29.935000	-0.119014
	29.940000	-0.212491
	29.945000	-0.164141
	29.950000	-0.044876
	29.955000	-0.048100
	29.960000	-0.135130
	29.965000	-0.112567
	29.970000	-0.002973
	29.975000	-0.009419
	29.980000	-0.102897
	29.985000	-0.060993
	29.990000	0.051825
	29.995000	0.055048
	30.000000	-0.025536
	30.005000	0.009921
	30.010000	0.125962
	30.015000	0.132408
	30.020000	0.051825
	30.025000	0.087281
	30.030000	0.196876
	30.035000	0.187206
	30.040000	0.103398
	30.045000	0.135632
	30.050000	0.238779
	30.055000	0.222663
	30.060000	0.142079
	30.065000	0.164642
	30.070000	0.261343
	30.075000	0.254896
	30.080000	0.154972
	30.085000	0.174312
	30.090000	0.271013
	30.095000	0.254896
	30.100000	0.161419
	30.105000	0.180759
	30.110000	0.271013
	30.115000	0.254896
	30.120000	0.151749
	30.125000	0.167865
	30.130000	0.264566
	30.135000	0.245226
	30.140000	0.142079
	30.145000	0.151749
	30.150000	0.238779
	30.155000	0.229109
	30.160000	0.129185
	30.165000	0.148525
	30.170000	0.232333
	30.175000	0.209769
	30.180000	0.113068
	30.185000	0.135632
	30.190000	0.225886
	30.195000	0.206546
	30.200000	0.109845
	30.205000	0.122738
	30.210000	0.216216
	30.215000	0.190429
	30.220000	0.096952
	30.225000	0.116292
	30.230000	0.206546
	30.235000	0.180759
	30.240000	0.077611
	30.245000	0.100175
	30.250000	0.183982
	30.255000	0.167865
	30.260000	0.071165
	30.265000	0.087281
	30.270000	0.177536
	30.275000	0.151749
	30.280000	0.071165
	30.285000	0.080835
	30.290000	0.174312
	30.295000	0.154972
	30.300000	0.061495
	30.305000	0.074388
	30.310000	0.174312
	30.315000	0.151749
	30.320000	0.051825
	30.325000	0.064718
	30.330000	0.161419
	30.335000	0.145302
	30.340000	0.051825
	30.345000	0.067941
	30.350000	0.154972
	30.355000	0.129185
	30.360000	0.038931
	30.365000	0.058271
	30.370000	0.151749
	30.375000	0.135632
	30.380000	0.032484
	30.385000	0.055048
	30.390000	0.138855
	30.395000	0.119515
	30.400000	0.035708
	30.405000	0.055048
	30.410000	0.138855
	30.415000	0.116292
	30.420000	0.032484
	30.425000	0.045378
	30.430000	0.142079
	30.435000	0.119515
	30.440000	0.026038
	30.445000	0.048601
	30.450000	0.142079
	30.455000	0.122738
	30.460000	0.032484
	30.465000	0.051825
	30.470000	0.135632
	30.475000	0.116292
	30.480000	0.029261
	30.485000	0.048601
	30.490000	0.142079
	30.495000	0.119515
	30.500000	0.026038
	30.505000	0.055048
	30.510000	0.145302
	30.515000	0.119515
	30.520000	0.026038
	30.525000	0.051825
	30.530000	0.142079
	30.535000	0.113068
	30.540000	0.022814
	30.545000	0.045378
	30.550000	0.132408
	30.555000	0.109845
	30.560000	0.016368
	30.565000	0.032484
	30.570000	0.122738
	30.575000	0.100175
	30.580000	0.006697
	30.585000	0.026038
	30.590000	0.109845
	30.595000	0.093728
	30.600000	-0.002973
	30.605000	0.009921
	30.610000	0.100175
	30.615000	0.071165
	30.620000	-0.012643
	30.625000	0.006697
	30.630000	0.087281
	30.635000	0.058271
	30.640000	-0.035206
	30.645000	-0.012643
	30.650000	0.067941
	30.655000	0.038931
	30.660000	-0.051323
	30.665000	-0.028759
	30.670000	0.045378
	30.675000	0.016368
	30.680000	-0.070663
	30.685000	-0.054546
	30.690000	0.029261
	30.695000	-0.002973
	30.700000	-0.093227
	30.705000	-0.073886
	30.710000	-0.009419
	30.715000	-0.031983
	30.720000	-0.135130
	30.725000	-0.122237
	30.730000	-0.044876
	30.735000	-0.070663
	30.740000	-0.173811
	30.745000	-0.167364
	30.750000	-0.093227
	30.755000	-0.131907
	30.760000	-0.235054
	30.765000	-0.231831
	30.770000	-0.160917
	30.775000	-0.206044
	30.780000	-0.312415
	30.785000	-0.315638
	30.790000	-0.257618
	30.795000	-0.302745
	30.800000	-0.418786
	30.805000	-0.415563
	30.810000	-0.357542
	30.815000	-0.412339
	30.820000	-0.525157
	30.825000	-0.521933
	30.830000	-0.463913
	30.835000	-0.512263
	30.840000	-0.621858
	30.845000	-0.621858
	30.850000	-0.550944
	30.855000	-0.589624
	30.860000	-0.695995
	30.865000	-0.686325
	30.870000	-0.602517
	30.875000	-0.641198
	30.880000	-0.747569
	30.885000	-0.721782
	30.890000	-0.641198
	30.895000	-0.676655
	30.900000	-0.770132
	30.905000	-0.741122
	30.910000	-0.663761
	30.915000	-0.692771
	30.920000	-0.786249
	30.925000	-0.763685
	30.930000	-0.663761
	30.935000	-0.692771
	30.940000	-0.786249
	30.945000	-0.766909
	30.950000	-0.679878
	30.955000	-0.712112
	30.960000	-0.805589
	30.965000	-0.783025
	30.970000	-0.699218
	30.975000	-0.725005
	30.980000	-0.821706
	30.985000	-0.802366
	30.990000	-0.718558
	30.995000	-0.744345
	31.000000	-0.841046
	31.005000	-0.818482
	31.010000	-0.734675
	31.015000	-0.760462
	31.020000	-0.860386
	31.025000	-0.841046
	31.030000	-0.750792
	31.035000	-0.789472
	31.040000	-0.886173
	31.045000	-0.863609
	31.050000	-0.770132
	31.055000	-0.805589
	31.060000	-0.905513
	31.065000	-0.876503
	31.070000	-0.789472
	31.075000	-0.828152
	31.080000	-0.921630
	31.085000	-0.892620
	31.090000	-0.799142
	31.095000	-0.831376
	31.100000	-0.931300
	31.105000	-0.886173
	31.110000	-0.802366
	31.115000	-0.821706
	31.120000	-0.921630
	31.125000	-0.886173
	31.130000	-0.795919
	31.135000	-0.821706
	31.140000	-0.921630
	31.145000	-0.886173
	31.150000	-0.783025
	31.155000	-0.815259
	31.160000	-0.915183
	31.165000	-0.882950
	31.170000	-0.786249
	31.175000	-0.812036
	31.180000	-0.908736
	31.185000	-0.879726
	31.190000	-0.779802
	31.195000	-0.805589
	31.200000	-0.905513
	31.205000	-0.863609
	31.210000	-0.773355
	31.215000	-0.795919
	31.220000	-0.905513
	31.225000	-0.860386
	31.230000	-0.757239
	31.235000	-0.789472
	31.240000	-0.882950
	31.245000	-0.850716
	31.250000	-0.750792
	31.255000	-0.776579
	31.260000	-0.879726
	31.265000	-0.847493
	31.270000	-0.747569
	31.275000	-0.773355
	31.280000	-0.879726
	31.285000	-0.831376
	31.290000	-0.734675
	31.295000	-0.773355
	31.300000	-0.870056
	31.305000	-0.831376
	31.310000	-0.737898
	31.315000	-0.770132
	31.320000	-0.853939
	31.325000	-0.821706
	31.330000	-0.731452
	31.335000	-0.757239
	31.340000	-0.860386
	31.345000	-0.824929
	31.350000	-0.728228
	31.355000	-0.757239
	31.360000	-0.850716
	31.365000	-0.812036
	31.370000	-0.718558
	31.375000	-0.750792
	31.380000	-0.841046
	31.385000	-0.805589
	31.390000	-0.708888
	31.395000	-0.747569
	31.400000	-0.837823
	31.405000	-0.802366
	31.410000	-0.705665
	31.415000	-0.737898
	31.420000	-0.828152
	31.425000	-0.792696
	31.430000	-0.692771
	31.435000	-0.734675
	31.440000	-0.837823
	31.445000	-0.795919
	31.450000	-0.695995
	31.455000	-0.737898
	31.460000	-0.837823
	31.465000	-0.799142
	31.470000	-0.708888
	31.475000	-0.741122
	31.480000	-0.844269
	31.485000	-0.805589
	31.490000	-0.702441
	31.495000	-0.744345
	31.500000	-0.841046
	31.505000	-0.799142
	31.510000	-0.705665
	31.515000	-0.734675
	31.520000	-0.834599
	31.525000	-0.799142
	31.530000	-0.699218
	31.535000	-0.734675
	31.540000	-0.831376
	31.545000	-0.792696
	31.550000	-0.695995
	31.555000	-0.721782
	31.560000	-0.818482
	31.565000	-0.783025
	31.570000	-0.689548
	31.575000	-0.725005
	31.580000	-0.812036
	31.585000	-0.779802
	31.590000	-0.683101
	31.595000	-0.725005
	31.600000	-0.818482
	31.605000	-0.776579
	31.610000	-0.676655
	31.615000	-0.718558
	31.620000	-0.815259
	31.625000	-0.773355
	31.630000	-0.676655
	31.635000	-0.705665
	31.640000	-0.808812
	31.645000	-0.763685
	31.650000	-0.670208
	31.655000	-0.708888
	31.660000	-0.802366
	31.665000	-0.763685
	31.670000	-0.666985
	31.675000	-0.705665
	31.680000	-0.799142
	31.685000	-0.760462
	31.690000	-0.660538
	31.695000	-0.699218
	31.700000	-0.799142
	31.705000	-0.747569
	31.710000	-0.663761
	31.715000	-0.695995
	31.720000	-0.792696
	31.725000	-0.750792
	31.730000	-0.654091
	31.735000	-0.689548
	31.740000	-0.789472
	31.745000	-0.750792
	31.750000	-0.654091
	31.755000	-0.692771
	31.760000	-0.786249
	31.765000	-0.734675
	31.770000	-0.644421
	31.775000	-0.679878
	31.780000	-0.786249
	31.785000	-0.741122
	31.790000	-0.644421
	31.795000	-0.683101
	31.800000	-0.783025
	31.805000	-0.741122
	31.810000	-0.644421
	31.815000	-0.679878
	31.820000	-0.783025
	31.825000	-0.734675
	31.830000	-0.634751
	31.835000	-0.673431
	31.840000	-0.773355
	31.845000	-0.728228
	31.850000	-0.631528
	31.855000	-0.673431
	31.860000	-0.770132
	31.865000	-0.728228
	31.870000	-0.631528
	31.875000	-0.676655
	31.880000	-0.770132
	31.885000	-0.731452
	31.890000	-0.628304
	31.895000	-0.666985
	31.900000	-0.760462
	31.905000	-0.721782
	31.910000	-0.628304
	31.915000	-0.663761
	31.920000	-0.760462
	31.925000	-0.712112
	31.930000	-0.618634
	31.935000	-0.663761
	31.940000	-0.757239
	31.945000	-0.708888
	31.950000	-0.612187
	31.955000	-0.660538
	31.960000	-0.750792
	31.965000	-0.712112
	31.970000	-0.612187
	31.975000	-0.647644
	31.980000	-0.750792
	31.985000	-0.705665
	31.990000	-0.608964
	31.995000	-0.647644
	32.000000	-0.750792
	32.005000	-0.705665
	32.010000	-0.602517
	32.015000	-0.650868
	32.020000	-0.750792
	32.025000	-0.699218
	32.030000	-0.599294
	32.035000	-0.644421
	32.040000	-0.750792
	32.045000	-0.699218
	32.050000	-0.605741
	32.055000	-0.641198
	32.060000	-0.741122
	32.065000	-0.699218
	32.070000	-0.605741
	32.075000	-0.644421
	32.080000	-0.741122
	32.085000	-0.689548
	32.090000	-0.599294
	32.095000	-0.637974
	32.100000	-0.737898
	32.105000	-0.695995
	32.110000	-0.599294
	32.115000	-0.634751
	32.120000	-0.731452
	32.125000	-0.692771
	32.130000	-0.599294
	32.135000	-0.634751
	32.140000	-0.734675
	32.145000	-0.692771
	32.150000	-0.589624
	32.155000	-0.634751
	32.160000	-0.731452
	32.165000	-0.692771
	32.170000	-0.589624
	32.175000	-0.631528
	32.180000	-0.728228
	32.185000	-0.689548
	32.190000	-0.586401
	32.195000	-0.628304
	32.200000	-0.731452
	32.205000	-0.683101
	32.210000	-0.596071
	32.215000	-0.634751
	32.220000	-0.731452
	32.225000	-0.683101
	32.230000	-0.579954
	32.235000	-0.631528
	32.240000	-0.731452
	32.245000	-0.686325
	32.250000	-0.583177
	32.255000	-0.631528
	32.260000	-0.731452
	32.265000	-0.676655
	32.270000	-0.579954
	32.275000	-0.625081
	32.280000	-0.721782
	32.285000	-0.670208
	32.290000	-0.579954
	32.295000	-0.628304
	32.300000	-0.728228
	32.305000	-0.670208
	32.310000	-0.579954
	32.315000	-0.625081
	32.320000	-0.725005
	32.325000	-0.670208
	32.330000	-0.579954
	32.335000	-0.625081
	32.340000	-0.718558
	32.345000	-0.670208
	32.350000	-0.579954
	32.355000	-0.628304
	32.360000	-0.718558
	32.365000	-0.673431
	32.370000	-0.576730
	32.375000	-0.625081
	32.380000	-0.715335
	32.385000	-0.670208
	32.390000	-0.579954
	32.395000	-0.621858
	32.400000	-0.718558
	32.405000	-0.663761
	32.410000	-0.570284
	32.415000	-0.618634
	32.420000	-0.718558
	32.425000	-0.666985
	32.430000	-0.573507
	32.435000	-0.618634
	32.440000	-0.721782
	32.445000	-0.670208
	32.450000	-0.567060
	32.455000	-0.625081
	32.460000	-0.715335
	32.465000	-0.660538
	32.470000	-0.570284
	32.475000	-0.621858
	32.480000	-0.708888
	32.485000	-0.670208
	32.490000	-0.567060
	32.495000	-0.625081
	32.500000	-0.712112
	32.505000	-0.663761
	32.510000	-0.563837
	32.515000	-0.618634
	32.520000	-0.708888
	32.525000	-0.654091
	32.530000	-0.570284
	32.535000	-0.618634
	32.540000	-0.702441
	32.545000	-0.660538
	32.550000	-0.560614
	32.555000	-0.615411
	32.560000	-0.702441
	32.565000	-0.660538
	32.570000	-0.567060
	32.575000	-0.612187
	32.580000	-0.695995
	32.585000	-0.654091
	32.590000	-0.563837
	32.595000	-0.602517
	32.600000	-0.705665
	32.605000	-0.657314
	32.610000	-0.563837
	32.615000	-0.599294
	32.620000	-0.702441
	32.625000	-0.647644
	32.630000	-0.563837
	32.635000	-0.602517
	32.640000	-0.699218
	32.645000	-0.647644
	32.650000	-0.557390
	32.655000	-0.612187
	32.660000	-0.705665
	32.665000	-0.641198
	32.670000	-0.557390
	32.675000	-0.608964
	32.680000	-0.695995
	32.685000	-0.644421
	32.690000	-0.554167
	32.695000	-0.602517
	32.700000	-0.692771
	32.705000	-0.637974
	32.710000	-0.550944
	32.715000	-0.599294
	32.720000	-0.695995
	32.725000	-0.634751
	32.730000	-0.547720
	32.735000	-0.596071
	32.740000	-0.695995
	32.745000	-0.644421
	32.750000	-0.547720
	32.755000	-0.599294
	32.760000	-0.695995
	32.765000	-0.634751
	32.770000	-0.547720
	32.775000	-0.599294
	32.780000	-0.692771
	32.785000	-0.637974
	32.790000	-0.541274
	32.795000	-0.599294
	32.800000	-0.689548
	32.805000	-0.644421
	32.810000	-0.550944
	32.815000	-0.596071
	32.820000	-0.695995
	32.825000	-0.644421
	32.830000	-0.544497
	32.835000	-0.599294
	32.840000	-0.689548
	32.845000	-0.644421
	32.850000	-0.544497
	32.855000	-0.592847
	32.860000	-0.692771
	32.865000	-0.631528
	32.870000	-0.544497
	32.875000	-0.602517
	32.880000	-0.692771
	32.885000	-0.634751
	32.890000	-0.547720
	32.895000	-0.599294
	32.900000	-0.692771
	32.905000	-0.641198
	32.910000	-0.547720
	32.915000	-0.599294
	32.920000	-0.689548
	32.925000	-0.637974
	32.930000	-0.541274
	32.935000	-0.596071
	32.940000	-0.692771
	32.945000	-0.631528
	32.950000	-0.547720
	32.955000	-0.599294
	32.960000	-0.686325
	32.965000	-0.634751
	32.970000	-0.541274
	32.975000	-0.596071
	32.980000	-0.689548
	32.985000	-0.634751
	32.990000	-0.550944
	32.995000	-0.596071
	33.000000	-0.686325
	33.005000	-0.641198
	33.010000	-0.544497
	33.015000	-0.599294
	33.020000	-0.689548
	33.025000	-0.641198
	33.030000	-0.544497
	33.035000	-0.596071
	33.040000	-0.689548
	33.045000	-0.637974
	33.050000	-0.547720
	33.055000	-0.602517
	33.060000	-0.695995
	33.065000	-0.634751
	33.070000	-0.538050
	33.075000	-0.599294
	33.080000	-0.686325
	33.085000	-0.631528
	33.090000	-0.541274
	33.095000	-0.596071
	33.100000	-0.692771
	33.105000	-0.631528
	33.110000	-0.534827
	33.115000	-0.599294
	33.120000	-0.695995
	33.125000	-0.628304
	33.130000	-0.538050
	33.135000	-0.596071
	33.140000	-0.683101
	33.145000	-0.628304
	33.150000	-0.534827
	33.155000	-0.596071
	33.160000	-0.686325
	33.165000	-0.628304
	33.170000	-0.534827
	33.175000	-0.596071
	33.180000	-0.686325
	33.185000	-0.625081
	33.190000	-0.544497
	33.195000	-0.592847
	33.200000	-0.683101
	33.205000	-0.631528
	33.210000	-0.538050
	33.215000	-0.586401
	33.220000	-0.686325
	33.225000	-0.625081
	33.230000	-0.538050
	33.235000	-0.592847
	33.240000	-0.689548
	33.245000	-0.631528
	33.250000	-0.534827
	33.255000	-0.583177
	33.260000	-0.689548
	33.265000	-0.628304
	33.270000	-0.538050
	33.275000	-0.592847
	33.280000	-0.692771
	33.285000	-0.631528
	33.290000	-0.531603
	33.295000	-0.596071
	33.300000	-0.676655
	33.305000	-0.625081
	33.310000	-0.538050
	33.315000	-0.592847
	33.320000	-0.683101
	33.325000	-0.625081
	33.330000	-0.534827
	33.335000	-0.586401
	33.340000	-0.683101
	33.345000	-0.621858
	33.350000	-0.531603
	33.355000	-0.589624
	33.360000	-0.689548
	33.365000	-0.621858
	33.370000	-0.534827
	33.375000	-0.592847
	33.380000	-0.679878
	33.385000	-0.625081
	33.390000	-0.528380
	33.395000	-0.586401
	33.400000	-0.679878
	33.405000	-0.621858
	33.410000	-0.531603
	33.415000	-0.583177
	33.420000	-0.683101
	33.425000	-0.612187
	33.430000	-0.531603
	33.435000	-0.586401
	33.440000	-0.676655
	33.445000	-0.615411
	33.450000	-0.531603
	33.455000	-0.592847
	33.460000	-0.686325
	33.465000	-0.621858
	33.470000	-0.528380
	33.475000	-0.596071
	33.480000	-0.686325
	33.485000	-0.618634
	33.490000	-0.531603
	33.495000	-0.589624
	33.500000	-0.676655
	33.505000	-0.615411
	33.510000	-0.518710
	33.515000	-0.573507
	33.520000	-0.660538
	33.525000	-0.583177
	33.530000	-0.499370
	33.535000	-0.554167
	33.540000	-0.644421
	33.545000	-0.576730
	33.550000	-0.486476
	33.555000	-0.547720
	33.560000	-0.631528
	33.565000	-0.567060
	33.570000	-0.480030
	33.575000	-0.541274
	33.580000	-0.631528
	33.585000	-0.560614
	33.590000	-0.480030
	33.595000	-0.534827
	33.600000	-0.625081
	33.605000	-0.563837
	33.610000	-0.476806
	33.615000	-0.541274
	33.620000	-0.618634
	33.625000	-0.560614
	33.630000	-0.473583
	33.635000	-0.528380
	33.640000	-0.625081
	33.645000	-0.563837
	33.650000	-0.470360
	33.655000	-0.538050
	33.660000	-0.621858
	33.665000	-0.560614
	33.670000	-0.473583
	33.675000	-0.531603
	33.680000	-0.621858
	33.685000	-0.554167
	33.690000	-0.473583
	33.695000	-0.528380
	33.700000	-0.612187
	33.705000	-0.554167
	33.710000	-0.463913
	33.715000	-0.525157
	33.720000	-0.615411
	33.725000	-0.554167
	33.730000	-0.467136
	33.735000	-0.525157
	33.740000	-0.618634
	33.745000	-0.544497
	33.750000	-0.463913
	33.755000	-0.525157
	33.760000	-0.608964
	33.765000	-0.547720
	33.770000	-0.463913
	33.775000	-0.521933
	33.780000	-0.612187
	33.785000	-0.547720
	33.790000	-0.457466
	33.795000	-0.521933
	33.800000	-0.599294
	33.805000	-0.544497
	33.810000	-0.457466
	33.815000	-0.525157
	33.820000	-0.615411
	33.825000	-0.541274
	33.830000	-0.447796
	33.835000	-0.518710
	33.840000	-0.612187
	33.845000	-0.538050
	33.850000	-0.457466
	33.855000	-0.525157
	33.860000	-0.608964
	33.865000	-0.541274
	33.870000	-0.447796
	33.875000	-0.518710
	33.880000	-0.608964
	33.885000	-0.544497
	33.890000	-0.457466
	33.895000	-0.515487
	33.900000	-0.605741
	33.905000	-0.541274
	33.910000	-0.451019
	33.915000	-0.525157
	33.920000	-0.605741
	33.925000	-0.534827
	33.930000	-0.454243
	33.935000	-0.515487
	33.940000	-0.608964
	33.945000	-0.541274
	33.950000	-0.454243
	33.955000	-0.515487
	33.960000	-0.599294
	33.965000	-0.534827
	33.970000	-0.447796
	33.975000	-0.515487
	33.980000	-0.608964
	33.985000	-0.541274
	33.990000	-0.451019
	33.995000	-0.518710
	34.000000	-0.605741
	34.005000	-0.538050
	34.010000	-0.447796
	34.015000	-0.509040
	34.020000	-0.599294
	34.025000	-0.528380
	34.030000	-0.441349
	34.035000	-0.509040
	34.040000	-0.605741
	34.045000	-0.531603
	34.050000	-0.451019
	34.055000	-0.518710
	34.060000	-0.596071
	34.065000	-0.528380
	34.070000	-0.451019
	34.075000	-0.518710
	34.080000	-0.602517
	34.085000	-0.531603
	34.090000	-0.447796
	34.095000	-0.505817
	34.100000	-0.596071
	34.105000	-0.531603
	34.110000	-0.447796
	34.115000	-0.512263
	34.120000	-0.599294
	34.125000	-0.528380
	34.130000	-0.447796
	34.135000	-0.512263
	34.140000	-0.602517
	34.145000	-0.525157
	34.150000	-0.441349
	34.155000	-0.515487
	34.160000	-0.599294
	34.165000	-0.528380
	34.170000	-0.451019
	34.175000	-0.509040
	34.180000	-0.592847
	34.185000	-0.521933
	34.190000	-0.444573
	34.195000	-0.502593
	34.200000	-0.592847
	34.205000	-0.518710
	34.210000	-0.438126
	34.215000	-0.499370
	34.220000	-0.586401
	34.225000	-0.509040
	34.230000	-0.441349
	34.235000	-0.492923
	34.240000	-0.573507
	34.245000	-0.505817
	34.250000	-0.425233
	34.255000	-0.483253
	34.260000	-0.557390
	34.265000	-0.492923
	34.270000	-0.405892
	34.275000	-0.463913
	34.280000	-0.554167
	34.285000	-0.473583
	34.290000	-0.392999
	34.295000	-0.447796
	34.300000	-0.528380
	34.305000	-0.460690
	34.310000	-0.373659
	34.315000	-0.431679
	34.320000	-0.515487
	34.325000	-0.447796
	34.330000	-0.357542
	34.335000	-0.415563
	34.340000	-0.486476
	34.345000	-0.415563
	34.350000	-0.315638
	34.355000	-0.373659
	34.360000	-0.441349
	34.365000	-0.357542
	34.370000	-0.264065
	34.375000	-0.312415
	34.380000	-0.380106
	34.385000	-0.296298
	34.390000	-0.206044
	34.395000	-0.257618
	34.400000	-0.325308
	34.405000	-0.251171
	34.410000	-0.154470
	34.415000	-0.202821
	34.420000	-0.264065
	34.425000	-0.183481
	34.430000	-0.080333
	34.435000	-0.135130
	34.440000	-0.196374
	34.445000	-0.102897
	34.450000	-0.012643
	34.455000	-0.060993
	34.460000	-0.122237
	34.465000	-0.044876
	34.470000	0.045378
	34.475000	-0.009419
	34.480000	-0.077110
	34.485000	0.000251
	34.490000	0.090505
	34.495000	0.035708
	34.500000	-0.022313
	34.505000	0.058271
	34.510000	0.142079
	34.515000	0.096952
	34.520000	0.032484
	34.525000	0.116292
	34.530000	0.200099
	34.535000	0.145302
	34.540000	0.080835
	34.545000	0.154972
	34.550000	0.242003
	34.555000	0.180759
	34.560000	0.109845
	34.565000	0.167865
	34.570000	0.245226
	34.575000	0.177536
	34.580000	0.113068
	34.585000	0.180759
	34.590000	0.245226
	34.595000	0.177536
	34.600000	0.100175
	34.605000	0.171089
	34.610000	0.232333
	34.615000	0.174312
	34.620000	0.090505
	34.625000	0.151749
	34.630000	0.222663
	34.635000	0.154972
	34.640000	0.071165
	34.645000	0.132408
	34.650000	0.203322
	34.655000	0.132408
	34.660000	0.061495
	34.665000	0.119515
	34.670000	0.187206
	34.675000	0.113068
	34.680000	0.045378
	34.685000	0.100175
	34.690000	0.177536
	34.695000	0.103398
	34.700000	0.032484
	34.705000	0.103398
	34.710000	0.177536
	34.715000	0.109845
	34.720000	0.048601
	34.725000	0.106622
	34.730000	0.177536
	34.735000	0.119515
	34.740000	0.045378
	34.745000	0.100175
	34.750000	0.174312
	34.755000	0.116292
	34.760000	0.042154
	34.765000	0.096952
	34.770000	0.164642
	34.775000	0.103398
	34.780000	0.026038
	34.785000	0.093728
	34.790000	0.161419
	34.795000	0.096952
	34.800000	0.022814
	34.805000	0.087281
	34.810000	0.154972
	34.815000	0.093728
	34.820000	0.022814
	34.825000	0.084058
	34.830000	0.158195
	34.835000	0.100175
	34.840000	0.019591
	34.845000	0.090505
	34.850000	0.151749
	34.855000	0.084058
	34.860000	0.016368
	34.865000	0.077611
	34.870000	0.145302
	34.875000	0.080835
	34.880000	0.009921
	34.885000	0.071165
	34.890000	0.142079
	34.895000	0.074388
	34.900000	0.000251
	34.905000	0.058271
	34.910000	0.135632
	34.915000	0.067941
	34.920000	-0.002973
	34.925000	0.055048
	34.930000	0.122738
	34.935000	0.061495
	34.940000	-0.012643
	34.945000	0.051825
	34.950000	0.119515
	34.955000	0.048601
	34.960000	-0.022313
	34.965000	0.048601
	34.970000	0.113068
	34.975000	0.045378
	34.980000	-0.028759
	34.985000	0.042154
	34.990000	0.109845
	34.995000	0.032484
	35.000000	-0.035206
	35.005000	0.032484
	35.010000	0.093728
	35.015000	0.029261
	35.020000	-0.044876
	35.025000	0.029261
	35.030000	0.090505
	35.035000	0.022814
	35.040000	-0.041653
	35.045000	0.019591
	35.050000	0.077611
	35.055000	0.026038
	35.060000	-0.048100
	35.065000	0.019591
	35.070000	0.080835
	35.075000	0.016368
	35.080000	-0.048100
	35.085000	0.016368
	35.090000	0.090505
	35.095000	0.022814
	35.100000	-0.041653
	35.105000	0.016368
	35.110000	0.093728
	35.115000	0.035708
	35.120000	-0.035206
	35.125000	0.026038
	35.130000	0.093728
	35.135000	0.029261
	35.140000	-0.038430
	35.145000	0.029261
	35.150000	0.096952
	35.155000	0.035708
	35.160000	-0.035206
	35.165000	0.026038
	35.170000	0.087281
	35.175000	0.026038
	35.180000	-0.041653
	35.185000	0.019591
	35.190000	0.090505
	35.195000	0.019591
	35.200000	-0.051323
	35.205000	0.016368
	35.210000	0.074388
	35.215000	0.006697
	35.220000	-0.054546
	35.225000	0.006697
	35.230000	0.058271
	35.235000	-0.002973
	35.240000	-0.073886
	35.245000	-0.009419
	35.250000	0.061495
	35.255000	-0.009419
	35.260000	-0.067440
	35.265000	-0.009419
	35.270000	0.051825
	35.275000	-0.009419
	35.280000	-0.083557
	35.285000	-0.015866
	35.290000	0.045378
	35.295000	-0.031983
	35.300000	-0.096450
	35.305000	-0.035206
	35.310000	0.019591
	35.315000	-0.048100
	35.320000	-0.109343
	35.325000	-0.054546
	35.330000	0.000251
	35.335000	-0.073886
	35.340000	-0.135130
	35.345000	-0.073886
	35.350000	-0.015866
	35.355000	-0.080333
	35.360000	-0.154470
	35.365000	-0.096450
	35.370000	-0.044876
	35.375000	-0.115790
	35.380000	-0.180257
	35.385000	-0.131907
	35.390000	-0.077110
	35.395000	-0.154470
	35.400000	-0.228608
	35.405000	-0.180257
	35.410000	-0.138354
	35.415000	-0.215714
	35.420000	-0.299522
	35.425000	-0.260841
	35.430000	-0.222161
	35.435000	-0.302745
	35.440000	-0.392999
	35.445000	-0.354319
	35.450000	-0.322085
	35.455000	-0.415563
	35.460000	-0.509040
	35.465000	-0.470360
	35.470000	-0.444573
	35.475000	-0.544497
	35.480000	-0.637974
	35.485000	-0.599294
	35.490000	-0.573507
	35.495000	-0.666985
	35.500000	-0.766909
	35.505000	-0.721782
	35.510000	-0.689548
	35.515000	-0.770132
	35.520000	-0.857163
	35.525000	-0.812036
	35.530000	-0.766909
	35.535000	-0.850716
	35.540000	-0.931300
	35.545000	-0.876503
	35.550000	-0.824929
	35.555000	-0.911960
	35.560000	-0.982874
	35.565000	-0.928077
	35.570000	-0.879726
	35.575000	-0.960310
	35.580000	-1.040894
	35.585000	-0.973204
	35.590000	-0.915183
	35.595000	-0.992544
	35.600000	-1.069904
	35.605000	-0.998991
	35.610000	-0.947417
	35.615000	-1.015107
	35.620000	-1.089245
	35.625000	-1.021554
	35.630000	-0.969980
	35.635000	-1.044118
	35.640000	-1.115031
	35.645000	-1.047341
	35.650000	-0.986097
	35.655000	-1.060234
	35.660000	-1.124702
	35.665000	-1.063458
	35.670000	-0.986097
	35.675000	-1.066681
	35.680000	-1.131148
	35.685000	-1.069904
	35.690000	-0.986097
	35.695000	-1.060234
	35.700000	-1.127925
	35.705000	-1.053788
	35.710000	-0.982874
	35.715000	-1.053788
	35.720000	-1.108585
	35.725000	-1.031224
	35.730000	-0.950640
	35.735000	-1.024777
	35.740000	-1.079574
	35.745000	-0.998991
	35.750000	-0.931300
	35.755000	-1.002214
	35.760000	-1.063458
	35.765000	-0.973204
	35.770000	-0.905513
	35.775000	-0.982874
	35.780000	-1.050564
	35.785000	-0.957087
	35.790000	-0.892620
	35.795000	-0.960310
	35.800000	-1.031224
	35.805000	-0.950640
	35.810000	-0.879726
	35.815000	-0.960310
	35.820000	-1.018331
	35.825000	-0.934523
	35.830000	-0.860386
	35.835000	-0.937747
	35.840000	-0.995767
	35.845000	-0.915183
	35.850000	-0.847493
	35.855000	-0.924853
	35.860000	-0.986097
	35.865000	-0.902290
	35.870000	-0.834599
	35.875000	-0.908736
	35.880000	-0.973204
	35.885000	-0.892620
	35.890000	-0.824929
	35.895000	-0.905513
	35.900000	-0.969980
	35.905000	-0.882950
	35.910000	-0.824929
	35.915000	-0.895843
	35.920000	-0.963534
	35.925000	-0.882950
	35.930000	-0.815259
	35.935000	-0.882950
	35.940000	-0.960310
	35.945000	-0.870056
	35.950000	-0.802366
	35.955000	-0.882950
	35.960000	-0.947417
	35.965000	-0.857163
	35.970000	-0.792696
	35.975000	-0.866833
	35.980000	-0.937747
	35.985000	-0.853939
	35.990000	-0.779802
	35.995000	-0.857163
	36.000000	-0.928077
	36.005000	-0.834599
	36.010000	-0.773355
	36.015000	-0.857163
	36.020000	-0.924853
	36.025000	-0.837823
	36.030000	-0.773355
	36.035000	-0.860386
	36.040000	-0.924853
	36.045000	-0.841046
	36.050000	-0.766909
	36.055000	-0.847493
	36.060000	-0.908736
	36.065000	-0.831376
	36.070000	-0.770132
	36.075000	-0.844269
	36.080000	-0.918407
	36.085000	-0.828152
	36.090000	-0.763685
	36.095000	-0.841046
	36.100000	-0.908736
	36.105000	-0.821706
	36.110000	-0.754015
	36.115000	-0.837823
	36.120000	-0.899066
	36.125000	-0.812036
	36.130000	-0.747569
	36.135000	-0.828152
	36.140000	-0.892620
	36.145000	-0.808812
	36.150000	-0.747569
	36.155000	-0.818482
	36.160000	-0.889396
	36.165000	-0.799142
	36.170000	-0.737898
	36.175000	-0.812036
	36.180000	-0.882950
	36.185000	-0.799142
	36.190000	-0.731452
	36.195000	-0.805589
	36.200000	-0.873280
	36.205000	-0.786249
	36.210000	-0.728228
	36.215000	-0.805589
	36.220000	-0.873280
	36.225000	-0.786249
	36.230000	-0.721782
	36.235000	-0.802366
	36.240000	-0.866833
	36.245000	-0.776579
	36.250000	-0.715335
	36.255000	-0.789472
	36.260000	-0.857163
	36.265000	-0.773355
	36.270000	-0.712112
	36.275000	-0.792696
	36.280000	-0.850716
	36.285000	-0.766909
	36.290000	-0.705665
	36.295000	-0.792696
	36.300000	-0.844269
	36.305000	-0.766909
	36.310000	-0.695995
	36.315000	-0.783025
	36.320000	-0.841046
	36.325000	-0.757239
	36.330000	-0.699218
	36.335000	-0.776579
	36.340000	-0.844269
	36.345000	-0.754015
	36.350000	-0.686325
	36.355000	-0.776579
	36.360000	-0.834599
	36.365000	-0.754015
	36.370000	-0.689548
	36.375000	-0.770132
	36.380000	-0.828152
	36.385000	-0.747569
	36.390000	-0.673431
	36.395000	-0.766909
	36.400000	-0.824929
	36.405000	-0.750792
	36.410000	-0.679878
	36.415000	-0.766909
	36.420000	-0.821706
	36.425000	-0.741122
	36.430000	-0.670208
	36.435000	-0.763685
	36.440000	-0.824929
	36.445000	-0.737898
	36.450000	-0.670208
	36.455000	-0.760462
	36.460000	-0.821706
	36.465000	-0.734675
	36.470000	-0.676655
	36.475000	-0.757239
	36.480000	-0.812036
	36.485000	-0.734675
	36.490000	-0.670208
	36.495000	-0.747569
	36.500000	-0.808812
	36.505000	-0.728228
	36.510000	-0.666985
	36.515000	-0.744345
	36.520000	-0.808812
	36.525000	-0.725005
	36.530000	-0.670208
	36.535000	-0.754015
	36.540000	-0.805589
	36.545000	-0.715335
	36.550000	-0.663761
	36.555000	-0.734675
	36.560000	-0.805589
	36.565000	-0.721782
	36.570000	-0.657314
	36.575000	-0.737898
	36.580000	-0.802366
	36.585000	-0.705665
	36.590000	-0.657314
	36.595000	-0.737898
	36.600000	-0.795919
	36.605000	-0.712112
	36.610000	-0.650868
	36.615000	-0.725005
	36.620000	-0.792696
	36.625000	-0.705665
	36.630000	-0.644421
	36.635000	-0.734675
	36.640000	-0.792696
	36.645000	-0.699218
	36.650000	-0.644421
	36.655000	-0.728228
	36.660000	-0.789472
	36.665000	-0.702441
	36.670000	-0.641198
	36.675000	-0.725005
	36.680000	-0.783025
	36.685000	-0.702441
	36.690000	-0.637974
	36.695000	-0.728228
	36.700000	-0.786249
	36.705000	-0.699218
	36.710000	-0.637974
	36.715000	-0.718558
	36.720000	-0.779802
	36.725000	-0.689548
	36.730000	-0.637974
	36.735000	-0.721782
	36.740000	-0.783025
	36.745000	-0.692771
	36.750000	-0.634751
	36.755000	-0.721782
	36.760000	-0.776579
	36.765000	-0.683101
	36.770000	-0.634751
	36.775000	-0.718558
	36.780000	-0.776579
	36.785000	-0.689548
	36.790000	-0.628304
	36.795000	-0.718558
	36.800000	-0.770132
	36.805000	-0.683101
	36.810000	-0.625081
	36.815000	-0.708888
	36.820000	-0.770132
	36.825000	-0.686325
	36.830000	-0.618634
	36.835000	-0.715335
	36.840000	-0.773355
	36.845000	-0.683101
	36.850000	-0.621858
	36.855000	-0.712112
	36.860000	-0.766909
	36.865000	-0.679878
	36.870000	-0.621858
	36.875000	-0.708888
	36.880000	-0.766909
	36.885000	-0.673431
	36.890000	-0.621858
	36.895000	-0.705665
	36.900000	-0.760462
	36.905000	-0.673431
	36.910000	-0.615411
	36.915000	-0.708888
	36.920000	-0.757239
	36.925000	-0.676655
	36.930000	-0.612187
	36.935000	-0.699218
	36.940000	-0.757239
	36.945000	-0.676655
	36.950000	-0.612187
	36.955000	-0.705665
	36.960000	-0.760462
	36.965000	-0.670208
	36.970000	-0.615411
	36.975000	-0.702441
	36.980000	-0.754015
	36.985000	-0.666985
	36.990000	-0.612187
	36.995000	-0.699218
	37.000000	-0.760462
	37.005000	-0.660538
	37.010000	-0.612187
	37.015000	-0.702441
	37.020000	-0.750792
	37.025000	-0.666985
	37.030000	-0.602517
	37.035000	-0.692771
	37.040000	-0.744345
	37.045000	-0.663761
	37.050000	-0.612187
	37.055000	-0.689548
	37.060000	-0.747569
	37.065000	-0.660538
	37.070000	-0.599294
	37.075000	-0.689548
	37.080000	-0.757239
	37.085000	-0.654091
	37.090000	-0.608964
	37.095000	-0.692771
	37.100000	-0.754015
	37.105000	-0.657314
	37.110000	-0.599294
	37.115000	-0.689548
	37.120000	-0.744345
	37.125000	-0.657314
	37.130000	-0.596071
	37.135000	-0.689548
	37.140000	-0.750792
	37.145000	-0.654091
	37.150000	-0.592847
	37.155000	-0.683101
	37.160000	-0.737898
	37.165000	-0.647644
	37.170000	-0.596071
	37.175000	-0.686325
	37.180000	-0.747569
	37.185000	-0.647644
	37.190000	-0.589624
	37.195000	-0.686325
	37.200000	-0.737898
	37.205000	-0.644421
	37.210000	-0.596071
	37.215000	-0.676655
	37.220000	-0.734675
	37.225000	-0.644421
	37.230000	-0.592847
	37.235000	-0.679878
	37.240000	-0.728228
	37.245000	-0.641198
	37.250000	-0.586401
	37.255000	-0.683101
	37.260000	-0.741122
	37.265000	-0.644421
	37.270000	-0.586401
	37.275000	-0.683101
	37.280000	-0.737898
	37.285000	-0.641198
	37.290000	-0.592847
	37.295000	-0.686325
	37.300000	-0.728228
	37.305000	-0.634751
	37.310000	-0.589624
	37.315000	-0.673431
	37.320000	-0.734675
	37.325000	-0.634751
	37.330000	-0.589624
	37.335000	-0.676655
	37.340000	-0.728228
	37.345000	-0.644421
	37.350000	-0.586401
	37.355000	-0.679878
	37.360000	-0.734675
	37.365000	-0.644421
	37.370000	-0.583177
	37.375000	-0.679878
	37.380000	-0.734675
	37.385000	-0.637974
	37.390000	-0.583177
	37.395000	-0.676655
	37.400000	-0.728228
	37.405000	-0.634751
	37.410000	-0.586401
	37.415000	-0.679878
	37.420000	-0.734675
	37.425000	-0.647644
	37.430000	-0.579954
	37.435000	-0.676655
	37.440000	-0.728228
	37.445000	-0.634751
	37.450000	-0.579954
	37.455000	-0.679878
	37.460000	-0.728228
	37.465000	-0.634751
	37.470000	-0.576730
	37.475000	-0.673431
	37.480000	-0.734675
	37.485000	-0.637974
	37.490000	-0.586401
	37.495000	-0.666985
	37.500000	-0.728228
	37.505000	-0.634751
	37.510000	-0.579954
	37.515000	-0.676655
	37.520000	-0.718558
	37.525000	-0.634751
	37.530000	-0.586401
	37.535000	-0.670208
	37.540000	-0.731452
	37.545000	-0.637974
	37.550000	-0.583177
	37.555000	-0.670208
	37.560000	-0.725005
	37.565000	-0.631528
	37.570000	-0.576730
	37.575000	-0.679878
	37.580000	-0.718558
	37.585000	-0.631528
	37.590000	-0.586401
	37.595000	-0.673431
	37.600000	-0.721782
	37.605000	-0.625081
	37.610000	-0.579954
	37.615000	-0.679878
	37.620000	-0.725005
	37.625000	-0.628304
	37.630000	-0.579954
	37.635000	-0.663761
	37.640000	-0.721782
	37.645000	-0.625081
	37.650000	-0.573507
	37.655000	-0.670208
	37.660000	-0.721782
	37.665000	-0.621858
	37.670000	-0.576730
	37.675000	-0.670208
	37.680000	-0.718558
	37.685000	-0.625081
	37.690000	-0.573507
	37.695000	-0.663761
	37.700000	-0.725005
	37.705000	-0.621858
	37.710000	-0.579954
	37.715000	-0.666985
	37.720000	-0.715335
	37.725000	-0.625081
	37.730000	-0.576730
	37.735000	-0.670208
	37.740000	-0.721782
	37.745000	-0.621858
	37.750000	-0.576730
	37.755000	-0.670208
	37.760000	-0.718558
	37.765000	-0.618634
	37.770000	-0.576730
	37.775000	-0.663761
	37.780000	-0.705665
	37.785000	-0.621858
	37.790000	-0.570284
	37.795000	-0.663761
	37.800000	-0.708888
	37.805000	-0.625081
	37.810000	-0.573507
	37.815000	-0.657314
	37.820000	-0.721782
	37.825000	-0.625081
	37.830000	-0.563837
	37.835000	-0.663761
	37.840000	-0.715335
	37.845000	-0.618634
	37.850000	-0.567060
	37.855000	-0.657314
	37.860000	-0.708888
	37.865000	-0.612187
	37.870000	-0.570284
	37.875000	-0.657314
	37.880000	-0.715335
	37.885000	-0.618634
	37.890000	-0.560614
	37.895000	-0.657314
	37.900000	-0.705665
	37.905000	-0.615411
	37.910000	-0.567060
	37.915000	-0.654091
	37.920000	-0.702441
	37.925000	-0.612187
	37.930000	-0.567060
	37.935000	-0.660538
	37.940000	-0.708888
	37.945000	-0.608964
	37.950000	-0.567060
	37.955000	-0.657314
	37.960000	-0.705665
	37.965000	-0.605741
	37.970000	-0.567060
	37.975000	-0.657314
	37.980000	-0.705665
	37.985000	-0.612187
	37.990000	-0.563837
	37.995000	-0.650868
	38.000000	-0.712112
	38.005000	-0.605741
	38.010000	-0.560614
	38.015000	-0.657314
	38.020000	-0.705665
	38.025000	-0.612187
	38.030000	-0.560614
	38.035000	-0.657314
	38.040000	-0.708888
	38.045000	-0.605741
	38.050000	-0.560614
	38.055000	-0.660538
	38.060000	-0.702441
	38.065000	-0.602517
	38.070000	-0.557390
	38.075000	-0.663761
	38.080000	-0.702441
	38.085000	-0.608964
	38.090000	-0.554167
	38.095000	-0.654091
	38.100000	-0.699218
	38.105000	-0.608964
	38.110000	-0.563837
	38.115000	-0.654091
	38.120000	-0.702441
	38.125000	-0.608964
	38.130000	-0.567060
	38.135000	-0.663761
	38.140000	-0.712112
	38.145000	-0.608964
	38.150000	-0.557390
	38.155000	-0.657314
	38.160000	-0.702441
	38.165000	-0.608964
	38.170000	-0.563837
	38.175000	-0.657314
	38.180000	-0.699218
	38.185000	-0.605741
	38.190000	-0.557390
	38.195000	-0.660538
	38.200000	-0.699218
	38.205000	-0.602517
	38.210000	-0.560614
	38.215000	-0.654091
	38.220000	-0.702441
	38.225000	-0.605741
	38.230000	-0.560614
	38.235000	-0.660538
	38.240000	-0.705665
	38.245000	-0.612187
	38.250000	-0.557390
	38.255000	-0.663761
	38.260000	-0.695995
	38.265000	-0.605741
	38.270000	-0.554167
	38.275000	-0.654091
	38.280000	-0.705665
	38.285000	-0.599294
	38.290000	-0.563837
	38.295000	-0.660538
	38.300000	-0.699218
	38.305000	-0.602517
	38.310000	-0.563837
	38.315000	-0.654091
	38.320000	-0.699218
	38.325000	-0.608964
	38.330000	-0.563837
	38.335000	-0.650868
	38.340000	-0.702441
	38.345000	-0.599294
	38.350000	-0.563837
	38.355000	-0.660538
	38.360000	-0.712112
	38.365000	-0.612187
	38.370000	-0.563837
	38.375000	-0.660538
	38.380000	-0.699218
	38.385000	-0.602517
	38.390000	-0.560614
	38.395000	-0.657314
	38.400000	-0.699218
	38.405000	-0.608964
	38.410000	-0.563837
	38.415000	-0.660538
	38.420000	-0.702441
	38.425000	-0.599294
	38.430000	-0.560614
	38.435000	-0.657314
	38.440000	-0.702441
	38.445000	-0.602517
	38.450000	-0.560614
	38.455000	-0.657314
	38.460000	-0.702441
	38.465000	-0.602517
	38.470000	-0.554167
	38.475000	-0.660538
	38.480000	-0.699218
	38.485000	-0.599294
	38.490000	-0.557390
	38.495000	-0.660538
	38.500000	-0.695995
	38.505000	-0.608964
	38.510000	-0.560614
	38.515000	-0.654091
	38.520000	-0.702441
	38.525000	-0.599294
	38.530000	-0.560614
	38.535000	-0.660538
	38.540000	-0.689548
	38.545000	-0.596071
	38.550000	-0.567060
	38.555000	-0.660538
	38.560000	-0.702441
	38.565000	-0.599294
	38.570000	-0.554167
	38.575000	-0.657314
	38.580000	-0.692771
	38.585000	-0.599294
	38.590000	-0.554167
	38.595000	-0.654091
	38.600000	-0.695995
	38.605000	-0.596071
	38.610000	-0.550944
	38.615000	-0.654091
	38.620000	-0.699218
	38.625000	-0.599294
	38.630000	-0.550944
	38.635000	-0.650868
	38.640000	-0.695995
	38.645000	-0.596071
	38.650000	-0.554167
	38.655000	-0.660538
	38.660000	-0.699218
	38.665000	-0.596071
	38.670000	-0.550944
	38.675000	-0.650868
	38.680000	-0.689548
	38.685000	-0.592847
	38.690000	-0.554167
	38.695000	-0.654091
	38.700000	-0.686325
	38.705000	-0.596071
	38.710000	-0.557390
	38.715000	-0.647644
	38.720000	-0.692771
	38.725000	-0.589624
	38.730000	-0.550944
	38.735000	-0.647644
	38.740000	-0.692771
	38.745000	-0.592847
	38.750000	-0.560614
	38.755000	-0.647644
	38.760000	-0.686325
	38.765000	-0.596071
	38.770000	-0.547720
	38.775000	-0.654091
	38.780000	-0.689548
	38.785000	-0.592847
	38.790000	-0.554167
	38.795000	-0.644421
	38.800000	-0.689548
	38.805000	-0.586401
	38.810000	-0.544497
	38.815000	-0.650868
	38.820000	-0.689548
	38.825000	-0.583177
	38.830000	-0.554167
	38.835000	-0.647644
	38.840000	-0.689548
	38.845000	-0.592847
	38.850000	-0.547720
	38.855000	-0.650868
	38.860000	-0.689548
	38.865000	-0.589624
	38.870000	-0.547720
	38.875000	-0.647644
	38.880000	-0.686325
	38.885000	-0.586401
	38.890000	-0.550944
	38.895000	-0.647644
	38.900000	-0.686325
	38.905000	-0.579954
	38.910000	-0.550944
	38.915000	-0.644421
	38.920000	-0.683101
	38.925000	-0.583177
	38.930000	-0.550944
	38.935000	-0.641198
	38.940000	-0.686325
	38.945000	-0.583177
	38.950000	-0.547720
	38.955000	-0.650868
	38.960000	-0.683101
	38.965000	-0.589624
	38.970000	-0.554167
	38.975000	-0.650868
	38.980000	-0.686325
	38.985000	-0.586401
	38.990000	-0.550944
	38.995000	-0.641198
	39.000000	-0.686325
	39.005000	-0.579954
	39.010000	-0.541274
	39.015000	-0.641198
	39.020000	-0.683101
	39.025000	-0.573507
	39.030000	-0.534827
	39.035000	-0.637974
	39.040000	-0.670208
	39.045000	-0.557390
	39.050000	-0.531603
	39.055000	-0.625081
	39.060000	-0.657314
	39.065000	-0.557390
	39.070000	-0.518710
	39.075000	-0.621858
	39.080000	-0.654091
	39.085000	-0.557390
	39.090000	-0.521933
	39.095000	-0.625081
	39.100000	-0.660538
	39.105000	-0.547720
	39.110000	-0.521933
	39.115000	-0.621858
	39.120000	-0.660538
	39.125000	-0.557390
	39.130000	-0.521933
	39.135000	-0.621858
	39.140000	-0.660538
	39.145000	-0.554167
	39.150000	-0.521933
	39.155000	-0.618634
	39.160000	-0.654091
	39.165000	-0.554167
	39.170000	-0.525157
	39.175000	-0.615411
	39.180000	-0.660538
	39.185000	-0.554167
	39.190000	-0.515487
	39.195000	-0.621858
	39.200000	-0.650868
	39.205000	-0.554167
	39.210000	-0.525157
	39.215000	-0.618634
	39.220000	-0.657314
	39.225000	-0.554167
	39.230000	-0.518710
	39.235000	-0.625081
	39.240000	-0.654091
	39.245000	-0.560614
	39.250000	-0.525157
	39.255000	-0.621858
	39.260000	-0.654091
	39.265000	-0.550944
	39.270000	-0.528380
	39.275000	-0.628304
	39.280000	-0.654091
	39.285000	-0.550944
	39.290000	-0.515487
	39.295000	-0.618634
	39.300000	-0.654091
	39.305000	-0.554167
	39.310000	-0.521933
	39.315000	-0.621858
	39.320000	-0.641198
	39.325000	-0.550944
	39.330000	-0.509040
	39.335000	-0.615411
	39.340000	-0.644421
	39.345000	-0.541274
	39.350000	-0.512263
	39.355000	-0.612187
	39.360000	-0.644421
	39.365000	-0.547720
	39.370000	-0.515487
	39.375000	-0.612187
	39.380000	-0.650868
	39.385000	-0.550944
	39.390000	-0.509040
	39.395000	-0.612187
	39.400000	-0.641198
	39.405000	-0.541274
	39.410000	-0.518710
	39.415000	-0.621858
	39.420000	-0.644421
	39.425000	-0.544497
	39.430000	-0.512263
	39.435000	-0.612187
	39.440000	-0.644421
	39.445000	-0.547720
	39.450000	-0.515487
	39.455000	-0.615411
	39.460000	-0.647644
	39.465000	-0.541274
	39.470000	-0.509040
	39.475000	-0.615411
	39.480000	-0.647644
	39.485000	-0.547720
	39.490000	-0.512263
	39.495000	-0.621858
	39.500000	-0.637974
	39.505000	-0.541274
	39.510000	-0.515487
	39.515000	-0.621858
	39.520000	-0.641198
	39.525000	-0.547720
	39.530000	-0.509040
	39.535000	-0.618634
	39.540000	-0.647644
	39.545000	-0.544497
	39.550000	-0.512263
	39.555000	-0.618634
	39.560000	-0.644421
	39.565000	-0.544497
	39.570000	-0.521933
	39.575000	-0.618634
	39.580000	-0.647644
	39.585000	-0.541274
	39.590000	-0.515487
	39.595000	-0.618634
	39.600000	-0.644421
	39.605000	-0.544497
	39.610000	-0.505817
	39.615000	-0.621858
	39.620000	-0.647644
	39.625000	-0.544497
	39.630000	-0.515487
	39.635000	-0.621858
	39.640000	-0.644421
	39.645000	-0.538050
	39.650000	-0.518710
	39.655000	-0.618634
	39.660000	-0.647644
	39.665000	-0.547720
	39.670000	-0.525157
	39.675000	-0.625081
	39.680000	-0.657314
	39.685000	-0.550944
	39.690000	-0.521933
	39.695000	-0.634751
	39.700000	-0.657314
	39.705000	-0.550944
	39.710000	-0.531603
	39.715000	-0.631528
	39.720000	-0.663761
	39.725000	-0.560614
	39.730000	-0.528380
	39.735000	-0.637974
	39.740000	-0.666985
	39.745000	-0.557390
	39.750000	-0.541274
	39.755000	-0.644421
	39.760000	-0.676655
	39.765000	-0.576730
	39.770000	-0.547720
	39.775000	-0.641198
	39.780000	-0.673431
	39.785000	-0.573507
	39.790000	-0.550944
	39.795000	-0.650868
	39.800000	-0.676655
	39.805000	-0.576730
	39.810000	-0.550944
	39.815000	-0.657314
	39.820000	-0.683101
	39.825000	-0.573507
	39.830000	-0.554167
	39.835000	-0.657314
	39.840000	-0.683101
	39.845000	-0.579954
	39.850000	-0.554167
	39.855000	-0.657314
	39.860000	-0.679878
	39.865000	-0.576730
	39.870000	-0.541274
	39.875000	-0.650868
	39.880000	-0.676655
	39.885000	-0.567060
	39.890000	-0.544497
	39.895000	-0.644421
	39.900000	-0.673431
	39.905000	-0.567060
	39.910000	-0.534827
	39.915000	-0.644421
	39.920000	-0.670208
	39.925000	-0.563837
	39.930000	-0.531603
	39.935000	-0.644421
	39.940000	-0.663761
	39.945000	-0.557390
	39.950000	-0.541274
	39.955000	-0.637974
	39.960000	-0.654091
	39.965000	-0.544497
	39.970000	-0.525157
	39.975000	-0.628304
	39.980000	-0.650868
	39.985000	-0.541274
	39.990000	-0.515487
	39.995000	-0.618634
	40.000000	-0.644421
	40.005000	-0.538050
	40.010000	-0.509040
	40.015000	-0.612187
	40.020000	-0.637974
	40.025000	-0.525157
	40.030000	-0.499370
	40.035000	-0.605741
	40.040000	-0.631528
	40.045000	-0.528380
	40.050000	-0.496147
	40.055000	-0.602517
	40.060000	-0.615411
	40.065000	-0.515487
	40.070000	-0.496147
	40.075000	-0.592847
	40.080000	-0.621858
	40.085000	-0.515487
	40.090000	-0.486476
	40.095000	-0.589624
	40.100000	-0.618634
	40.105000	-0.509040
	40.110000	-0.483253
	40.115000	-0.589624
	40.120000	-0.612187
	40.125000	-0.502593
	40.130000	-0.476806
	40.135000	-0.589624
	40.140000	-0.605741
	40.145000	-0.496147
	40.150000	-0.480030
	40.155000	-0.583177
	40.160000	-0.599294
	40.165000	-0.499370
	40.170000	-0.467136
	40.175000	-0.573507
	40.180000	-0.599294
	40.185000	-0.486476
	40.190000	-0.463913
	40.195000	-0.573507
	40.200000	-0.592847
	40.205000	-0.483253
	40.210000	-0.470360
	40.215000	-0.573507
	40.220000	-0.596071
	40.225000	-0.486476
	40.230000	-0.463913
	40.235000	-0.570284
	40.240000	-0.579954
	40.245000	-0.476806
	40.250000	-0.457466
	40.255000	-0.560614
	40.260000	-0.586401
	40.265000	-0.476806
	40.270000	-0.454243
	40.275000	-0.563837
	40.280000	-0.579954
	40.285000	-0.476806
	40.290000	-0.451019
	40.295000	-0.560614
	40.300000	-0.576730
	40.305000	-0.473583
	40.310000	-0.454243
	40.315000	-0.563837
	40.320000	-0.579954
	40.325000	-0.470360
	40.330000	-0.451019
	40.335000	-0.563837
	40.340000	-0.573507
	40.345000	-0.473583
	40.350000	-0.451019
	40.355000	-0.550944
	40.360000	-0.567060
	40.365000	-0.467136
	40.370000	-0.451019
	40.375000	-0.550944
	40.380000	-0.567060
	40.385000	-0.457466
	40.390000	-0.447796
	40.395000	-0.554167
	40.400000	-0.563837
	40.405000	-0.457466
	40.410000	-0.434903
	40.415000	-0.534827
	40.420000	-0.541274
	40.425000	-0.438126
	40.430000	-0.418786
	40.435000	-0.521933
	40.440000	-0.531603
	40.445000	-0.425233
	40.450000	-0.389776
	40.455000	-0.483253
	40.460000	-0.502593
	40.465000	-0.389776
	40.470000	-0.357542
	40.475000	-0.451019
	40.480000	-0.457466
	40.485000	-0.347872
	40.490000	-0.315638
	40.495000	-0.399446
	40.500000	-0.392999
	40.505000	-0.280181
	40.510000	-0.244725
	40.515000	-0.334979
	40.520000	-0.331755
	40.525000	-0.215714
	40.530000	-0.177034
	40.535000	-0.260841
	40.540000	-0.254395
	40.545000	-0.138354
	40.550000	-0.099673
	40.555000	-0.180257
	40.560000	-0.164141
	40.565000	-0.038430
	40.570000	0.000251
	40.575000	-0.070663
	40.580000	-0.064216
	40.585000	0.058271
	40.590000	0.096952
	40.595000	0.026038
	40.600000	0.038931
	40.605000	0.164642
	40.610000	0.209769
	40.615000	0.142079
	40.620000	0.154972
	40.625000	0.277460
	40.630000	0.322587
	40.635000	0.242003
	40.640000	0.245226
	40.645000	0.364490
	40.650000	0.380607
	40.655000	0.303247
	40.660000	0.290353
	40.665000	0.383830
	40.670000	0.399947
	40.675000	0.303247
	40.680000	0.280683
	40.685000	0.370937
	40.690000	0.387054
	40.695000	0.287130
	40.700000	0.267790
	40.705000	0.367714
	40.710000	0.377384
	40.715000	0.280683
	40.720000	0.267790
	40.725000	0.351597
	40.730000	0.374160
	40.735000	0.277460
	40.740000	0.258119
	40.745000	0.351597
	40.750000	0.364490
	40.755000	0.267790
	40.760000	0.248449
	40.765000	0.341927
	40.770000	0.345150
	40.775000	0.251673
	40.780000	0.229109
	40.785000	0.329033
	40.790000	0.329033
	40.795000	0.232333
	40.800000	0.222663
	40.805000	0.303247
	40.810000	0.316140
	40.815000	0.229109
	40.820000	0.209769
	40.825000	0.290353
	40.830000	0.300023
	40.835000	0.206546
	40.840000	0.200099
	40.845000	0.283906
	40.850000	0.293576
	40.855000	0.203322
	40.860000	0.193652
	40.865000	0.277460
	40.870000	0.290353
	40.875000	0.190429
	40.880000	0.171089
	40.885000	0.267790
	40.890000	0.274236
	40.895000	0.187206
	40.900000	0.167865
	40.905000	0.245226
	40.910000	0.258119
	40.915000	0.164642
	40.920000	0.145302
	40.925000	0.219439
	40.930000	0.219439
	40.935000	0.109845
	40.940000	0.093728
	40.945000	0.171089
	40.950000	0.167865
	40.955000	0.051825
	40.960000	0.032484
	40.965000	0.113068
	40.970000	0.113068
	40.975000	0.003474
	40.980000	-0.019089
	40.985000	0.058271
	40.990000	0.051825
	40.995000	-0.041653
	41.000000	-0.057770
	41.005000	0.038931
	41.010000	0.042154
	41.015000	-0.064216
	41.020000	-0.070663
	41.025000	0.022814
	41.030000	0.038931
	41.035000	-0.051323
	41.040000	-0.064216
	41.045000	0.035708
	41.050000	0.051825
	41.055000	-0.041653
	41.060000	-0.038430
	41.065000	0.058271
	41.070000	0.080835
	41.075000	0.006697
	41.080000	0.013144
	41.085000	0.119515
	41.090000	0.142079
	41.095000	0.067941
	41.100000	0.074388
	41.105000	0.177536
	41.110000	0.206546
	41.115000	0.119515
	41.120000	0.109845
	41.125000	0.212992
	41.130000	0.232333
	41.135000	0.145302
	41.140000	0.142079
	41.145000	0.238779
	41.150000	0.254896
	41.155000	0.161419
	41.160000	0.161419
	41.165000	0.258119
	41.170000	0.264566
	41.175000	0.174312
	41.180000	0.171089
	41.185000	0.261343
	41.190000	0.264566
	41.195000	0.183982
	41.200000	0.187206
	41.205000	0.258119
	41.210000	0.274236
	41.215000	0.180759
	41.220000	0.171089
	41.225000	0.261343
	41.230000	0.264566
	41.235000	0.180759
	41.240000	0.177536
	41.245000	0.261343
	41.250000	0.258119
	41.255000	0.177536
	41.260000	0.171089
	41.265000	0.254896
	41.270000	0.261343
	41.275000	0.167865
	41.280000	0.158195
	41.285000	0.248449
	41.290000	0.248449
	41.295000	0.154972
	41.300000	0.151749
	41.305000	0.232333
	41.310000	0.229109
	41.315000	0.138855
	41.320000	0.122738
	41.325000	0.200099
	41.330000	0.209769
	41.335000	0.116292
	41.340000	0.109845
	41.345000	0.174312
	41.350000	0.180759
	41.355000	0.084058
	41.360000	0.071165
	41.365000	0.151749
	41.370000	0.142079
	41.375000	0.048601
	41.380000	0.035708
	41.385000	0.113068
	41.390000	0.122738
	41.395000	0.026038
	41.400000	0.013144
	41.405000	0.090505
	41.410000	0.096952
	41.415000	0.006697
	41.420000	-0.006196
	41.425000	0.071165
	41.430000	0.074388
	41.435000	-0.022313
	41.440000	-0.028759
	41.445000	0.048601
	41.450000	0.048601
	41.455000	-0.041653
	41.460000	-0.054546
	41.465000	0.026038
	41.470000	0.026038
	41.475000	-0.073886
	41.480000	-0.077110
	41.485000	-0.006196
	41.490000	0.000251
	41.495000	-0.096450
	41.500000	-0.112567
	41.505000	-0.044876
	41.510000	-0.051323
	41.515000	-0.151247
	41.520000	-0.173811
	41.525000	-0.106120
	41.530000	-0.115790
	41.535000	-0.228608
	41.540000	-0.254395
	41.545000	-0.193151
	41.550000	-0.218938
	41.555000	-0.331755
	41.560000	-0.367212
	41.565000	-0.322085
	41.570000	-0.344649
	41.575000	-0.460690
	41.580000	-0.496147
	41.585000	-0.454243
	41.590000	-0.483253
	41.595000	-0.615411
	41.600000	-0.644421
	41.605000	-0.589624
	41.610000	-0.621858
	41.615000	-0.731452
	41.620000	-0.760462
	41.625000	-0.695995
	41.630000	-0.712112
	41.635000	-0.815259
	41.640000	-0.841046
	41.645000	-0.773355
	41.650000	-0.773355
	41.655000	-0.886173
	41.660000	-0.895843
	41.665000	-0.818482
	41.670000	-0.831376
	41.675000	-0.934523
	41.680000	-0.940970
	41.685000	-0.860386
	41.690000	-0.863609
	41.695000	-0.966757
	41.700000	-0.973204
	41.705000	-0.889396
	41.710000	-0.892620
	41.715000	-0.992544
	41.720000	-0.998991
	41.725000	-0.908736
	41.730000	-0.911960
	41.735000	-1.021554
	41.740000	-1.015107
	41.745000	-0.924853
	41.750000	-0.924853
	41.755000	-1.031224
	41.760000	-1.024777
	41.765000	-0.940970
	41.770000	-0.950640
	41.775000	-1.040894
	41.780000	-1.040894
	41.785000	-0.950640
	41.790000	-0.944193
	41.795000	-1.050564
	41.800000	-1.040894
	41.805000	-0.957087
	41.810000	-0.957087
	41.815000	-1.050564
	41.820000	-1.044118
	41.825000	-0.953863
	41.830000	-0.947417
	41.835000	-1.057011
	41.840000	-1.053788
	41.845000	-0.953863
	41.850000	-0.947417
	41.855000	-1.047341
	41.860000	-1.050564
	41.865000	-0.944193
	41.870000	-0.940970
	41.875000	-1.034447
	41.880000	-1.037671
	41.885000	-0.931300
	41.890000	-0.934523
	41.895000	-1.034447
	41.900000	-1.031224
	41.905000	-0.928077
	41.910000	-0.924853
	41.915000	-1.021554
	41.920000	-1.018331
	41.925000	-0.918407
	41.930000	-0.908736
	41.935000	-1.021554
	41.940000	-1.008661
	41.945000	-0.908736
	41.950000	-0.908736
	41.955000	-1.002214
	41.960000	-0.992544
	41.965000	-0.905513
	41.970000	-0.895843
	41.975000	-0.998991
	41.980000	-0.995767
	41.985000	-0.895843
	41.990000	-0.895843
	41.995000	-0.995767
	42.000000	-0.989320
	42.005000	-0.886173
	42.010000	-0.886173
	42.015000	-0.989320
	42.020000	-0.982874
	42.025000	-0.876503
	42.030000	-0.876503
	42.035000	-0.982874
	42.040000	-0.973204
	42.045000	-0.863609
	42.050000	-0.870056
	42.055000	-0.969980
	42.060000	-0.973204
	42.065000	-0.860386
	42.070000	-0.860386
	42.075000	-0.957087
	42.080000	-0.953863
	42.085000	-0.844269
	42.090000	-0.850716
	42.095000	-0.963534
	42.100000	-0.937747
	42.105000	-0.837823
	42.110000	-0.837823
	42.115000	-0.937747
	42.120000	-0.940970
	42.125000	-0.834599
	42.130000	-0.837823
	42.135000	-0.934523
	42.140000	-0.934523
	42.145000	-0.821706
	42.150000	-0.828152
	42.155000	-0.928077
	42.160000	-0.924853
	42.165000	-0.818482
	42.170000	-0.824929
	42.175000	-0.924853
	42.180000	-0.911960
	42.185000	-0.802366
	42.190000	-0.805589
	42.195000	-0.908736
	42.200000	-0.905513
	42.205000	-0.792696
	42.210000	-0.799142
	42.215000	-0.902290
	42.220000	-0.892620
	42.225000	-0.795919
	42.230000	-0.792696
	42.235000	-0.902290
	42.240000	-0.899066
	42.245000	-0.783025
	42.250000	-0.789472
	42.255000	-0.895843
	42.260000	-0.886173
	42.265000	-0.789472
	42.270000	-0.786249
	42.275000	-0.895843
	42.280000	-0.886173
	42.285000	-0.779802
	42.290000	-0.786249
	42.295000	-0.892620
	42.300000	-0.879726
	42.305000	-0.773355
	42.310000	-0.776579
	42.315000	-0.879726
	42.320000	-0.866833
	42.325000	-0.763685
	42.330000	-0.766909
	42.335000	-0.879726
	42.340000	-0.860386
	42.345000	-0.763685
	42.350000	-0.770132
	42.355000	-0.870056
	42.360000	-0.857163
	42.365000	-0.757239
	42.370000	-0.760462
	42.375000	-0.863609
	42.380000	-0.857163
	42.385000	-0.744345
	42.390000	-0.754015
	42.395000	-0.857163
	42.400000	-0.850716
	42.405000	-0.737898
	42.410000	-0.741122
	42.415000	-0.857163
	42.420000	-0.837823
	42.425000	-0.734675
	42.430000	-0.741122
	42.435000	-0.844269
	42.440000	-0.834599
	42.445000	-0.731452
	42.450000	-0.731452
	42.455000	-0.831376
	42.460000	-0.828152
	42.465000	-0.721782
	42.470000	-0.728228
	42.475000	-0.834599
	42.480000	-0.812036
	42.485000	-0.712112
	42.490000	-0.728228
	42.495000	-0.824929
	42.500000	-0.821706
	42.505000	-0.708888
	42.510000	-0.715335
	42.515000	-0.821706
	42.520000	-0.805589
	42.525000	-0.702441
	42.530000	-0.712112
	42.535000	-0.812036
	42.540000	-0.802366
	42.545000	-0.695995
	42.550000	-0.708888
	42.555000	-0.805589
	42.560000	-0.789472
	42.565000	-0.686325
	42.570000	-0.699218
	42.575000	-0.805589
	42.580000	-0.795919
	42.585000	-0.689548
	42.590000	-0.692771
	42.595000	-0.795919
	42.600000	-0.776579
	42.605000	-0.679878
	42.610000	-0.686325
	42.615000	-0.789472
	42.620000	-0.783025
	42.625000	-0.679878
	42.630000	-0.686325
	42.635000	-0.792696
	42.640000	-0.776579
	42.645000	-0.670208
	42.650000	-0.686325
	42.655000	-0.783025
	42.660000	-0.773355
	42.665000	-0.666985
	42.670000	-0.676655
	42.675000	-0.783025
	42.680000	-0.763685
	42.685000	-0.666985
	42.690000	-0.673431
	42.695000	-0.776579
	42.700000	-0.760462
	42.705000	-0.660538
	42.710000	-0.666985
	42.715000	-0.770132
	42.720000	-0.754015
	42.725000	-0.654091
	42.730000	-0.657314
	42.735000	-0.766909
	42.740000	-0.747569
	42.745000	-0.644421
	42.750000	-0.657314
	42.755000	-0.763685
	42.760000	-0.747569
	42.765000	-0.644421
	42.770000	-0.650868
	42.775000	-0.757239
	42.780000	-0.747569
	42.785000	-0.634751
	42.790000	-0.644421
	42.795000	-0.750792
	42.800000	-0.737898
	42.805000	-0.625081
	42.810000	-0.644421
	42.815000	-0.747569
	42.820000	-0.734675
	42.825000	-0.631528
	42.830000	-0.637974
	42.835000	-0.747569
	42.840000	-0.728228
	42.845000	-0.625081
	42.850000	-0.631528
	42.855000	-0.747569
	42.860000	-0.728228
	42.865000	-0.621858
	42.870000	-0.637974
	42.875000	-0.741122
	42.880000	-0.731452
	42.885000	-0.621858
	42.890000	-0.637974
	42.895000	-0.737898
	42.900000	-0.725005
	42.905000	-0.615411
	42.910000	-0.634751
	42.915000	-0.734675
	42.920000	-0.725005
	42.925000	-0.618634
	42.930000	-0.634751
	42.935000	-0.741122
	42.940000	-0.728228
	42.945000	-0.615411
	42.950000	-0.628304
	42.955000	-0.741122
	42.960000	-0.725005
	42.965000	-0.621858
	42.970000	-0.631528
	42.975000	-0.731452
	42.980000	-0.718558
	42.985000	-0.615411
	42.990000	-0.634751
	42.995000	-0.734675
	43.000000	-0.708888
	43.005000	-0.612187
	43.010000	-0.631528
	43.015000	-0.725005
	43.020000	-0.708888
	43.025000	-0.602517
	43.030000	-0.625081
	43.035000	-0.734675
	43.040000	-0.715335
	43.045000	-0.605741
	43.050000	-0.618634
	43.055000	-0.725005
	43.060000	-0.712112
	43.065000	-0.602517
	43.070000	-0.615411
	43.075000	-0.731452
	43.080000	-0.699218
	43.085000	-0.605741
	43.090000	-0.621858
	43.095000	-0.725005
	43.100000	-0.708888
	43.105000	-0.596071
	43.110000	-0.605741
	43.115000	-0.721782
	43.120000	-0.708888
	43.125000	-0.599294
	43.130000	-0.608964
	43.135000	-0.721782
	43.140000	-0.702441
	43.145000	-0.599294
	43.150000	-0.612187
	43.155000	-0.715335
	43.160000	-0.699218
	43.165000	-0.592847
	43.170000	-0.608964
	43.175000	-0.715335
	43.180000	-0.692771
	43.185000	-0.589624
	43.190000	-0.612187
	43.195000	-0.718558
	43.200000	-0.695995
	43.205000	-0.589624
	43.210000	-0.605741
	43.215000	-0.712112
	43.220000	-0.699218
	43.225000	-0.583177
	43.230000	-0.602517
	43.235000	-0.708888
	43.240000	-0.683101
	43.245000	-0.589624
	43.250000	-0.605741
	43.255000	-0.708888
	43.260000	-0.695995
	43.265000	-0.586401
	43.270000	-0.602517
	43.275000	-0.705665
	43.280000	-0.692771
	43.285000	-0.586401
	43.290000	-0.599294
	43.295000	-0.705665
	43.300000	-0.686325
	43.305000	-0.586401
	43.310000	-0.599294
	43.315000	-0.705665
	43.320000	-0.686325
	43.325000	-0.586401
	43.330000	-0.605741
	43.335000	-0.712112
	43.340000	-0.683101
	43.345000	-0.583177
	43.350000	-0.599294
	43.355000	-0.699218
	43.360000	-0.673431
	43.365000	-0.579954
	43.370000	-0.605741
	43.375000	-0.705665
	43.380000	-0.683101
	43.385000	-0.576730
	43.390000	-0.602517
	43.395000	-0.702441
	43.400000	-0.676655
	43.405000	-0.579954
	43.410000	-0.605741
	43.415000	-0.699218
	43.420000	-0.679878
	43.425000	-0.579954
	43.430000	-0.596071
	43.435000	-0.705665
	43.440000	-0.679878
	43.445000	-0.579954
	43.450000	-0.599294
	43.455000	-0.695995
	43.460000	-0.676655
	43.465000	-0.576730
	43.470000	-0.599294
	43.475000	-0.699218
	43.480000	-0.670208
	43.485000	-0.576730
	43.490000	-0.596071
	43.495000	-0.702441
	43.500000	-0.676655
	43.505000	-0.570284
	43.510000	-0.599294
	43.515000	-0.705665
	43.520000	-0.673431
	43.525000	-0.576730
	43.530000	-0.592847
	43.535000	-0.695995
	43.540000	-0.683101
	43.545000	-0.570284
	43.550000	-0.589624
	43.555000	-0.699218
	43.560000	-0.679878
	43.565000	-0.567060
	43.570000	-0.599294
	43.575000	-0.695995
	43.580000	-0.676655
	43.585000	-0.567060
	43.590000	-0.589624
	43.595000	-0.699218
	43.600000	-0.676655
	43.605000	-0.570284
	43.610000	-0.599294
	43.615000	-0.702441
	43.620000	-0.670208
	43.625000	-0.570284
	43.630000	-0.596071
	43.635000	-0.699218
	43.640000	-0.666985
	43.645000	-0.573507
	43.650000	-0.586401
	43.655000	-0.699218
	43.660000	-0.673431
	43.665000	-0.567060
	43.670000	-0.589624
	43.675000	-0.695995
	43.680000	-0.670208
	43.685000	-0.563837
	43.690000	-0.589624
	43.695000	-0.695995
	43.700000	-0.670208
	43.705000	-0.576730
	43.710000	-0.592847
	43.715000	-0.695995
	43.720000	-0.673431
	43.725000	-0.570284
	43.730000	-0.592847
	43.735000	-0.692771
	43.740000	-0.670208
	43.745000	-0.567060
	43.750000	-0.589624
	43.755000	-0.695995
	43.760000	-0.670208
	43.765000	-0.576730
	43.770000	-0.592847
	43.775000	-0.695995
	43.780000	-0.676655
	43.785000	-0.573507
	43.790000	-0.592847
	43.795000	-0.695995
	43.800000	-0.679878
	43.805000	-0.567060
	43.810000	-0.586401
	43.815000	-0.695995
	43.820000	-0.676655
	43.825000	-0.570284
	43.830000	-0.592847
	43.835000	-0.695995
	43.840000	-0.673431
	43.845000	-0.567060
	43.850000	-0.592847
	43.855000	-0.702441
	43.860000	-0.676655
	43.865000	-0.567060
	43.870000	-0.589624
	43.875000	-0.692771
	43.880000	-0.670208
	43.885000	-0.573507
	43.890000	-0.592847
	43.895000	-0.692771
	43.900000	-0.663761
	43.905000	-0.563837
	43.910000	-0.592847
	43.915000	-0.689548
	43.920000	-0.666985
	43.925000	-0.567060
	43.930000	-0.596071
	43.935000	-0.689548
	43.940000	-0.660538
	43.945000	-0.560614
	43.950000	-0.592847
	43.955000	-0.695995
	43.960000	-0.670208
	43.965000	-0.563837
	43.970000	-0.586401
	43.975000	-0.692771
	43.980000	-0.666985
	43.985000	-0.557390
	43.990000	-0.583177
	43.995000	-0.686325
	44.000000	-0.654091
	44.005000	-0.557390
	44.010000	-0.579954
	44.015000	-0.679878
	44.020000	-0.663761
	44.025000	-0.554167
	44.030000	-0.579954
	44.035000	-0.679878
	44.040000	-0.650868
	44.045000	-0.547720
	44.050000	-0.576730
	44.055000	-0.673431
	44.060000	-0.637974
	44.065000	-0.544497
	44.070000	-0.567060
	44.075000	-0.666985
	44.080000	-0.634751
	44.085000	-0.531603
	44.090000	-0.563837
	44.095000	-0.670208
	44.100000	-0.631528
	44.105000	-0.528380
	44.110000	-0.560614
	44.115000	-0.666985
	44.120000	-0.628304
	44.125000	-0.534827
	44.130000	-0.563837
	44.135000	-0.666985
	44.140000	-0.631528
	44.145000	-0.534827
	44.150000	-0.554167
	44.155000	-0.663761
	44.160000	-0.628304
	44.165000	-0.531603
	44.170000	-0.560614
	44.175000	-0.673431
	44.180000	-0.634751
	44.185000	-0.538050
	44.190000	-0.576730
	44.195000	-0.666985
	44.200000	-0.641198
	44.205000	-0.547720
	44.210000	-0.579954
	44.215000	-0.679878
	44.220000	-0.647644
	44.225000	-0.550944
	44.230000	-0.570284
	44.235000	-0.676655
	44.240000	-0.647644
	44.245000	-0.550944
	44.250000	-0.576730
	44.255000	-0.676655
	44.260000	-0.647644
	44.265000	-0.547720
	44.270000	-0.573507
	44.275000	-0.676655
	44.280000	-0.644421
	44.285000	-0.544497
	44.290000	-0.576730
	44.295000	-0.679878
	44.300000	-0.650868
	44.305000	-0.541274
	44.310000	-0.570284
	44.315000	-0.676655
	44.320000	-0.641198
	44.325000	-0.538050
	44.330000	-0.570284
	44.335000	-0.670208
	44.340000	-0.625081
	44.345000	-0.518710
	44.350000	-0.541274
	44.355000	-0.644421
	44.360000	-0.605741
	44.365000	-0.509040
	44.370000	-0.528380
	44.375000	-0.628304
	44.380000	-0.596071
	44.385000	-0.499370
	44.390000	-0.525157
	44.395000	-0.618634
	44.400000	-0.589624
	44.405000	-0.489700
	44.410000	-0.515487
	44.415000	-0.618634
	44.420000	-0.579954
	44.425000	-0.486476
	44.430000	-0.518710
	44.435000	-0.615411
	44.440000	-0.576730
	44.445000	-0.483253
	44.450000	-0.518710
	44.455000	-0.612187
	44.460000	-0.576730
	44.465000	-0.480030
	44.470000	-0.509040
	44.475000	-0.605741
	44.480000	-0.573507
	44.485000	-0.483253
	44.490000	-0.502593
	44.495000	-0.612187
	44.500000	-0.576730
	44.505000	-0.476806
	44.510000	-0.509040
	44.515000	-0.615411
	44.520000	-0.573507
	44.525000	-0.476806
	44.530000	-0.502593
	44.535000	-0.608964
	44.540000	-0.570284
	44.545000	-0.476806
	44.550000	-0.515487
	44.555000	-0.605741
	44.560000	-0.579954
	44.565000	-0.480030
	44.570000	-0.515487
	44.575000	-0.612187
	44.580000	-0.573507
	44.585000	-0.476806
	44.590000	-0.515487
	44.595000	-0.618634
	44.600000	-0.583177
	44.605000	-0.483253
	44.610000	-0.515487
	44.615000	-0.612187
	44.620000	-0.583177
	44.625000	-0.480030
	44.630000	-0.515487
	44.635000	-0.621858
	44.640000	-0.583177
	44.645000	-0.483253
	44.650000	-0.521933
	44.655000	-0.615411
	44.660000	-0.583177
	44.665000	-0.483253
	44.670000	-0.518710
	44.675000	-0.618634
	44.680000	-0.583177
	44.685000	-0.489700
	44.690000	-0.528380
	44.695000	-0.634751
	44.700000	-0.592847
	44.705000	-0.499370
	44.710000	-0.534827
	44.715000	-0.637974
	44.720000	-0.602517
	44.725000	-0.502593
	44.730000	-0.541274
	44.735000	-0.637974
	44.740000	-0.612187
	44.745000	-0.509040
	44.750000	-0.547720
	44.755000	-0.650868
	44.760000	-0.605741
	44.765000	-0.512263
	44.770000	-0.550944
	44.775000	-0.644421
	44.780000	-0.608964
	44.785000	-0.518710
	44.790000	-0.547720
	44.795000	-0.647644
	44.800000	-0.612187
	44.805000	-0.515487
	44.810000	-0.550944
	44.815000	-0.644421
	44.820000	-0.605741
	44.825000	-0.518710
	44.830000	-0.550944
	44.835000	-0.657314
	44.840000	-0.615411
	44.845000	-0.518710
	44.850000	-0.554167
	44.855000	-0.657314
	44.860000	-0.615411
	44.865000	-0.512263
	44.870000	-0.554167
	44.875000	-0.650868
	44.880000	-0.612187
	44.885000	-0.518710
	44.890000	-0.557390
	44.895000	-0.650868
	44.900000	-0.621858
	44.905000	-0.521933
	44.910000	-0.557390
	44.915000	-0.654091
	44.920000	-0.618634
	44.925000	-0.521933
	44.930000	-0.550944
	44.935000	-0.650868
	44.940000	-0.608964
	44.945000	-0.525157
	44.950000	-0.557390
	44.955000	-0.654091
	44.960000	-0.625081
	44.965000	-0.518710
	44.970000	-0.554167
	44.975000	-0.657314
	44.980000	-0.615411
	44.985000	-0.518710
	44.990000	-0.554167
	44.995000	-0.654091
	45.000000	-0.618634
	45.005000	-0.515487
	45.010000	-0.554167
	45.015000	-0.663761
	45.020000	-0.621858
	45.025000	-0.518710
	45.030000	-0.560614
	45.035000	-0.650868
	45.040000	-0.618634
	45.045000	-0.521933
	45.050000	-0.554167
	45.055000	-0.660538
	45.060000	-0.618634
	45.065000	-0.521933
	45.070000	-0.563837
	45.075000	-0.660538
	45.080000	-0.621858
	45.085000	-0.521933
	45.090000	-0.557390
	45.095000	-0.663761
	45.100000	-0.621858
	45.105000	-0.518710
	45.110000	-0.557390
	45.115000	-0.657314
	45.120000	-0.612187
	45.125000	-0.518710
	45.130000	-0.557390
	45.135000	-0.657314
	45.140000	-0.621858
	45.145000	-0.515487
	45.150000	-0.560614
	45.155000	-0.663761
	45.160000	-0.608964
	45.165000	-0.521933
	45.170000	-0.560614
	45.175000	-0.654091
	45.180000	-0.618634
	45.185000	-0.518710
	45.190000	-0.557390
	45.195000	-0.660538
	45.200000	-0.615411
	45.205000	-0.521933
	45.210000	-0.557390
	45.215000	-0.666985
	45.220000	-0.612187
	45.225000	-0.521933
	45.230000	-0.560614
	45.235000	-0.657314
	45.240000	-0.612187
	45.245000	-0.518710
	45.250000	-0.554167
	45.255000	-0.650868
	45.260000	-0.615411
	45.265000	-0.521933
	45.270000	-0.560614
	45.275000	-0.657314
	45.280000	-0.621858
	45.285000	-0.521933
	45.290000	-0.563837
	45.295000	-0.654091
	45.300000	-0.612187
	45.305000	-0.521933
	45.310000	-0.563837
	45.315000	-0.663761
	45.320000	-0.612187
	45.325000	-0.515487
	45.330000	-0.563837
	45.335000	-0.660538
	45.340000	-0.618634
	45.345000	-0.528380
	45.350000	-0.563837
	45.355000	-0.660538
	45.360000	-0.618634
	45.365000	-0.525157
	45.370000	-0.563837
	45.375000	-0.663761
	45.380000	-0.618634
	45.385000	-0.525157
	45.390000	-0.563837
	45.395000	-0.660538
	45.400000	-0.618634
	45.405000	-0.515487
	45.410000	-0.573507
	45.415000	-0.663761
	45.420000	-0.615411
	45.425000	-0.515487
	45.430000	-0.567060
	45.435000	-0.663761
	45.440000	-0.621858
	45.445000	-0.525157
	45.450000	-0.563837
	45.455000	-0.666985
	45.460000	-0.625081
	45.465000	-0.525157
	45.470000	-0.573507
	45.475000	-0.660538
	45.480000	-0.615411
	45.485000	-0.525157
	45.490000	-0.567060
	45.495000	-0.666985
	45.500000	-0.621858
	45.505000	-0.521933
