2024/7/11 	 10:43:05 
 This file comes from Vt only measurement 	 1.000000E-1 
 Voltage Sensitivity 	 0.000000E+0 
 Sampling rate 	 200 
 Number of samples per channel 	 -1 
 No filter from Labview 	 	 	 
 	 
 ***End_of_Header*** 
 	 Time 	  Voltage 	 Filtered Voltage 	 
	0.000000	-0.631528
	0.005000	-0.596071
	0.010000	-0.702441
	0.015000	-0.737898
	0.020000	-0.634751
	0.025000	-0.608964
	0.030000	-0.695995
	0.035000	-0.731452
	0.040000	-0.631528
	0.045000	-0.596071
	0.050000	-0.702441
	0.055000	-0.731452
	0.060000	-0.634751
	0.065000	-0.599294
	0.070000	-0.699218
	0.075000	-0.731452
	0.080000	-0.628304
	0.085000	-0.602517
	0.090000	-0.705665
	0.095000	-0.734675
	0.100000	-0.631528
	0.105000	-0.599294
	0.110000	-0.695995
	0.115000	-0.731452
	0.120000	-0.634751
	0.125000	-0.592847
	0.130000	-0.699218
	0.135000	-0.731452
	0.140000	-0.634751
	0.145000	-0.602517
	0.150000	-0.705665
	0.155000	-0.734675
	0.160000	-0.641198
	0.165000	-0.608964
	0.170000	-0.718558
	0.175000	-0.734675
	0.180000	-0.637974
	0.185000	-0.605741
	0.190000	-0.708888
	0.195000	-0.747569
	0.200000	-0.641198
	0.205000	-0.612187
	0.210000	-0.718558
	0.215000	-0.747569
	0.220000	-0.647644
	0.225000	-0.612187
	0.230000	-0.718558
	0.235000	-0.744345
	0.240000	-0.650868
	0.245000	-0.621858
	0.250000	-0.715335
	0.255000	-0.750792
	0.260000	-0.647644
	0.265000	-0.621858
	0.270000	-0.721782
	0.275000	-0.754015
	0.280000	-0.660538
	0.285000	-0.618634
	0.290000	-0.731452
	0.295000	-0.757239
	0.300000	-0.657314
	0.305000	-0.628304
	0.310000	-0.731452
	0.315000	-0.763685
	0.320000	-0.660538
	0.325000	-0.637974
	0.330000	-0.734675
	0.335000	-0.760462
	0.340000	-0.660538
	0.345000	-0.637974
	0.350000	-0.744345
	0.355000	-0.766909
	0.360000	-0.663761
	0.365000	-0.637974
	0.370000	-0.734675
	0.375000	-0.773355
	0.380000	-0.666985
	0.385000	-0.637974
	0.390000	-0.731452
	0.395000	-0.773355
	0.400000	-0.663761
	0.405000	-0.634751
	0.410000	-0.744345
	0.415000	-0.773355
	0.420000	-0.676655
	0.425000	-0.647644
	0.430000	-0.744345
	0.435000	-0.773355
	0.440000	-0.666985
	0.445000	-0.644421
	0.450000	-0.744345
	0.455000	-0.773355
	0.460000	-0.686325
	0.465000	-0.654091
	0.470000	-0.750792
	0.475000	-0.773355
	0.480000	-0.683101
	0.485000	-0.647644
	0.490000	-0.747569
	0.495000	-0.776579
	0.500000	-0.670208
	0.505000	-0.647644
	0.510000	-0.741122
	0.515000	-0.766909
	0.520000	-0.660538
	0.525000	-0.634751
	0.530000	-0.737898
	0.535000	-0.757239
	0.540000	-0.660538
	0.545000	-0.631528
	0.550000	-0.728228
	0.555000	-0.760462
	0.560000	-0.650868
	0.565000	-0.628304
	0.570000	-0.728228
	0.575000	-0.763685
	0.580000	-0.660538
	0.585000	-0.631528
	0.590000	-0.728228
	0.595000	-0.757239
	0.600000	-0.657314
	0.605000	-0.637974
	0.610000	-0.734675
	0.615000	-0.773355
	0.620000	-0.663761
	0.625000	-0.634751
	0.630000	-0.741122
	0.635000	-0.766909
	0.640000	-0.666985
	0.645000	-0.644421
	0.650000	-0.741122
	0.655000	-0.773355
	0.660000	-0.673431
	0.665000	-0.637974
	0.670000	-0.747569
	0.675000	-0.773355
	0.680000	-0.670208
	0.685000	-0.644421
	0.690000	-0.747569
	0.695000	-0.773355
	0.700000	-0.676655
	0.705000	-0.644421
	0.710000	-0.750792
	0.715000	-0.776579
	0.720000	-0.679878
	0.725000	-0.654091
	0.730000	-0.754015
	0.735000	-0.786249
	0.740000	-0.679878
	0.745000	-0.654091
	0.750000	-0.754015
	0.755000	-0.783025
	0.760000	-0.679878
	0.765000	-0.663761
	0.770000	-0.750792
	0.775000	-0.783025
	0.780000	-0.679878
	0.785000	-0.650868
	0.790000	-0.757239
	0.795000	-0.779802
	0.800000	-0.683101
	0.805000	-0.657314
	0.810000	-0.763685
	0.815000	-0.786249
	0.820000	-0.692771
	0.825000	-0.666985
	0.830000	-0.760462
	0.835000	-0.795919
	0.840000	-0.692771
	0.845000	-0.663761
	0.850000	-0.770132
	0.855000	-0.792696
	0.860000	-0.692771
	0.865000	-0.660538
	0.870000	-0.770132
	0.875000	-0.792696
	0.880000	-0.695995
	0.885000	-0.663761
	0.890000	-0.770132
	0.895000	-0.792696
	0.900000	-0.702441
	0.905000	-0.666985
	0.910000	-0.760462
	0.915000	-0.795919
	0.920000	-0.692771
	0.925000	-0.666985
	0.930000	-0.770132
	0.935000	-0.795919
	0.940000	-0.695995
	0.945000	-0.676655
	0.950000	-0.776579
	0.955000	-0.795919
	0.960000	-0.705665
	0.965000	-0.670208
	0.970000	-0.773355
	0.975000	-0.789472
	0.980000	-0.699218
	0.985000	-0.673431
	0.990000	-0.773355
	0.995000	-0.799142
	1.000000	-0.695995
	1.005000	-0.676655
	1.010000	-0.779802
	1.015000	-0.799142
	1.020000	-0.705665
	1.025000	-0.673431
	1.030000	-0.776579
	1.035000	-0.802366
	1.040000	-0.702441
	1.045000	-0.670208
	1.050000	-0.773355
	1.055000	-0.802366
	1.060000	-0.705665
	1.065000	-0.673431
	1.070000	-0.783025
	1.075000	-0.805589
	1.080000	-0.705665
	1.085000	-0.676655
	1.090000	-0.779802
	1.095000	-0.808812
	1.100000	-0.705665
	1.105000	-0.676655
	1.110000	-0.786249
	1.115000	-0.795919
	1.120000	-0.708888
	1.125000	-0.676655
	1.130000	-0.783025
	1.135000	-0.802366
	1.140000	-0.708888
	1.145000	-0.676655
	1.150000	-0.783025
	1.155000	-0.802366
	1.160000	-0.699218
	1.165000	-0.676655
	1.170000	-0.779802
	1.175000	-0.805589
	1.180000	-0.702441
	1.185000	-0.679878
	1.190000	-0.776579
	1.195000	-0.805589
	1.200000	-0.702441
	1.205000	-0.683101
	1.210000	-0.779802
	1.215000	-0.805589
	1.220000	-0.705665
	1.225000	-0.683101
	1.230000	-0.779802
	1.235000	-0.812036
	1.240000	-0.708888
	1.245000	-0.686325
	1.250000	-0.783025
	1.255000	-0.815259
	1.260000	-0.712112
	1.265000	-0.686325
	1.270000	-0.789472
	1.275000	-0.812036
	1.280000	-0.715335
	1.285000	-0.695995
	1.290000	-0.792696
	1.295000	-0.812036
	1.300000	-0.712112
	1.305000	-0.689548
	1.310000	-0.792696
	1.315000	-0.812036
	1.320000	-0.721782
	1.325000	-0.692771
	1.330000	-0.792696
	1.335000	-0.808812
	1.340000	-0.718558
	1.345000	-0.695995
	1.350000	-0.795919
	1.355000	-0.815259
	1.360000	-0.715335
	1.365000	-0.686325
	1.370000	-0.799142
	1.375000	-0.812036
	1.380000	-0.718558
	1.385000	-0.695995
	1.390000	-0.799142
	1.395000	-0.812036
	1.400000	-0.708888
	1.405000	-0.699218
	1.410000	-0.799142
	1.415000	-0.818482
	1.420000	-0.721782
	1.425000	-0.699218
	1.430000	-0.802366
	1.435000	-0.828152
	1.440000	-0.731452
	1.445000	-0.705665
	1.450000	-0.812036
	1.455000	-0.831376
	1.460000	-0.731452
	1.465000	-0.712112
	1.470000	-0.812036
	1.475000	-0.831376
	1.480000	-0.737898
	1.485000	-0.712112
	1.490000	-0.812036
	1.495000	-0.837823
	1.500000	-0.737898
	1.505000	-0.708888
	1.510000	-0.805589
	1.515000	-0.828152
	1.520000	-0.718558
	1.525000	-0.699218
	1.530000	-0.808812
	1.535000	-0.824929
	1.540000	-0.715335
	1.545000	-0.689548
	1.550000	-0.792696
	1.555000	-0.815259
	1.560000	-0.705665
	1.565000	-0.683101
	1.570000	-0.786249
	1.575000	-0.818482
	1.580000	-0.712112
	1.585000	-0.683101
	1.590000	-0.792696
	1.595000	-0.805589
	1.600000	-0.708888
	1.605000	-0.683101
	1.610000	-0.792696
	1.615000	-0.818482
	1.620000	-0.715335
	1.625000	-0.695995
	1.630000	-0.789472
	1.635000	-0.821706
	1.640000	-0.708888
	1.645000	-0.683101
	1.650000	-0.799142
	1.655000	-0.818482
	1.660000	-0.712112
	1.665000	-0.692771
	1.670000	-0.802366
	1.675000	-0.821706
	1.680000	-0.718558
	1.685000	-0.695995
	1.690000	-0.799142
	1.695000	-0.818482
	1.700000	-0.708888
	1.705000	-0.689548
	1.710000	-0.786249
	1.715000	-0.812036
	1.720000	-0.705665
	1.725000	-0.683101
	1.730000	-0.783025
	1.735000	-0.805589
	1.740000	-0.702441
	1.745000	-0.686325
	1.750000	-0.789472
	1.755000	-0.805589
	1.760000	-0.702441
	1.765000	-0.679878
	1.770000	-0.795919
	1.775000	-0.815259
	1.780000	-0.708888
	1.785000	-0.683101
	1.790000	-0.786249
	1.795000	-0.815259
	1.800000	-0.708888
	1.805000	-0.683101
	1.810000	-0.783025
	1.815000	-0.808812
	1.820000	-0.705665
	1.825000	-0.679878
	1.830000	-0.783025
	1.835000	-0.808812
	1.840000	-0.702441
	1.845000	-0.679878
	1.850000	-0.783025
	1.855000	-0.799142
	1.860000	-0.692771
	1.865000	-0.673431
	1.870000	-0.779802
	1.875000	-0.795919
	1.880000	-0.686325
	1.885000	-0.670208
	1.890000	-0.776579
	1.895000	-0.795919
	1.900000	-0.686325
	1.905000	-0.666985
	1.910000	-0.770132
	1.915000	-0.786249
	1.920000	-0.679878
	1.925000	-0.654091
	1.930000	-0.760462
	1.935000	-0.779802
	1.940000	-0.673431
	1.945000	-0.650868
	1.950000	-0.757239
	1.955000	-0.776579
	1.960000	-0.660538
	1.965000	-0.634751
	1.970000	-0.737898
	1.975000	-0.757239
	1.980000	-0.657314
	1.985000	-0.631528
	1.990000	-0.734675
	1.995000	-0.754015
	2.000000	-0.647644
	2.005000	-0.625081
	2.010000	-0.721782
	2.015000	-0.744345
	2.020000	-0.634751
	2.025000	-0.615411
	2.030000	-0.721782
	2.035000	-0.744345
	2.040000	-0.641198
	2.045000	-0.612187
	2.050000	-0.715335
	2.055000	-0.734675
	2.060000	-0.634751
	2.065000	-0.612187
	2.070000	-0.712112
	2.075000	-0.731452
	2.080000	-0.628304
	2.085000	-0.596071
	2.090000	-0.705665
	2.095000	-0.721782
	2.100000	-0.618634
	2.105000	-0.599294
	2.110000	-0.708888
	2.115000	-0.715335
	2.120000	-0.618634
	2.125000	-0.596071
	2.130000	-0.705665
	2.135000	-0.715335
	2.140000	-0.612187
	2.145000	-0.592847
	2.150000	-0.705665
	2.155000	-0.721782
	2.160000	-0.618634
	2.165000	-0.592847
	2.170000	-0.702441
	2.175000	-0.721782
	2.180000	-0.618634
	2.185000	-0.602517
	2.190000	-0.705665
	2.195000	-0.725005
	2.200000	-0.621858
	2.205000	-0.602517
	2.210000	-0.708888
	2.215000	-0.725005
	2.220000	-0.618634
	2.225000	-0.602517
	2.230000	-0.705665
	2.235000	-0.728228
	2.240000	-0.631528
	2.245000	-0.605741
	2.250000	-0.705665
	2.255000	-0.731452
	2.260000	-0.625081
	2.265000	-0.608964
	2.270000	-0.708888
	2.275000	-0.734675
	2.280000	-0.637974
	2.285000	-0.618634
	2.290000	-0.721782
	2.295000	-0.744345
	2.300000	-0.647644
	2.305000	-0.618634
	2.310000	-0.737898
	2.315000	-0.754015
	2.320000	-0.654091
	2.325000	-0.631528
	2.330000	-0.731452
	2.335000	-0.757239
	2.340000	-0.660538
	2.345000	-0.641198
	2.350000	-0.741122
	2.355000	-0.757239
	2.360000	-0.650868
	2.365000	-0.631528
	2.370000	-0.734675
	2.375000	-0.750792
	2.380000	-0.650868
	2.385000	-0.625081
	2.390000	-0.721782
	2.395000	-0.744345
	2.400000	-0.634751
	2.405000	-0.612187
	2.410000	-0.718558
	2.415000	-0.728228
	2.420000	-0.612187
	2.425000	-0.592847
	2.430000	-0.689548
	2.435000	-0.699218
	2.440000	-0.586401
	2.445000	-0.554167
	2.450000	-0.637974
	2.455000	-0.641198
	2.460000	-0.528380
	2.465000	-0.496147
	2.470000	-0.579954
	2.475000	-0.589624
	2.480000	-0.470360
	2.485000	-0.451019
	2.490000	-0.534827
	2.495000	-0.538050
	2.500000	-0.431679
	2.505000	-0.402669
	2.510000	-0.502593
	2.515000	-0.496147
	2.520000	-0.389776
	2.525000	-0.370436
	2.530000	-0.460690
	2.535000	-0.467136
	2.540000	-0.363989
	2.545000	-0.351095
	2.550000	-0.447796
	2.555000	-0.457466
	2.560000	-0.357542
	2.565000	-0.344649
	2.570000	-0.434903
	2.575000	-0.467136
	2.580000	-0.363989
	2.585000	-0.367212
	2.590000	-0.467136
	2.595000	-0.492923
	2.600000	-0.392999
	2.605000	-0.380106
	2.610000	-0.489700
	2.615000	-0.512263
	2.620000	-0.402669
	2.625000	-0.392999
	2.630000	-0.489700
	2.635000	-0.518710
	2.640000	-0.405892
	2.645000	-0.386552
	2.650000	-0.492923
	2.655000	-0.499370
	2.660000	-0.399446
	2.665000	-0.386552
	2.670000	-0.483253
	2.675000	-0.505817
	2.680000	-0.396222
	2.685000	-0.370436
	2.690000	-0.463913
	2.695000	-0.457466
	2.700000	-0.363989
	2.705000	-0.331755
	2.710000	-0.415563
	2.715000	-0.412339
	2.720000	-0.293075
	2.725000	-0.260841
	2.730000	-0.338202
	2.735000	-0.338202
	2.740000	-0.218938
	2.745000	-0.186704
	2.750000	-0.260841
	2.755000	-0.257618
	2.760000	-0.151247
	2.765000	-0.125460
	2.770000	-0.209268
	2.775000	-0.209268
	2.780000	-0.122237
	2.785000	-0.090003
	2.790000	-0.196374
	2.795000	-0.215714
	2.800000	-0.122237
	2.805000	-0.125460
	2.810000	-0.235054
	2.815000	-0.254395
	2.820000	-0.160917
	2.825000	-0.167364
	2.830000	-0.273735
	2.835000	-0.302745
	2.840000	-0.212491
	2.845000	-0.215714
	2.850000	-0.322085
	2.855000	-0.341425
	2.860000	-0.251171
	2.865000	-0.257618
	2.870000	-0.363989
	2.875000	-0.373659
	2.880000	-0.283405
	2.885000	-0.276958
	2.890000	-0.380106
	2.895000	-0.405892
	2.900000	-0.312415
	2.905000	-0.302745
	2.910000	-0.409116
	2.915000	-0.422009
	2.920000	-0.325308
	2.925000	-0.325308
	2.930000	-0.425233
	2.935000	-0.438126
	2.940000	-0.347872
	2.945000	-0.334979
	2.950000	-0.441349
	2.955000	-0.457466
	2.960000	-0.367212
	2.965000	-0.360765
	2.970000	-0.463913
	2.975000	-0.483253
	2.980000	-0.383329
	2.985000	-0.383329
	2.990000	-0.486476
	2.995000	-0.512263
	3.000000	-0.409116
	3.005000	-0.412339
	3.010000	-0.512263
	3.015000	-0.525157
	3.020000	-0.438126
	3.025000	-0.434903
	3.030000	-0.538050
	3.035000	-0.550944
	3.040000	-0.463913
	3.045000	-0.457466
	3.050000	-0.563837
	3.055000	-0.586401
	3.060000	-0.496147
	3.065000	-0.499370
	3.070000	-0.596071
	3.075000	-0.615411
	3.080000	-0.528380
	3.085000	-0.521933
	3.090000	-0.634751
	3.095000	-0.660538
	3.100000	-0.563837
	3.105000	-0.557390
	3.110000	-0.654091
	3.115000	-0.679878
	3.120000	-0.583177
	3.125000	-0.579954
	3.130000	-0.686325
	3.135000	-0.699218
	3.140000	-0.605741
	3.145000	-0.599294
	3.150000	-0.705665
	3.155000	-0.718558
	3.160000	-0.618634
	3.165000	-0.621858
	3.170000	-0.721782
	3.175000	-0.744345
	3.180000	-0.650868
	3.185000	-0.641198
	3.190000	-0.737898
	3.195000	-0.760462
	3.200000	-0.660538
	3.205000	-0.657314
	3.210000	-0.766909
	3.215000	-0.776579
	3.220000	-0.689548
	3.225000	-0.676655
	3.230000	-0.776579
	3.235000	-0.802366
	3.240000	-0.695995
	3.245000	-0.699218
	3.250000	-0.795919
	3.255000	-0.805589
	3.260000	-0.712112
	3.265000	-0.702441
	3.270000	-0.808812
	3.275000	-0.818482
	3.280000	-0.725005
	3.285000	-0.708888
	3.290000	-0.818482
	3.295000	-0.841046
	3.300000	-0.737898
	3.305000	-0.728228
	3.310000	-0.834599
	3.315000	-0.844269
	3.320000	-0.747569
	3.325000	-0.734675
	3.330000	-0.841046
	3.335000	-0.857163
	3.340000	-0.757239
	3.345000	-0.747569
	3.350000	-0.847493
	3.355000	-0.860386
	3.360000	-0.754015
	3.365000	-0.750792
	3.370000	-0.857163
	3.375000	-0.870056
	3.380000	-0.763685
	3.385000	-0.754015
	3.390000	-0.866833
	3.395000	-0.866833
	3.400000	-0.763685
	3.405000	-0.760462
	3.410000	-0.860386
	3.415000	-0.870056
	3.420000	-0.770132
	3.425000	-0.757239
	3.430000	-0.870056
	3.435000	-0.879726
	3.440000	-0.766909
	3.445000	-0.760462
	3.450000	-0.863609
	3.455000	-0.876503
	3.460000	-0.763685
	3.465000	-0.754015
	3.470000	-0.863609
	3.475000	-0.876503
	3.480000	-0.773355
	3.485000	-0.760462
	3.490000	-0.876503
	3.495000	-0.879726
	3.500000	-0.773355
	3.505000	-0.773355
	3.510000	-0.870056
	3.515000	-0.882950
	3.520000	-0.776579
	3.525000	-0.773355
	3.530000	-0.873280
	3.535000	-0.876503
	3.540000	-0.776579
	3.545000	-0.773355
	3.550000	-0.873280
	3.555000	-0.879726
	3.560000	-0.776579
	3.565000	-0.766909
	3.570000	-0.873280
	3.575000	-0.882950
	3.580000	-0.779802
	3.585000	-0.763685
	3.590000	-0.876503
	3.595000	-0.876503
	3.600000	-0.779802
	3.605000	-0.770132
	3.610000	-0.879726
	3.615000	-0.876503
	3.620000	-0.773355
	3.625000	-0.766909
	3.630000	-0.870056
	3.635000	-0.873280
	3.640000	-0.779802
	3.645000	-0.770132
	3.650000	-0.873280
	3.655000	-0.879726
	3.660000	-0.773355
	3.665000	-0.773355
	3.670000	-0.876503
	3.675000	-0.876503
	3.680000	-0.773355
	3.685000	-0.760462
	3.690000	-0.870056
	3.695000	-0.876503
	3.700000	-0.779802
	3.705000	-0.770132
	3.710000	-0.873280
	3.715000	-0.873280
	3.720000	-0.770132
	3.725000	-0.766909
	3.730000	-0.876503
	3.735000	-0.879726
	3.740000	-0.783025
	3.745000	-0.770132
	3.750000	-0.876503
	3.755000	-0.882950
	3.760000	-0.773355
	3.765000	-0.766909
	3.770000	-0.870056
	3.775000	-0.879726
	3.780000	-0.779802
	3.785000	-0.770132
	3.790000	-0.870056
	3.795000	-0.882950
	3.800000	-0.773355
	3.805000	-0.763685
	3.810000	-0.873280
	3.815000	-0.876503
	3.820000	-0.770132
	3.825000	-0.766909
	3.830000	-0.870056
	3.835000	-0.876503
	3.840000	-0.770132
	3.845000	-0.766909
	3.850000	-0.866833
	3.855000	-0.870056
	3.860000	-0.773355
	3.865000	-0.766909
	3.870000	-0.876503
	3.875000	-0.873280
	3.880000	-0.773355
	3.885000	-0.766909
	3.890000	-0.873280
	3.895000	-0.876503
	3.900000	-0.763685
	3.905000	-0.766909
	3.910000	-0.873280
	3.915000	-0.879726
	3.920000	-0.770132
	3.925000	-0.757239
	3.930000	-0.876503
	3.935000	-0.879726
	3.940000	-0.770132
	3.945000	-0.763685
	3.950000	-0.870056
	3.955000	-0.879726
	3.960000	-0.766909
	3.965000	-0.770132
	3.970000	-0.873280
	3.975000	-0.873280
	3.980000	-0.773355
	3.985000	-0.770132
	3.990000	-0.876503
	3.995000	-0.882950
	4.000000	-0.776579
	4.005000	-0.773355
	4.010000	-0.879726
	4.015000	-0.886173
	4.020000	-0.783025
	4.025000	-0.773355
	4.030000	-0.879726
	4.035000	-0.886173
	4.040000	-0.773355
	4.045000	-0.773355
	4.050000	-0.886173
	4.055000	-0.882950
	4.060000	-0.776579
	4.065000	-0.763685
	4.070000	-0.876503
	4.075000	-0.882950
	4.080000	-0.776579
	4.085000	-0.770132
	4.090000	-0.876503
	4.095000	-0.882950
	4.100000	-0.773355
	4.105000	-0.760462
	4.110000	-0.873280
	4.115000	-0.873280
	4.120000	-0.770132
	4.125000	-0.773355
	4.130000	-0.873280
	4.135000	-0.876503
	4.140000	-0.766909
	4.145000	-0.773355
	4.150000	-0.876503
	4.155000	-0.870056
	4.160000	-0.770132
	4.165000	-0.766909
	4.170000	-0.873280
	4.175000	-0.873280
	4.180000	-0.770132
	4.185000	-0.763685
	4.190000	-0.876503
	4.195000	-0.873280
	4.200000	-0.766909
	4.205000	-0.766909
	4.210000	-0.870056
	4.215000	-0.870056
	4.220000	-0.766909
	4.225000	-0.763685
	4.230000	-0.866833
	4.235000	-0.863609
	4.240000	-0.766909
	4.245000	-0.760462
	4.250000	-0.863609
	4.255000	-0.870056
	4.260000	-0.757239
	4.265000	-0.763685
	4.270000	-0.870056
	4.275000	-0.863609
	4.280000	-0.763685
	4.285000	-0.760462
	4.290000	-0.863609
	4.295000	-0.860386
	4.300000	-0.760462
	4.305000	-0.754015
	4.310000	-0.857163
	4.315000	-0.863609
	4.320000	-0.750792
	4.325000	-0.754015
	4.330000	-0.857163
	4.335000	-0.853939
	4.340000	-0.750792
	4.345000	-0.747569
	4.350000	-0.863609
	4.355000	-0.850716
	4.360000	-0.744345
	4.365000	-0.747569
	4.370000	-0.850716
	4.375000	-0.853939
	4.380000	-0.750792
	4.385000	-0.750792
	4.390000	-0.853939
	4.395000	-0.857163
	4.400000	-0.744345
	4.405000	-0.747569
	4.410000	-0.853939
	4.415000	-0.850716
	4.420000	-0.747569
	4.425000	-0.754015
	4.430000	-0.853939
	4.435000	-0.850716
	4.440000	-0.754015
	4.445000	-0.747569
	4.450000	-0.857163
	4.455000	-0.853939
	4.460000	-0.754015
	4.465000	-0.750792
	4.470000	-0.863609
	4.475000	-0.850716
	4.480000	-0.750792
	4.485000	-0.754015
	4.490000	-0.853939
	4.495000	-0.860386
	4.500000	-0.750792
	4.505000	-0.754015
	4.510000	-0.860386
	4.515000	-0.850716
	4.520000	-0.747569
	4.525000	-0.744345
	4.530000	-0.850716
	4.535000	-0.860386
	4.540000	-0.747569
	4.545000	-0.754015
	4.550000	-0.853939
	4.555000	-0.860386
	4.560000	-0.747569
	4.565000	-0.757239
	4.570000	-0.853939
	4.575000	-0.857163
	4.580000	-0.754015
	4.585000	-0.754015
	4.590000	-0.863609
	4.595000	-0.863609
	4.600000	-0.754015
	4.605000	-0.757239
	4.610000	-0.863609
	4.615000	-0.853939
	4.620000	-0.754015
	4.625000	-0.757239
	4.630000	-0.857163
	4.635000	-0.863609
	4.640000	-0.754015
	4.645000	-0.750792
	4.650000	-0.863609
	4.655000	-0.850716
	4.660000	-0.757239
	4.665000	-0.757239
	4.670000	-0.863609
	4.675000	-0.857163
	4.680000	-0.750792
	4.685000	-0.757239
	4.690000	-0.863609
	4.695000	-0.860386
	4.700000	-0.750792
	4.705000	-0.757239
	4.710000	-0.866833
	4.715000	-0.850716
	4.720000	-0.757239
	4.725000	-0.754015
	4.730000	-0.860386
	4.735000	-0.857163
	4.740000	-0.757239
	4.745000	-0.754015
	4.750000	-0.857163
	4.755000	-0.857163
	4.760000	-0.750792
	4.765000	-0.747569
	4.770000	-0.860386
	4.775000	-0.847493
	4.780000	-0.750792
	4.785000	-0.754015
	4.790000	-0.857163
	4.795000	-0.850716
	4.800000	-0.744345
	4.805000	-0.744345
	4.810000	-0.847493
	4.815000	-0.847493
	4.820000	-0.750792
	4.825000	-0.747569
	4.830000	-0.857163
	4.835000	-0.850716
	4.840000	-0.744345
	4.845000	-0.747569
	4.850000	-0.860386
	4.855000	-0.844269
	4.860000	-0.737898
	4.865000	-0.747569
	4.870000	-0.853939
	4.875000	-0.850716
	4.880000	-0.744345
	4.885000	-0.750792
	4.890000	-0.850716
	4.895000	-0.847493
	4.900000	-0.747569
	4.905000	-0.744345
	4.910000	-0.850716
	4.915000	-0.844269
	4.920000	-0.747569
	4.925000	-0.744345
	4.930000	-0.850716
	4.935000	-0.853939
	4.940000	-0.734675
	4.945000	-0.747569
	4.950000	-0.850716
	4.955000	-0.857163
	4.960000	-0.737898
	4.965000	-0.744345
	4.970000	-0.850716
	4.975000	-0.844269
	4.980000	-0.744345
	4.985000	-0.747569
	4.990000	-0.857163
	4.995000	-0.850716
	5.000000	-0.741122
	5.005000	-0.744345
	5.010000	-0.857163
	5.015000	-0.853939
	5.020000	-0.747569
	5.025000	-0.747569
	5.030000	-0.850716
	5.035000	-0.847493
	5.040000	-0.747569
	5.045000	-0.744345
	5.050000	-0.860386
	5.055000	-0.850716
	5.060000	-0.750792
	5.065000	-0.744345
	5.070000	-0.857163
	5.075000	-0.847493
	5.080000	-0.741122
	5.085000	-0.747569
	5.090000	-0.857163
	5.095000	-0.847493
	5.100000	-0.747569
	5.105000	-0.747569
	5.110000	-0.857163
	5.115000	-0.857163
	5.120000	-0.737898
	5.125000	-0.750792
	5.130000	-0.857163
	5.135000	-0.847493
	5.140000	-0.744345
	5.145000	-0.750792
	5.150000	-0.860386
	5.155000	-0.847493
	5.160000	-0.744345
	5.165000	-0.750792
	5.170000	-0.857163
	5.175000	-0.841046
	5.180000	-0.741122
	5.185000	-0.747569
	5.190000	-0.857163
	5.195000	-0.841046
	5.200000	-0.741122
	5.205000	-0.744345
	5.210000	-0.853939
	5.215000	-0.847493
	5.220000	-0.737898
	5.225000	-0.744345
	5.230000	-0.857163
	5.235000	-0.837823
	5.240000	-0.737898
	5.245000	-0.744345
	5.250000	-0.853939
	5.255000	-0.837823
	5.260000	-0.741122
	5.265000	-0.744345
	5.270000	-0.847493
	5.275000	-0.844269
	5.280000	-0.728228
	5.285000	-0.747569
	5.290000	-0.850716
	5.295000	-0.841046
	5.300000	-0.737898
	5.305000	-0.747569
	5.310000	-0.844269
	5.315000	-0.841046
	5.320000	-0.741122
	5.325000	-0.737898
	5.330000	-0.853939
	5.335000	-0.837823
	5.340000	-0.737898
	5.345000	-0.744345
	5.350000	-0.847493
	5.355000	-0.834599
	5.360000	-0.725005
	5.365000	-0.734675
	5.370000	-0.847493
	5.375000	-0.831376
	5.380000	-0.728228
	5.385000	-0.737898
	5.390000	-0.834599
	5.395000	-0.824929
	5.400000	-0.721782
	5.405000	-0.728228
	5.410000	-0.837823
	5.415000	-0.821706
	5.420000	-0.715335
	5.425000	-0.737898
	5.430000	-0.841046
	5.435000	-0.824929
	5.440000	-0.715335
	5.445000	-0.734675
	5.450000	-0.831376
	5.455000	-0.818482
	5.460000	-0.718558
	5.465000	-0.725005
	5.470000	-0.831376
	5.475000	-0.824929
	5.480000	-0.712112
	5.485000	-0.718558
	5.490000	-0.831376
	5.495000	-0.815259
	5.500000	-0.715335
	5.505000	-0.725005
	5.510000	-0.828152
	5.515000	-0.818482
	5.520000	-0.712112
	5.525000	-0.725005
	5.530000	-0.831376
	5.535000	-0.812036
	5.540000	-0.712112
	5.545000	-0.718558
	5.550000	-0.824929
	5.555000	-0.818482
	5.560000	-0.699218
	5.565000	-0.708888
	5.570000	-0.815259
	5.575000	-0.805589
	5.580000	-0.692771
	5.585000	-0.699218
	5.590000	-0.802366
	5.595000	-0.786249
	5.600000	-0.689548
	5.605000	-0.692771
	5.610000	-0.799142
	5.615000	-0.789472
	5.620000	-0.670208
	5.625000	-0.686325
	5.630000	-0.789472
	5.635000	-0.773355
	5.640000	-0.670208
	5.645000	-0.679878
	5.650000	-0.786249
	5.655000	-0.770132
	5.660000	-0.663761
	5.665000	-0.670208
	5.670000	-0.779802
	5.675000	-0.766909
	5.680000	-0.660538
	5.685000	-0.673431
	5.690000	-0.773355
	5.695000	-0.763685
	5.700000	-0.654091
	5.705000	-0.670208
	5.710000	-0.766909
	5.715000	-0.760462
	5.720000	-0.650868
	5.725000	-0.670208
	5.730000	-0.763685
	5.735000	-0.757239
	5.740000	-0.644421
	5.745000	-0.654091
	5.750000	-0.763685
	5.755000	-0.747569
	5.760000	-0.641198
	5.765000	-0.650868
	5.770000	-0.754015
	5.775000	-0.737898
	5.780000	-0.637974
	5.785000	-0.641198
	5.790000	-0.750792
	5.795000	-0.734675
	5.800000	-0.625081
	5.805000	-0.631528
	5.810000	-0.741122
	5.815000	-0.721782
	5.820000	-0.625081
	5.825000	-0.634751
	5.830000	-0.747569
	5.835000	-0.721782
	5.840000	-0.618634
	5.845000	-0.634751
	5.850000	-0.747569
	5.855000	-0.734675
	5.860000	-0.625081
	5.865000	-0.634751
	5.870000	-0.747569
	5.875000	-0.728228
	5.880000	-0.628304
	5.885000	-0.641198
	5.890000	-0.741122
	5.895000	-0.731452
	5.900000	-0.631528
	5.905000	-0.641198
	5.910000	-0.744345
	5.915000	-0.734675
	5.920000	-0.628304
	5.925000	-0.637974
	5.930000	-0.744345
	5.935000	-0.734675
	5.940000	-0.625081
	5.945000	-0.644421
	5.950000	-0.747569
	5.955000	-0.728228
	5.960000	-0.621858
	5.965000	-0.637974
	5.970000	-0.737898
	5.975000	-0.731452
	5.980000	-0.625081
	5.985000	-0.634751
	5.990000	-0.744345
	5.995000	-0.728228
	6.000000	-0.618634
	6.005000	-0.628304
	6.010000	-0.737898
	6.015000	-0.725005
	6.020000	-0.615411
	6.025000	-0.631528
	6.030000	-0.737898
	6.035000	-0.721782
	6.040000	-0.618634
	6.045000	-0.621858
	6.050000	-0.734675
	6.055000	-0.718558
	6.060000	-0.612187
	6.065000	-0.634751
	6.070000	-0.728228
	6.075000	-0.715335
	6.080000	-0.608964
	6.085000	-0.628304
	6.090000	-0.725005
	6.095000	-0.712112
	6.100000	-0.608964
	6.105000	-0.621858
	6.110000	-0.725005
	6.115000	-0.712112
	6.120000	-0.599294
	6.125000	-0.618634
	6.130000	-0.728228
	6.135000	-0.702441
	6.140000	-0.605741
	6.145000	-0.615411
	6.150000	-0.725005
	6.155000	-0.715335
	6.160000	-0.599294
	6.165000	-0.615411
	6.170000	-0.712112
	6.175000	-0.702441
	6.180000	-0.592847
	6.185000	-0.612187
	6.190000	-0.718558
	6.195000	-0.695995
	6.200000	-0.589624
	6.205000	-0.605741
	6.210000	-0.702441
	6.215000	-0.683101
	6.220000	-0.573507
	6.225000	-0.596071
	6.230000	-0.695995
	6.235000	-0.679878
	6.240000	-0.567060
	6.245000	-0.583177
	6.250000	-0.683101
	6.255000	-0.670208
	6.260000	-0.570284
	6.265000	-0.579954
	6.270000	-0.683101
	6.275000	-0.666985
	6.280000	-0.567060
	6.285000	-0.579954
	6.290000	-0.689548
	6.295000	-0.670208
	6.300000	-0.563837
	6.305000	-0.586401
	6.310000	-0.695995
	6.315000	-0.679878
	6.320000	-0.579954
	6.325000	-0.596071
	6.330000	-0.702441
	6.335000	-0.686325
	6.340000	-0.583177
	6.345000	-0.602517
	6.350000	-0.708888
	6.355000	-0.689548
	6.360000	-0.586401
	6.365000	-0.599294
	6.370000	-0.705665
	6.375000	-0.686325
	6.380000	-0.592847
	6.385000	-0.602517
	6.390000	-0.705665
	6.395000	-0.679878
	6.400000	-0.579954
	6.405000	-0.592847
	6.410000	-0.692771
	6.415000	-0.676655
	6.420000	-0.573507
	6.425000	-0.589624
	6.430000	-0.683101
	6.435000	-0.657314
	6.440000	-0.547720
	6.445000	-0.560614
	6.450000	-0.650868
	6.455000	-0.618634
	6.460000	-0.509040
	6.465000	-0.502593
	6.470000	-0.586401
	6.475000	-0.557390
	6.480000	-0.434903
	6.485000	-0.431679
	6.490000	-0.528380
	6.495000	-0.496147
	6.500000	-0.376882
	6.505000	-0.376882
	6.510000	-0.463913
	6.515000	-0.447796
	6.520000	-0.334979
	6.525000	-0.344649
	6.530000	-0.444573
	6.535000	-0.418786
	6.540000	-0.302745
	6.545000	-0.315638
	6.550000	-0.415563
	6.555000	-0.392999
	6.560000	-0.289852
	6.565000	-0.305968
	6.570000	-0.396222
	6.575000	-0.383329
	6.580000	-0.267288
	6.585000	-0.289852
	6.590000	-0.383329
	6.595000	-0.360765
	6.600000	-0.267288
	6.605000	-0.273735
	6.610000	-0.370436
	6.615000	-0.351095
	6.620000	-0.257618
	6.625000	-0.276958
	6.630000	-0.376882
	6.635000	-0.360765
	6.640000	-0.267288
	6.645000	-0.283405
	6.650000	-0.396222
	6.655000	-0.370436
	6.660000	-0.286628
	6.665000	-0.309192
	6.670000	-0.415563
	6.675000	-0.399446
	6.680000	-0.315638
	6.685000	-0.338202
	6.690000	-0.447796
	6.695000	-0.438126
	6.700000	-0.351095
	6.705000	-0.383329
	6.710000	-0.492923
	6.715000	-0.476806
	6.720000	-0.389776
	6.725000	-0.412339
	6.730000	-0.521933
	6.735000	-0.496147
	6.740000	-0.405892
	6.745000	-0.428456
	6.750000	-0.518710
	6.755000	-0.505817
	6.760000	-0.405892
	6.765000	-0.425233
	6.770000	-0.515487
	6.775000	-0.492923
	6.780000	-0.386552
	6.785000	-0.399446
	6.790000	-0.489700
	6.795000	-0.460690
	6.800000	-0.347872
	6.805000	-0.367212
	6.810000	-0.447796
	6.815000	-0.412339
	6.820000	-0.305968
	6.825000	-0.322085
	6.830000	-0.396222
	6.835000	-0.367212
	6.840000	-0.264065
	6.845000	-0.273735
	6.850000	-0.347872
	6.855000	-0.309192
	6.860000	-0.215714
	6.865000	-0.215714
	6.870000	-0.289852
	6.875000	-0.254395
	6.880000	-0.154470
	6.885000	-0.164141
	6.890000	-0.251171
	6.895000	-0.215714
	6.900000	-0.125460
	6.905000	-0.138354
	6.910000	-0.228608
	6.915000	-0.212491
	6.920000	-0.115790
	6.925000	-0.138354
	6.930000	-0.238278
	6.935000	-0.222161
	6.940000	-0.135130
	6.945000	-0.157694
	6.950000	-0.270511
	6.955000	-0.244725
	6.960000	-0.167364
	6.965000	-0.186704
	6.970000	-0.299522
	6.975000	-0.273735
	6.980000	-0.193151
	6.985000	-0.218938
	6.990000	-0.328532
	6.995000	-0.309192
	7.000000	-0.218938
	7.005000	-0.241501
	7.010000	-0.351095
	7.015000	-0.334979
	7.020000	-0.247948
	7.025000	-0.273735
	7.030000	-0.383329
	7.035000	-0.360765
	7.040000	-0.276958
	7.045000	-0.309192
	7.050000	-0.409116
	7.055000	-0.405892
	7.060000	-0.315638
	7.065000	-0.344649
	7.070000	-0.451019
	7.075000	-0.434903
	7.080000	-0.357542
	7.085000	-0.383329
	7.090000	-0.483253
	7.095000	-0.467136
	7.100000	-0.380106
	7.105000	-0.418786
	7.110000	-0.518710
	7.115000	-0.502593
	7.120000	-0.415563
	7.125000	-0.441349
	7.130000	-0.554167
	7.135000	-0.525157
	7.140000	-0.447796
	7.145000	-0.473583
	7.150000	-0.579954
	7.155000	-0.557390
	7.160000	-0.476806
	7.165000	-0.502593
	7.170000	-0.615411
	7.175000	-0.599294
	7.180000	-0.512263
	7.185000	-0.531603
	7.190000	-0.644421
	7.195000	-0.618634
	7.200000	-0.538050
	7.205000	-0.557390
	7.210000	-0.657314
	7.215000	-0.641198
	7.220000	-0.554167
	7.225000	-0.579954
	7.230000	-0.679878
	7.235000	-0.663761
	7.240000	-0.563837
	7.245000	-0.592847
	7.250000	-0.695995
	7.255000	-0.673431
	7.260000	-0.583177
	7.265000	-0.602517
	7.270000	-0.708888
	7.275000	-0.679878
	7.280000	-0.583177
	7.285000	-0.612187
	7.290000	-0.708888
	7.295000	-0.686325
	7.300000	-0.589624
	7.305000	-0.618634
	7.310000	-0.715335
	7.315000	-0.692771
	7.320000	-0.596071
	7.325000	-0.625081
	7.330000	-0.728228
	7.335000	-0.705665
	7.340000	-0.605741
	7.345000	-0.634751
	7.350000	-0.737898
	7.355000	-0.712112
	7.360000	-0.615411
	7.365000	-0.654091
	7.370000	-0.757239
	7.375000	-0.731452
	7.380000	-0.634751
	7.385000	-0.660538
	7.390000	-0.770132
	7.395000	-0.750792
	7.400000	-0.650868
	7.405000	-0.676655
	7.410000	-0.779802
	7.415000	-0.757239
	7.420000	-0.650868
	7.425000	-0.689548
	7.430000	-0.779802
	7.435000	-0.763685
	7.440000	-0.663761
	7.445000	-0.689548
	7.450000	-0.789472
	7.455000	-0.766909
	7.460000	-0.670208
	7.465000	-0.702441
	7.470000	-0.802366
	7.475000	-0.779802
	7.480000	-0.683101
	7.485000	-0.705665
	7.490000	-0.802366
	7.495000	-0.776579
	7.500000	-0.679878
	7.505000	-0.715335
	7.510000	-0.808812
	7.515000	-0.783025
	7.520000	-0.683101
	7.525000	-0.712112
	7.530000	-0.808812
	7.535000	-0.779802
	7.540000	-0.695995
	7.545000	-0.708888
	7.550000	-0.805589
	7.555000	-0.776579
	7.560000	-0.676655
	7.565000	-0.705665
	7.570000	-0.802366
	7.575000	-0.779802
	7.580000	-0.676655
	7.585000	-0.699218
	7.590000	-0.805589
	7.595000	-0.779802
	7.600000	-0.676655
	7.605000	-0.708888
	7.610000	-0.805589
	7.615000	-0.773355
	7.620000	-0.670208
	7.625000	-0.699218
	7.630000	-0.799142
	7.635000	-0.773355
	7.640000	-0.670208
	7.645000	-0.702441
	7.650000	-0.799142
	7.655000	-0.766909
	7.660000	-0.676655
	7.665000	-0.702441
	7.670000	-0.808812
	7.675000	-0.773355
	7.680000	-0.673431
	7.685000	-0.702441
	7.690000	-0.802366
	7.695000	-0.773355
	7.700000	-0.676655
	7.705000	-0.705665
	7.710000	-0.808812
	7.715000	-0.770132
	7.720000	-0.673431
	7.725000	-0.708888
	7.730000	-0.805589
	7.735000	-0.779802
	7.740000	-0.676655
	7.745000	-0.699218
	7.750000	-0.805589
	7.755000	-0.770132
	7.760000	-0.676655
	7.765000	-0.699218
	7.770000	-0.799142
	7.775000	-0.773355
	7.780000	-0.670208
	7.785000	-0.702441
	7.790000	-0.795919
	7.795000	-0.770132
	7.800000	-0.666985
	7.805000	-0.699218
	7.810000	-0.795919
	7.815000	-0.770132
	7.820000	-0.666985
	7.825000	-0.692771
	7.830000	-0.792696
	7.835000	-0.770132
	7.840000	-0.666985
	7.845000	-0.695995
	7.850000	-0.799142
	7.855000	-0.766909
	7.860000	-0.666985
	7.865000	-0.692771
	7.870000	-0.789472
	7.875000	-0.754015
	7.880000	-0.654091
	7.885000	-0.686325
	7.890000	-0.786249
	7.895000	-0.754015
	7.900000	-0.654091
	7.905000	-0.679878
	7.910000	-0.786249
	7.915000	-0.747569
	7.920000	-0.650868
	7.925000	-0.683101
	7.930000	-0.786249
	7.935000	-0.757239
	7.940000	-0.654091
	7.945000	-0.686325
	7.950000	-0.786249
	7.955000	-0.763685
	7.960000	-0.650868
	7.965000	-0.676655
	7.970000	-0.783025
	7.975000	-0.750792
	7.980000	-0.650868
	7.985000	-0.692771
	7.990000	-0.783025
	7.995000	-0.750792
	8.000000	-0.650868
	8.005000	-0.689548
	8.010000	-0.786249
	8.015000	-0.747569
	8.020000	-0.647644
	8.025000	-0.679878
	8.030000	-0.779802
	8.035000	-0.750792
	8.040000	-0.657314
	8.045000	-0.676655
	8.050000	-0.779802
	8.055000	-0.747569
	8.060000	-0.647644
	8.065000	-0.683101
	8.070000	-0.779802
	8.075000	-0.750792
	8.080000	-0.657314
	8.085000	-0.689548
	8.090000	-0.789472
	8.095000	-0.747569
	8.100000	-0.644421
	8.105000	-0.679878
	8.110000	-0.779802
	8.115000	-0.750792
	8.120000	-0.654091
	8.125000	-0.686325
	8.130000	-0.779802
	8.135000	-0.750792
	8.140000	-0.650868
	8.145000	-0.683101
	8.150000	-0.783025
	8.155000	-0.754015
	8.160000	-0.654091
	8.165000	-0.683101
	8.170000	-0.776579
	8.175000	-0.754015
	8.180000	-0.647644
	8.185000	-0.683101
	8.190000	-0.779802
	8.195000	-0.757239
	8.200000	-0.650868
	8.205000	-0.686325
	8.210000	-0.786249
	8.215000	-0.754015
	8.220000	-0.647644
	8.225000	-0.689548
	8.230000	-0.789472
	8.235000	-0.750792
	8.240000	-0.647644
	8.245000	-0.686325
	8.250000	-0.783025
	8.255000	-0.747569
	8.260000	-0.654091
	8.265000	-0.686325
	8.270000	-0.783025
	8.275000	-0.750792
	8.280000	-0.647644
	8.285000	-0.689548
	8.290000	-0.783025
	8.295000	-0.747569
	8.300000	-0.647644
	8.305000	-0.683101
	8.310000	-0.786249
	8.315000	-0.757239
	8.320000	-0.650868
	8.325000	-0.686325
	8.330000	-0.786249
	8.335000	-0.754015
	8.340000	-0.654091
	8.345000	-0.676655
	8.350000	-0.779802
	8.355000	-0.747569
	8.360000	-0.644421
	8.365000	-0.683101
	8.370000	-0.773355
	8.375000	-0.747569
	8.380000	-0.644421
	8.385000	-0.679878
	8.390000	-0.779802
	8.395000	-0.747569
	8.400000	-0.644421
	8.405000	-0.676655
	8.410000	-0.776579
	8.415000	-0.731452
	8.420000	-0.641198
	8.425000	-0.676655
	8.430000	-0.773355
	8.435000	-0.741122
	8.440000	-0.634751
	8.445000	-0.679878
	8.450000	-0.776579
	8.455000	-0.741122
	8.460000	-0.641198
	8.465000	-0.673431
	8.470000	-0.773355
	8.475000	-0.731452
	8.480000	-0.634751
	8.485000	-0.679878
	8.490000	-0.773355
	8.495000	-0.731452
	8.500000	-0.631528
	8.505000	-0.663761
	8.510000	-0.766909
	8.515000	-0.731452
	8.520000	-0.637974
	8.525000	-0.673431
	8.530000	-0.770132
	8.535000	-0.734675
	8.540000	-0.641198
	8.545000	-0.670208
	8.550000	-0.763685
	8.555000	-0.737898
	8.560000	-0.641198
	8.565000	-0.666985
	8.570000	-0.770132
	8.575000	-0.721782
	8.580000	-0.631528
	8.585000	-0.657314
	8.590000	-0.760462
	8.595000	-0.731452
	8.600000	-0.631528
	8.605000	-0.666985
	8.610000	-0.770132
	8.615000	-0.728228
	8.620000	-0.631528
	8.625000	-0.670208
	8.630000	-0.760462
	8.635000	-0.728228
	8.640000	-0.628304
	8.645000	-0.666985
	8.650000	-0.760462
	8.655000	-0.728228
	8.660000	-0.625081
	8.665000	-0.654091
	8.670000	-0.770132
	8.675000	-0.728228
	8.680000	-0.631528
	8.685000	-0.666985
	8.690000	-0.766909
	8.695000	-0.728228
	8.700000	-0.631528
	8.705000	-0.666985
	8.710000	-0.766909
	8.715000	-0.728228
	8.720000	-0.628304
	8.725000	-0.663761
	8.730000	-0.763685
	8.735000	-0.718558
	8.740000	-0.628304
	8.745000	-0.666985
	8.750000	-0.770132
	8.755000	-0.718558
	8.760000	-0.628304
	8.765000	-0.670208
	8.770000	-0.763685
	8.775000	-0.734675
	8.780000	-0.631528
	8.785000	-0.666985
	8.790000	-0.770132
	8.795000	-0.734675
	8.800000	-0.625081
	8.805000	-0.666985
	8.810000	-0.770132
	8.815000	-0.728228
	8.820000	-0.628304
	8.825000	-0.663761
	8.830000	-0.766909
	8.835000	-0.728228
	8.840000	-0.631528
	8.845000	-0.666985
	8.850000	-0.763685
	8.855000	-0.725005
	8.860000	-0.634751
	8.865000	-0.670208
	8.870000	-0.766909
	8.875000	-0.728228
	8.880000	-0.631528
	8.885000	-0.670208
	8.890000	-0.770132
	8.895000	-0.725005
	8.900000	-0.631528
	8.905000	-0.666985
	8.910000	-0.763685
	8.915000	-0.728228
	8.920000	-0.631528
	8.925000	-0.663761
	8.930000	-0.766909
	8.935000	-0.721782
	8.940000	-0.621858
	8.945000	-0.663761
	8.950000	-0.760462
	8.955000	-0.721782
	8.960000	-0.621858
	8.965000	-0.670208
	8.970000	-0.760462
	8.975000	-0.718558
	8.980000	-0.625081
	8.985000	-0.657314
	8.990000	-0.760462
	8.995000	-0.721782
	9.000000	-0.618634
	9.005000	-0.663761
	9.010000	-0.763685
	9.015000	-0.718558
	9.020000	-0.625081
	9.025000	-0.663761
	9.030000	-0.763685
	9.035000	-0.718558
	9.040000	-0.621858
	9.045000	-0.666985
	9.050000	-0.760462
	9.055000	-0.715335
	9.060000	-0.618634
	9.065000	-0.660538
	9.070000	-0.760462
	9.075000	-0.712112
	9.080000	-0.621858
	9.085000	-0.663761
	9.090000	-0.750792
	9.095000	-0.718558
	9.100000	-0.612187
	9.105000	-0.657314
	9.110000	-0.760462
	9.115000	-0.715335
	9.120000	-0.612187
	9.125000	-0.657314
	9.130000	-0.750792
	9.135000	-0.715335
	9.140000	-0.612187
	9.145000	-0.654091
	9.150000	-0.754015
	9.155000	-0.699218
	9.160000	-0.605741
	9.165000	-0.654091
	9.170000	-0.750792
	9.175000	-0.712112
	9.180000	-0.615411
	9.185000	-0.654091
	9.190000	-0.757239
	9.195000	-0.702441
	9.200000	-0.612187
	9.205000	-0.650868
	9.210000	-0.754015
	9.215000	-0.702441
	9.220000	-0.608964
	9.225000	-0.654091
	9.230000	-0.750792
	9.235000	-0.702441
	9.240000	-0.602517
	9.245000	-0.647644
	9.250000	-0.737898
	9.255000	-0.702441
	9.260000	-0.605741
	9.265000	-0.647644
	9.270000	-0.744345
	9.275000	-0.705665
	9.280000	-0.612187
	9.285000	-0.650868
	9.290000	-0.744345
	9.295000	-0.705665
	9.300000	-0.605741
	9.305000	-0.657314
	9.310000	-0.737898
	9.315000	-0.695995
	9.320000	-0.605741
	9.325000	-0.650868
	9.330000	-0.737898
	9.335000	-0.699218
	9.340000	-0.599294
	9.345000	-0.647644
	9.350000	-0.737898
	9.355000	-0.695995
	9.360000	-0.599294
	9.365000	-0.641198
	9.370000	-0.737898
	9.375000	-0.695995
	9.380000	-0.599294
	9.385000	-0.641198
	9.390000	-0.741122
	9.395000	-0.692771
	9.400000	-0.599294
	9.405000	-0.647644
	9.410000	-0.744345
	9.415000	-0.689548
	9.420000	-0.599294
	9.425000	-0.647644
	9.430000	-0.744345
	9.435000	-0.699218
	9.440000	-0.596071
	9.445000	-0.647644
	9.450000	-0.747569
	9.455000	-0.695995
	9.460000	-0.602517
	9.465000	-0.647644
	9.470000	-0.744345
	9.475000	-0.695995
	9.480000	-0.599294
	9.485000	-0.647644
	9.490000	-0.750792
	9.495000	-0.695995
	9.500000	-0.605741
	9.505000	-0.657314
	9.510000	-0.750792
	9.515000	-0.699218
	9.520000	-0.612187
	9.525000	-0.650868
	9.530000	-0.750792
	9.535000	-0.702441
	9.540000	-0.618634
	9.545000	-0.660538
	9.550000	-0.754015
	9.555000	-0.712112
	9.560000	-0.615411
	9.565000	-0.663761
	9.570000	-0.754015
	9.575000	-0.712112
	9.580000	-0.612187
	9.585000	-0.657314
	9.590000	-0.757239
	9.595000	-0.708888
	9.600000	-0.625081
	9.605000	-0.663761
	9.610000	-0.766909
	9.615000	-0.712112
	9.620000	-0.621858
	9.625000	-0.673431
	9.630000	-0.766909
	9.635000	-0.718558
	9.640000	-0.625081
	9.645000	-0.676655
	9.650000	-0.766909
	9.655000	-0.721782
	9.660000	-0.625081
	9.665000	-0.676655
	9.670000	-0.770132
	9.675000	-0.721782
	9.680000	-0.625081
	9.685000	-0.676655
	9.690000	-0.766909
	9.695000	-0.718558
	9.700000	-0.625081
	9.705000	-0.670208
	9.710000	-0.770132
	9.715000	-0.728228
	9.720000	-0.621858
	9.725000	-0.670208
	9.730000	-0.770132
	9.735000	-0.718558
	9.740000	-0.628304
	9.745000	-0.673431
	9.750000	-0.770132
	9.755000	-0.718558
	9.760000	-0.621858
	9.765000	-0.670208
	9.770000	-0.766909
	9.775000	-0.712112
	9.780000	-0.615411
	9.785000	-0.660538
	9.790000	-0.766909
	9.795000	-0.708888
	9.800000	-0.618634
	9.805000	-0.666985
	9.810000	-0.763685
	9.815000	-0.708888
	9.820000	-0.612187
	9.825000	-0.654091
	9.830000	-0.757239
	9.835000	-0.702441
	9.840000	-0.608964
	9.845000	-0.650868
	9.850000	-0.741122
	9.855000	-0.702441
	9.860000	-0.596071
	9.865000	-0.650868
	9.870000	-0.744345
	9.875000	-0.695995
	9.880000	-0.592847
	9.885000	-0.641198
	9.890000	-0.728228
	9.895000	-0.676655
	9.900000	-0.589624
	9.905000	-0.634751
	9.910000	-0.734675
	9.915000	-0.673431
	9.920000	-0.583177
	9.925000	-0.625081
	9.930000	-0.725005
	9.935000	-0.666985
	9.940000	-0.579954
	9.945000	-0.625081
	9.950000	-0.728228
	9.955000	-0.673431
	9.960000	-0.570284
	9.965000	-0.618634
	9.970000	-0.715335
	9.975000	-0.663761
	9.980000	-0.570284
	9.985000	-0.618634
	9.990000	-0.718558
	9.995000	-0.657314
	10.000000	-0.563837
	10.005000	-0.612187
	10.010000	-0.708888
	10.015000	-0.657314
	10.020000	-0.554167
	10.025000	-0.612187
	10.030000	-0.699218
	10.035000	-0.647644
	10.040000	-0.547720
	10.045000	-0.605741
	10.050000	-0.699218
	10.055000	-0.641198
	10.060000	-0.544497
	10.065000	-0.599294
	10.070000	-0.692771
	10.075000	-0.628304
	10.080000	-0.541274
	10.085000	-0.586401
	10.090000	-0.679878
	10.095000	-0.628304
	10.100000	-0.531603
	10.105000	-0.576730
	10.110000	-0.676655
	10.115000	-0.618634
	10.120000	-0.518710
	10.125000	-0.563837
	10.130000	-0.657314
	10.135000	-0.605741
	10.140000	-0.509040
	10.145000	-0.563837
	10.150000	-0.644421
	10.155000	-0.596071
	10.160000	-0.499370
	10.165000	-0.550944
	10.170000	-0.644421
	10.175000	-0.589624
	10.180000	-0.499370
	10.185000	-0.550944
	10.190000	-0.641198
	10.195000	-0.589624
	10.200000	-0.499370
	10.205000	-0.547720
	10.210000	-0.641198
	10.215000	-0.583177
	10.220000	-0.489700
	10.225000	-0.547720
	10.230000	-0.644421
	10.235000	-0.589624
	10.240000	-0.492923
	10.245000	-0.541274
	10.250000	-0.634751
	10.255000	-0.576730
	10.260000	-0.489700
	10.265000	-0.541274
	10.270000	-0.634751
	10.275000	-0.576730
	10.280000	-0.483253
	10.285000	-0.528380
	10.290000	-0.628304
	10.295000	-0.567060
	10.300000	-0.480030
	10.305000	-0.528380
	10.310000	-0.612187
	10.315000	-0.560614
	10.320000	-0.473583
	10.325000	-0.525157
	10.330000	-0.612187
	10.335000	-0.550944
	10.340000	-0.460690
	10.345000	-0.515487
	10.350000	-0.599294
	10.355000	-0.544497
	10.360000	-0.457466
	10.365000	-0.509040
	10.370000	-0.599294
	10.375000	-0.538050
	10.380000	-0.444573
	10.385000	-0.505817
	10.390000	-0.589624
	10.395000	-0.528380
	10.400000	-0.441349
	10.405000	-0.486476
	10.410000	-0.576730
	10.415000	-0.521933
	10.420000	-0.431679
	10.425000	-0.489700
	10.430000	-0.567060
	10.435000	-0.518710
	10.440000	-0.422009
	10.445000	-0.476806
	10.450000	-0.557390
	10.455000	-0.502593
	10.460000	-0.415563
	10.465000	-0.463913
	10.470000	-0.550944
	10.475000	-0.489700
	10.480000	-0.402669
	10.485000	-0.457466
	10.490000	-0.534827
	10.495000	-0.492923
	10.500000	-0.396222
	10.505000	-0.454243
	10.510000	-0.541274
	10.515000	-0.483253
	10.520000	-0.399446
	10.525000	-0.444573
	10.530000	-0.538050
	10.535000	-0.476806
	10.540000	-0.396222
	10.545000	-0.444573
	10.550000	-0.534827
	10.555000	-0.476806
	10.560000	-0.392999
	10.565000	-0.444573
	10.570000	-0.528380
	10.575000	-0.470360
	10.580000	-0.392999
	10.585000	-0.447796
	10.590000	-0.538050
	10.595000	-0.480030
	10.600000	-0.392999
	10.605000	-0.447796
	10.610000	-0.531603
	10.615000	-0.473583
	10.620000	-0.396222
	10.625000	-0.451019
	10.630000	-0.534827
	10.635000	-0.486476
	10.640000	-0.405892
	10.645000	-0.454243
	10.650000	-0.538050
	10.655000	-0.473583
	10.660000	-0.399446
	10.665000	-0.454243
	10.670000	-0.534827
	10.675000	-0.480030
	10.680000	-0.399446
	10.685000	-0.447796
	10.690000	-0.541274
	10.695000	-0.480030
	10.700000	-0.389776
	10.705000	-0.441349
	10.710000	-0.528380
	10.715000	-0.470360
	10.720000	-0.373659
	10.725000	-0.422009
	10.730000	-0.509040
	10.735000	-0.444573
	10.740000	-0.360765
	10.745000	-0.405892
	10.750000	-0.489700
	10.755000	-0.425233
	10.760000	-0.334979
	10.765000	-0.392999
	10.770000	-0.470360
	10.775000	-0.405892
	10.780000	-0.315638
	10.785000	-0.363989
	10.790000	-0.454243
	10.795000	-0.386552
	10.800000	-0.302745
	10.805000	-0.357542
	10.810000	-0.434903
	10.815000	-0.376882
	10.820000	-0.293075
	10.825000	-0.334979
	10.830000	-0.418786
	10.835000	-0.373659
	10.840000	-0.280181
	10.845000	-0.338202
	10.850000	-0.405892
	10.855000	-0.354319
	10.860000	-0.270511
	10.865000	-0.325308
	10.870000	-0.402669
	10.875000	-0.344649
	10.880000	-0.267288
	10.885000	-0.328532
	10.890000	-0.412339
	10.895000	-0.354319
	10.900000	-0.276958
	10.905000	-0.351095
	10.910000	-0.425233
	10.915000	-0.380106
	10.920000	-0.309192
	10.925000	-0.373659
	10.930000	-0.457466
	10.935000	-0.409116
	10.940000	-0.351095
	10.945000	-0.415563
	10.950000	-0.515487
	10.955000	-0.460690
	10.960000	-0.386552
	10.965000	-0.444573
	10.970000	-0.531603
	10.975000	-0.467136
	10.980000	-0.383329
	10.985000	-0.434903
	10.990000	-0.515487
	10.995000	-0.457466
	11.000000	-0.367212
	11.005000	-0.409116
	11.010000	-0.476806
	11.015000	-0.402669
	11.020000	-0.318862
	11.025000	-0.360765
	11.030000	-0.425233
	11.035000	-0.357542
	11.040000	-0.273735
	11.045000	-0.325308
	11.050000	-0.389776
	11.055000	-0.338202
	11.060000	-0.267288
	11.065000	-0.331755
	11.070000	-0.418786
	11.075000	-0.363989
	11.080000	-0.293075
	11.085000	-0.363989
	11.090000	-0.447796
	11.095000	-0.396222
	11.100000	-0.325308
	11.105000	-0.380106
	11.110000	-0.454243
	11.115000	-0.392999
	11.120000	-0.305968
	11.125000	-0.344649
	11.130000	-0.412339
	11.135000	-0.347872
	11.140000	-0.244725
	11.145000	-0.286628
	11.150000	-0.334979
	11.155000	-0.251171
	11.160000	-0.151247
	11.165000	-0.180257
	11.170000	-0.225384
	11.175000	-0.141577
	11.180000	-0.041653
	11.185000	-0.064216
	11.190000	-0.115790
	11.195000	-0.038430
	11.200000	0.058271
	11.205000	0.019591
	11.210000	-0.044876
	11.215000	0.019591
	11.220000	0.100175
	11.225000	0.051825
	11.230000	-0.022313
	11.235000	0.038931
	11.240000	0.119515
	11.245000	0.064718
	11.250000	-0.009419
	11.255000	0.048601
	11.260000	0.119515
	11.265000	0.061495
	11.270000	-0.015866
	11.275000	0.029261
	11.280000	0.109845
	11.285000	0.045378
	11.290000	-0.031983
	11.295000	0.016368
	11.300000	0.084058
	11.305000	0.022814
	11.310000	-0.060993
	11.315000	0.003474
	11.320000	0.064718
	11.325000	0.000251
	11.330000	-0.080333
	11.335000	-0.019089
	11.340000	0.051825
	11.345000	-0.006196
	11.350000	-0.090003
	11.355000	-0.031983
	11.360000	0.032484
	11.365000	-0.015866
	11.370000	-0.096450
	11.375000	-0.038430
	11.380000	0.035708
	11.385000	-0.019089
	11.390000	-0.090003
	11.395000	-0.031983
	11.400000	0.042154
	11.405000	-0.015866
	11.410000	-0.083557
	11.415000	-0.019089
	11.420000	0.051825
	11.425000	0.000251
	11.430000	-0.070663
	11.435000	-0.015866
	11.440000	0.067941
	11.445000	0.009921
	11.450000	-0.057770
	11.455000	0.000251
	11.460000	0.064718
	11.465000	0.009921
	11.470000	-0.060993
	11.475000	-0.006196
	11.480000	0.058271
	11.485000	0.000251
	11.490000	-0.077110
	11.495000	-0.025536
	11.500000	0.038931
	11.505000	-0.025536
	11.510000	-0.112567
	11.515000	-0.060993
	11.520000	0.003474
	11.525000	-0.064216
	11.530000	-0.144800
	11.535000	-0.093227
	11.540000	-0.031983
	11.545000	-0.099673
	11.550000	-0.186704
	11.555000	-0.131907
	11.560000	-0.067440
	11.565000	-0.135130
	11.570000	-0.228608
	11.575000	-0.170587
	11.580000	-0.109343
	11.585000	-0.183481
	11.590000	-0.260841
	11.595000	-0.206044
	11.600000	-0.144800
	11.605000	-0.209268
	11.610000	-0.293075
	11.615000	-0.244725
	11.620000	-0.180257
	11.625000	-0.244725
	11.630000	-0.322085
	11.635000	-0.270511
	11.640000	-0.199597
	11.645000	-0.270511
	11.650000	-0.347872
	11.655000	-0.293075
	11.660000	-0.222161
	11.665000	-0.289852
	11.670000	-0.367212
	11.675000	-0.309192
	11.680000	-0.238278
	11.685000	-0.312415
	11.690000	-0.386552
	11.695000	-0.331755
	11.700000	-0.260841
	11.705000	-0.331755
	11.710000	-0.405892
	11.715000	-0.357542
	11.720000	-0.280181
	11.725000	-0.341425
	11.730000	-0.431679
	11.735000	-0.360765
	11.740000	-0.299522
	11.745000	-0.367212
	11.750000	-0.444573
	11.755000	-0.386552
	11.760000	-0.318862
	11.765000	-0.386552
	11.770000	-0.460690
	11.775000	-0.402669
	11.780000	-0.338202
	11.785000	-0.399446
	11.790000	-0.483253
	11.795000	-0.425233
	11.800000	-0.347872
	11.805000	-0.422009
	11.810000	-0.499370
	11.815000	-0.441349
	11.820000	-0.370436
	11.825000	-0.434903
	11.830000	-0.518710
	11.835000	-0.460690
	11.840000	-0.389776
	11.845000	-0.457466
	11.850000	-0.531603
	11.855000	-0.473583
	11.860000	-0.405892
	11.865000	-0.467136
	11.870000	-0.538050
	11.875000	-0.486476
	11.880000	-0.415563
	11.885000	-0.486476
	11.890000	-0.554167
	11.895000	-0.489700
	11.900000	-0.422009
	11.905000	-0.489700
	11.910000	-0.567060
	11.915000	-0.505817
	11.920000	-0.438126
	11.925000	-0.509040
	11.930000	-0.576730
	11.935000	-0.509040
	11.940000	-0.441349
	11.945000	-0.509040
	11.950000	-0.592847
	11.955000	-0.518710
	11.960000	-0.444573
	11.965000	-0.512263
	11.970000	-0.586401
	11.975000	-0.528380
	11.980000	-0.454243
	11.985000	-0.521933
	11.990000	-0.592847
	11.995000	-0.525157
	12.000000	-0.463913
	12.005000	-0.528380
	12.010000	-0.602517
	12.015000	-0.541274
	12.020000	-0.460690
	12.025000	-0.531603
	12.030000	-0.612187
	12.035000	-0.538050
	12.040000	-0.470360
	12.045000	-0.534827
	12.050000	-0.612187
	12.055000	-0.544497
	12.060000	-0.473583
	12.065000	-0.538050
	12.070000	-0.608964
	12.075000	-0.541274
	12.080000	-0.473583
	12.085000	-0.544497
	12.090000	-0.615411
	12.095000	-0.547720
	12.100000	-0.470360
	12.105000	-0.541274
	12.110000	-0.625081
	12.115000	-0.544497
	12.120000	-0.473583
	12.125000	-0.547720
	12.130000	-0.621858
	12.135000	-0.550944
	12.140000	-0.483253
	12.145000	-0.544497
	12.150000	-0.625081
	12.155000	-0.554167
	12.160000	-0.492923
	12.165000	-0.560614
	12.170000	-0.631528
	12.175000	-0.557390
	12.180000	-0.496147
	12.185000	-0.563837
	12.190000	-0.641198
	12.195000	-0.570284
	12.200000	-0.499370
	12.205000	-0.570284
	12.210000	-0.644421
	12.215000	-0.576730
	12.220000	-0.509040
	12.225000	-0.567060
	12.230000	-0.647644
	12.235000	-0.579954
	12.240000	-0.512263
	12.245000	-0.570284
	12.250000	-0.650868
	12.255000	-0.589624
	12.260000	-0.509040
	12.265000	-0.579954
	12.270000	-0.654091
	12.275000	-0.579954
	12.280000	-0.515487
	12.285000	-0.589624
	12.290000	-0.657314
	12.295000	-0.586401
	12.300000	-0.521933
	12.305000	-0.586401
	12.310000	-0.660538
	12.315000	-0.586401
	12.320000	-0.518710
	12.325000	-0.592847
	12.330000	-0.663761
	12.335000	-0.589624
	12.340000	-0.528380
	12.345000	-0.596071
	12.350000	-0.666985
	12.355000	-0.586401
	12.360000	-0.528380
	12.365000	-0.596071
	12.370000	-0.663761
	12.375000	-0.589624
	12.380000	-0.525157
	12.385000	-0.592847
	12.390000	-0.657314
	12.395000	-0.583177
	12.400000	-0.521933
	12.405000	-0.596071
	12.410000	-0.654091
	12.415000	-0.586401
	12.420000	-0.518710
	12.425000	-0.583177
	12.430000	-0.663761
	12.435000	-0.592847
	12.440000	-0.521933
	12.445000	-0.596071
	12.450000	-0.666985
	12.455000	-0.589624
	12.460000	-0.518710
	12.465000	-0.599294
	12.470000	-0.670208
	12.475000	-0.589624
	12.480000	-0.525157
	12.485000	-0.592847
	12.490000	-0.663761
	12.495000	-0.579954
	12.500000	-0.512263
	12.505000	-0.583177
	12.510000	-0.660538
	12.515000	-0.579954
	12.520000	-0.509040
	12.525000	-0.579954
	12.530000	-0.647644
	12.535000	-0.573507
	12.540000	-0.505817
	12.545000	-0.576730
	12.550000	-0.647644
	12.555000	-0.567060
	12.560000	-0.502593
	12.565000	-0.570284
	12.570000	-0.634751
	12.575000	-0.570284
	12.580000	-0.486476
	12.585000	-0.563837
	12.590000	-0.637974
	12.595000	-0.560614
	12.600000	-0.489700
	12.605000	-0.554167
	12.610000	-0.631528
	12.615000	-0.547720
	12.620000	-0.476806
	12.625000	-0.547720
	12.630000	-0.618634
	12.635000	-0.544497
	12.640000	-0.476806
	12.645000	-0.538050
	12.650000	-0.612187
	12.655000	-0.531603
	12.660000	-0.463913
	12.665000	-0.541274
	12.670000	-0.602517
	12.675000	-0.531603
	12.680000	-0.460690
	12.685000	-0.538050
	12.690000	-0.605741
	12.695000	-0.534827
	12.700000	-0.457466
	12.705000	-0.534827
	12.710000	-0.605741
	12.715000	-0.525157
	12.720000	-0.460690
	12.725000	-0.531603
	12.730000	-0.605741
	12.735000	-0.531603
	12.740000	-0.460690
	12.745000	-0.538050
	12.750000	-0.608964
	12.755000	-0.525157
	12.760000	-0.457466
	12.765000	-0.531603
	12.770000	-0.602517
	12.775000	-0.525157
	12.780000	-0.463913
	12.785000	-0.534827
	12.790000	-0.605741
	12.795000	-0.528380
	12.800000	-0.457466
	12.805000	-0.534827
	12.810000	-0.602517
	12.815000	-0.528380
	12.820000	-0.457466
	12.825000	-0.528380
	12.830000	-0.608964
	12.835000	-0.528380
	12.840000	-0.454243
	12.845000	-0.538050
	12.850000	-0.608964
	12.855000	-0.525157
	12.860000	-0.460690
	12.865000	-0.538050
	12.870000	-0.602517
	12.875000	-0.531603
	12.880000	-0.460690
	12.885000	-0.538050
	12.890000	-0.612187
	12.895000	-0.531603
	12.900000	-0.463913
	12.905000	-0.547720
	12.910000	-0.608964
	12.915000	-0.538050
	12.920000	-0.463913
	12.925000	-0.547720
	12.930000	-0.612187
	12.935000	-0.534827
	12.940000	-0.470360
	12.945000	-0.550944
	12.950000	-0.615411
	12.955000	-0.534827
	12.960000	-0.473583
	12.965000	-0.541274
	12.970000	-0.608964
	12.975000	-0.528380
	12.980000	-0.460690
	12.985000	-0.550944
	12.990000	-0.608964
	12.995000	-0.534827
	13.000000	-0.470360
	13.005000	-0.554167
	13.010000	-0.615411
	13.015000	-0.541274
	13.020000	-0.470360
	13.025000	-0.554167
	13.030000	-0.621858
	13.035000	-0.531603
	13.040000	-0.473583
	13.045000	-0.560614
	13.050000	-0.625081
	13.055000	-0.541274
	13.060000	-0.483253
	13.065000	-0.557390
	13.070000	-0.628304
	13.075000	-0.547720
	13.080000	-0.483253
	13.085000	-0.560614
	13.090000	-0.621858
	13.095000	-0.544497
	13.100000	-0.480030
	13.105000	-0.560614
	13.110000	-0.628304
	13.115000	-0.547720
	13.120000	-0.476806
	13.125000	-0.554167
	13.130000	-0.621858
	13.135000	-0.531603
	13.140000	-0.483253
	13.145000	-0.554167
	13.150000	-0.621858
	13.155000	-0.541274
	13.160000	-0.483253
	13.165000	-0.554167
	13.170000	-0.615411
	13.175000	-0.544497
	13.180000	-0.480030
	13.185000	-0.560614
	13.190000	-0.621858
	13.195000	-0.544497
	13.200000	-0.480030
	13.205000	-0.557390
	13.210000	-0.625081
	13.215000	-0.534827
	13.220000	-0.476806
	13.225000	-0.557390
	13.230000	-0.618634
	13.235000	-0.534827
	13.240000	-0.473583
	13.245000	-0.550944
	13.250000	-0.618634
	13.255000	-0.538050
	13.260000	-0.473583
	13.265000	-0.560614
	13.270000	-0.605741
	13.275000	-0.534827
	13.280000	-0.470360
	13.285000	-0.550944
	13.290000	-0.612187
	13.295000	-0.531603
	13.300000	-0.470360
	13.305000	-0.550944
	13.310000	-0.612187
	13.315000	-0.528380
	13.320000	-0.473583
	13.325000	-0.547720
	13.330000	-0.615411
	13.335000	-0.521933
	13.340000	-0.470360
	13.345000	-0.547720
	13.350000	-0.612187
	13.355000	-0.525157
	13.360000	-0.467136
	13.365000	-0.547720
	13.370000	-0.608964
	13.375000	-0.531603
	13.380000	-0.467136
	13.385000	-0.547720
	13.390000	-0.618634
	13.395000	-0.525157
	13.400000	-0.470360
	13.405000	-0.547720
	13.410000	-0.608964
	13.415000	-0.528380
	13.420000	-0.460690
	13.425000	-0.554167
	13.430000	-0.608964
	13.435000	-0.521933
	13.440000	-0.463913
	13.445000	-0.547720
	13.450000	-0.608964
	13.455000	-0.521933
	13.460000	-0.470360
	13.465000	-0.550944
	13.470000	-0.608964
	13.475000	-0.531603
	13.480000	-0.463913
	13.485000	-0.554167
	13.490000	-0.608964
	13.495000	-0.531603
	13.500000	-0.470360
	13.505000	-0.550944
	13.510000	-0.608964
	13.515000	-0.531603
	13.520000	-0.463913
	13.525000	-0.554167
	13.530000	-0.605741
	13.535000	-0.525157
	13.540000	-0.473583
	13.545000	-0.550944
	13.550000	-0.612187
	13.555000	-0.534827
	13.560000	-0.476806
	13.565000	-0.557390
	13.570000	-0.618634
	13.575000	-0.538050
	13.580000	-0.473583
	13.585000	-0.560614
	13.590000	-0.625081
	13.595000	-0.538050
	13.600000	-0.483253
	13.605000	-0.560614
	13.610000	-0.631528
	13.615000	-0.541274
	13.620000	-0.480030
	13.625000	-0.563837
	13.630000	-0.625081
	13.635000	-0.550944
	13.640000	-0.480030
	13.645000	-0.570284
	13.650000	-0.631528
	13.655000	-0.544497
	13.660000	-0.483253
	13.665000	-0.570284
	13.670000	-0.634751
	13.675000	-0.544497
	13.680000	-0.489700
	13.685000	-0.576730
	13.690000	-0.634751
	13.695000	-0.547720
	13.700000	-0.492923
	13.705000	-0.573507
	13.710000	-0.641198
	13.715000	-0.544497
	13.720000	-0.489700
	13.725000	-0.573507
	13.730000	-0.634751
	13.735000	-0.547720
	13.740000	-0.492923
	13.745000	-0.576730
	13.750000	-0.634751
	13.755000	-0.547720
	13.760000	-0.483253
	13.765000	-0.579954
	13.770000	-0.634751
	13.775000	-0.550944
	13.780000	-0.496147
	13.785000	-0.570284
	13.790000	-0.634751
	13.795000	-0.544497
	13.800000	-0.489700
	13.805000	-0.576730
	13.810000	-0.634751
	13.815000	-0.547720
	13.820000	-0.489700
	13.825000	-0.576730
	13.830000	-0.631528
	13.835000	-0.550944
	13.840000	-0.489700
	13.845000	-0.579954
	13.850000	-0.628304
	13.855000	-0.547720
	13.860000	-0.489700
	13.865000	-0.573507
	13.870000	-0.634751
	13.875000	-0.544497
	13.880000	-0.489700
	13.885000	-0.573507
	13.890000	-0.631528
	13.895000	-0.547720
	13.900000	-0.492923
	13.905000	-0.573507
	13.910000	-0.625081
	13.915000	-0.541274
	13.920000	-0.486476
	13.925000	-0.576730
	13.930000	-0.628304
	13.935000	-0.544497
	13.940000	-0.486476
	13.945000	-0.573507
	13.950000	-0.634751
	13.955000	-0.531603
	13.960000	-0.486476
	13.965000	-0.567060
	13.970000	-0.625081
	13.975000	-0.547720
	13.980000	-0.492923
	13.985000	-0.589624
	13.990000	-0.631528
	13.995000	-0.544497
	14.000000	-0.489700
	14.005000	-0.576730
	14.010000	-0.634751
	14.015000	-0.541274
	14.020000	-0.489700
	14.025000	-0.576730
	14.030000	-0.631528
	14.035000	-0.544497
	14.040000	-0.483253
	14.045000	-0.576730
	14.050000	-0.631528
	14.055000	-0.544497
	14.060000	-0.486476
	14.065000	-0.576730
	14.070000	-0.631528
	14.075000	-0.544497
	14.080000	-0.486476
	14.085000	-0.576730
	14.090000	-0.634751
	14.095000	-0.544497
	14.100000	-0.489700
	14.105000	-0.576730
	14.110000	-0.631528
	14.115000	-0.547720
	14.120000	-0.486476
	14.125000	-0.573507
	14.130000	-0.634751
	14.135000	-0.538050
	14.140000	-0.483253
	14.145000	-0.570284
	14.150000	-0.631528
	14.155000	-0.534827
	14.160000	-0.486476
	14.165000	-0.573507
	14.170000	-0.618634
	14.175000	-0.531603
	14.180000	-0.489700
	14.185000	-0.570284
	14.190000	-0.625081
	14.195000	-0.544497
	14.200000	-0.480030
	14.205000	-0.573507
	14.210000	-0.618634
	14.215000	-0.528380
	14.220000	-0.480030
	14.225000	-0.579954
	14.230000	-0.625081
	14.235000	-0.531603
	14.240000	-0.483253
	14.245000	-0.576730
	14.250000	-0.631528
	14.255000	-0.534827
	14.260000	-0.489700
	14.265000	-0.573507
	14.270000	-0.631528
	14.275000	-0.538050
	14.280000	-0.486476
	14.285000	-0.570284
	14.290000	-0.621858
	14.295000	-0.531603
	14.300000	-0.480030
	14.305000	-0.570284
	14.310000	-0.625081
	14.315000	-0.531603
	14.320000	-0.483253
	14.325000	-0.576730
	14.330000	-0.628304
	14.335000	-0.534827
	14.340000	-0.486476
	14.345000	-0.573507
	14.350000	-0.631528
	14.355000	-0.538050
	14.360000	-0.480030
	14.365000	-0.576730
	14.370000	-0.628304
	14.375000	-0.531603
	14.380000	-0.492923
	14.385000	-0.573507
	14.390000	-0.631528
	14.395000	-0.538050
	14.400000	-0.496147
	14.405000	-0.583177
	14.410000	-0.628304
	14.415000	-0.541274
	14.420000	-0.496147
	14.425000	-0.589624
	14.430000	-0.634751
	14.435000	-0.538050
	14.440000	-0.496147
	14.445000	-0.583177
	14.450000	-0.637974
	14.455000	-0.541274
	14.460000	-0.496147
	14.465000	-0.592847
	14.470000	-0.634751
	14.475000	-0.544497
	14.480000	-0.499370
	14.485000	-0.592847
	14.490000	-0.637974
	14.495000	-0.544497
	14.500000	-0.496147
	14.505000	-0.592847
	14.510000	-0.641198
	14.515000	-0.557390
	14.520000	-0.512263
	14.525000	-0.592847
	14.530000	-0.647644
	14.535000	-0.560614
	14.540000	-0.512263
	14.545000	-0.608964
	14.550000	-0.650868
	14.555000	-0.557390
	14.560000	-0.509040
	14.565000	-0.618634
	14.570000	-0.663761
	14.575000	-0.576730
	14.580000	-0.528380
	14.585000	-0.628304
	14.590000	-0.670208
	14.595000	-0.579954
	14.600000	-0.541274
	14.605000	-0.634751
	14.610000	-0.689548
	14.615000	-0.589624
	14.620000	-0.550944
	14.625000	-0.644421
	14.630000	-0.699218
	14.635000	-0.605741
	14.640000	-0.570284
	14.645000	-0.660538
	14.650000	-0.705665
	14.655000	-0.618634
	14.660000	-0.567060
	14.665000	-0.679878
	14.670000	-0.721782
	14.675000	-0.625081
	14.680000	-0.583177
	14.685000	-0.689548
	14.690000	-0.731452
	14.695000	-0.637974
	14.700000	-0.589624
	14.705000	-0.699218
	14.710000	-0.734675
	14.715000	-0.650868
	14.720000	-0.596071
	14.725000	-0.686325
	14.730000	-0.744345
	14.735000	-0.644421
	14.740000	-0.605741
	14.745000	-0.695995
	14.750000	-0.741122
	14.755000	-0.644421
	14.760000	-0.599294
	14.765000	-0.699218
	14.770000	-0.744345
	14.775000	-0.644421
	14.780000	-0.592847
	14.785000	-0.699218
	14.790000	-0.741122
	14.795000	-0.644421
	14.800000	-0.592847
	14.805000	-0.695995
	14.810000	-0.731452
	14.815000	-0.631528
	14.820000	-0.592847
	14.825000	-0.689548
	14.830000	-0.721782
	14.835000	-0.625081
	14.840000	-0.586401
	14.845000	-0.683101
	14.850000	-0.718558
	14.855000	-0.621858
	14.860000	-0.573507
	14.865000	-0.679878
	14.870000	-0.715335
	14.875000	-0.618634
	14.880000	-0.567060
	14.885000	-0.663761
	14.890000	-0.705665
	14.895000	-0.602517
	14.900000	-0.570284
	14.905000	-0.660538
	14.910000	-0.705665
	14.915000	-0.605741
	14.920000	-0.557390
	14.925000	-0.647644
	14.930000	-0.692771
	14.935000	-0.592847
	14.940000	-0.547720
	14.945000	-0.654091
	14.950000	-0.689548
	14.955000	-0.589624
	14.960000	-0.554167
	14.965000	-0.644421
	14.970000	-0.686325
	14.975000	-0.589624
	14.980000	-0.554167
	14.985000	-0.650868
	14.990000	-0.692771
	14.995000	-0.592847
	15.000000	-0.547720
	15.005000	-0.657314
	15.010000	-0.695995
	15.015000	-0.602517
	15.020000	-0.550944
	15.025000	-0.657314
	15.030000	-0.702441
	15.035000	-0.599294
	15.040000	-0.563837
	15.045000	-0.666985
	15.050000	-0.699218
	15.055000	-0.605741
	15.060000	-0.563837
	15.065000	-0.657314
	15.070000	-0.699218
	15.075000	-0.605741
	15.080000	-0.570284
	15.085000	-0.663761
	15.090000	-0.702441
	15.095000	-0.612187
	15.100000	-0.567060
	15.105000	-0.663761
	15.110000	-0.712112
	15.115000	-0.599294
	15.120000	-0.563837
	15.125000	-0.666985
	15.130000	-0.708888
	15.135000	-0.608964
	15.140000	-0.563837
	15.145000	-0.673431
	15.150000	-0.702441
	15.155000	-0.602517
	15.160000	-0.570284
	15.165000	-0.666985
	15.170000	-0.708888
	15.175000	-0.599294
	15.180000	-0.567060
	15.185000	-0.663761
	15.190000	-0.699218
	15.195000	-0.599294
	15.200000	-0.567060
	15.205000	-0.666985
	15.210000	-0.705665
	15.215000	-0.599294
	15.220000	-0.567060
	15.225000	-0.666985
	15.230000	-0.695995
	15.235000	-0.602517
	15.240000	-0.557390
	15.245000	-0.666985
	15.250000	-0.695995
	15.255000	-0.589624
	15.260000	-0.557390
	15.265000	-0.654091
	15.270000	-0.695995
	15.275000	-0.592847
	15.280000	-0.547720
	15.285000	-0.650868
	15.290000	-0.689548
	15.295000	-0.583177
	15.300000	-0.541274
	15.305000	-0.644421
	15.310000	-0.683101
	15.315000	-0.576730
	15.320000	-0.541274
	15.325000	-0.637974
	15.330000	-0.676655
	15.335000	-0.570284
	15.340000	-0.528380
	15.345000	-0.641198
	15.350000	-0.670208
	15.355000	-0.573507
	15.360000	-0.528380
	15.365000	-0.631528
	15.370000	-0.666985
	15.375000	-0.563837
	15.380000	-0.528380
	15.385000	-0.631528
	15.390000	-0.663761
	15.395000	-0.563837
	15.400000	-0.528380
	15.405000	-0.625081
	15.410000	-0.666985
	15.415000	-0.550944
	15.420000	-0.521933
	15.425000	-0.621858
	15.430000	-0.657314
	15.435000	-0.547720
	15.440000	-0.518710
	15.445000	-0.605741
	15.450000	-0.650868
	15.455000	-0.534827
	15.460000	-0.502593
	15.465000	-0.608964
	15.470000	-0.634751
	15.475000	-0.534827
	15.480000	-0.492923
	15.485000	-0.602517
	15.490000	-0.631528
	15.495000	-0.531603
	15.500000	-0.489700
	15.505000	-0.592847
	15.510000	-0.625081
	15.515000	-0.525157
	15.520000	-0.492923
	15.525000	-0.596071
	15.530000	-0.625081
	15.535000	-0.521933
	15.540000	-0.489700
	15.545000	-0.589624
	15.550000	-0.618634
	15.555000	-0.512263
	15.560000	-0.486476
	15.565000	-0.583177
	15.570000	-0.608964
	15.575000	-0.505817
	15.580000	-0.473583
	15.585000	-0.576730
	15.590000	-0.599294
	15.595000	-0.496147
	15.600000	-0.467136
	15.605000	-0.567060
	15.610000	-0.592847
	15.615000	-0.492923
	15.620000	-0.463913
	15.625000	-0.563837
	15.630000	-0.596071
	15.635000	-0.486476
	15.640000	-0.451019
	15.645000	-0.554167
	15.650000	-0.576730
	15.655000	-0.476806
	15.660000	-0.454243
	15.665000	-0.544497
	15.670000	-0.583177
	15.675000	-0.483253
	15.680000	-0.451019
	15.685000	-0.547720
	15.690000	-0.576730
	15.695000	-0.473583
	15.700000	-0.447796
	15.705000	-0.550944
	15.710000	-0.573507
	15.715000	-0.470360
	15.720000	-0.428456
	15.725000	-0.534827
	15.730000	-0.560614
	15.735000	-0.444573
	15.740000	-0.418786
	15.745000	-0.512263
	15.750000	-0.538050
	15.755000	-0.422009
	15.760000	-0.392999
	15.765000	-0.486476
	15.770000	-0.502593
	15.775000	-0.399446
	15.780000	-0.363989
	15.785000	-0.467136
	15.790000	-0.480030
	15.795000	-0.376882
	15.800000	-0.341425
	15.805000	-0.444573
	15.810000	-0.454243
	15.815000	-0.344649
	15.820000	-0.318862
	15.825000	-0.415563
	15.830000	-0.428456
	15.835000	-0.322085
	15.840000	-0.283405
	15.845000	-0.380106
	15.850000	-0.396222
	15.855000	-0.296298
	15.860000	-0.260841
	15.865000	-0.357542
	15.870000	-0.373659
	15.875000	-0.257618
	15.880000	-0.238278
	15.885000	-0.328532
	15.890000	-0.347872
	15.895000	-0.244725
	15.900000	-0.209268
	15.905000	-0.302745
	15.910000	-0.322085
	15.915000	-0.206044
	15.920000	-0.180257
	15.925000	-0.276958
	15.930000	-0.299522
	15.935000	-0.193151
	15.940000	-0.164141
	15.945000	-0.264065
	15.950000	-0.276958
	15.955000	-0.177034
	15.960000	-0.141577
	15.965000	-0.247948
	15.970000	-0.270511
	15.975000	-0.167364
	15.980000	-0.148024
	15.985000	-0.244725
	15.990000	-0.264065
	15.995000	-0.167364
	16.000000	-0.148024
	16.005000	-0.244725
	16.010000	-0.273735
	16.015000	-0.186704
	16.020000	-0.157694
	16.025000	-0.264065
	16.030000	-0.293075
	16.035000	-0.202821
	16.040000	-0.193151
	16.045000	-0.296298
	16.050000	-0.322085
	16.055000	-0.241501
	16.060000	-0.225384
	16.065000	-0.341425
	16.070000	-0.360765
	16.075000	-0.283405
	16.080000	-0.283405
	16.085000	-0.383329
	16.090000	-0.405892
	16.095000	-0.322085
	16.100000	-0.305968
	16.105000	-0.399446
	16.110000	-0.418786
	16.115000	-0.315638
	16.120000	-0.280181
	16.125000	-0.373659
	16.130000	-0.383329
	16.135000	-0.273735
	16.140000	-0.241501
	16.145000	-0.328532
	16.150000	-0.338202
	16.155000	-0.225384
	16.160000	-0.196374
	16.165000	-0.283405
	16.170000	-0.289852
	16.175000	-0.183481
	16.180000	-0.151247
	16.185000	-0.241501
	16.190000	-0.235054
	16.195000	-0.125460
	16.200000	-0.099673
	16.205000	-0.177034
	16.210000	-0.180257
	16.215000	-0.070663
	16.220000	-0.044876
	16.225000	-0.131907
	16.230000	-0.154470
	16.235000	-0.057770
	16.240000	-0.035206
	16.245000	-0.151247
	16.250000	-0.170587
	16.255000	-0.083557
	16.260000	-0.073886
	16.265000	-0.193151
	16.270000	-0.218938
	16.275000	-0.138354
	16.280000	-0.135130
	16.285000	-0.251171
	16.290000	-0.283405
	16.295000	-0.199597
	16.300000	-0.196374
	16.305000	-0.309192
	16.310000	-0.338202
	16.315000	-0.247948
	16.320000	-0.244725
	16.325000	-0.354319
	16.330000	-0.373659
	16.335000	-0.276958
	16.340000	-0.270511
	16.345000	-0.380106
	16.350000	-0.399446
	16.355000	-0.318862
	16.360000	-0.296298
	16.365000	-0.412339
	16.370000	-0.425233
	16.375000	-0.328532
	16.380000	-0.318862
	16.385000	-0.418786
	16.390000	-0.447796
	16.395000	-0.357542
	16.400000	-0.341425
	16.405000	-0.451019
	16.410000	-0.463913
	16.415000	-0.376882
	16.420000	-0.367212
	16.425000	-0.470360
	16.430000	-0.486476
	16.435000	-0.392999
	16.440000	-0.376882
	16.445000	-0.480030
	16.450000	-0.499370
	16.455000	-0.405892
	16.460000	-0.399446
	16.465000	-0.499370
	16.470000	-0.515487
	16.475000	-0.422009
	16.480000	-0.412339
	16.485000	-0.512263
	16.490000	-0.538050
	16.495000	-0.438126
	16.500000	-0.425233
	16.505000	-0.531603
	16.510000	-0.547720
	16.515000	-0.444573
	16.520000	-0.447796
	16.525000	-0.544497
	16.530000	-0.567060
	16.535000	-0.473583
	16.540000	-0.463913
	16.545000	-0.567060
	16.550000	-0.570284
	16.555000	-0.483253
	16.560000	-0.483253
	16.565000	-0.583177
	16.570000	-0.589624
	16.575000	-0.492923
	16.580000	-0.492923
	16.585000	-0.596071
	16.590000	-0.605741
	16.595000	-0.515487
	16.600000	-0.502593
	16.605000	-0.608964
	16.610000	-0.618634
	16.615000	-0.525157
	16.620000	-0.512263
	16.625000	-0.618634
	16.630000	-0.631528
	16.635000	-0.534827
	16.640000	-0.525157
	16.645000	-0.631528
	16.650000	-0.637974
	16.655000	-0.544497
	16.660000	-0.538050
	16.665000	-0.641198
	16.670000	-0.647644
	16.675000	-0.547720
	16.680000	-0.547720
	16.685000	-0.657314
	16.690000	-0.663761
	16.695000	-0.567060
	16.700000	-0.557390
	16.705000	-0.657314
	16.710000	-0.666985
	16.715000	-0.563837
	16.720000	-0.560614
	16.725000	-0.673431
	16.730000	-0.666985
	16.735000	-0.563837
	16.740000	-0.567060
	16.745000	-0.666985
	16.750000	-0.676655
	16.755000	-0.573507
	16.760000	-0.570284
	16.765000	-0.676655
	16.770000	-0.673431
	16.775000	-0.576730
	16.780000	-0.570284
	16.785000	-0.673431
	16.790000	-0.676655
	16.795000	-0.573507
	16.800000	-0.573507
	16.805000	-0.679878
	16.810000	-0.692771
	16.815000	-0.589624
	16.820000	-0.579954
	16.825000	-0.683101
	16.830000	-0.692771
	16.835000	-0.589624
	16.840000	-0.589624
	16.845000	-0.692771
	16.850000	-0.699218
	16.855000	-0.589624
	16.860000	-0.583177
	16.865000	-0.689548
	16.870000	-0.702441
	16.875000	-0.592847
	16.880000	-0.586401
	16.885000	-0.692771
	16.890000	-0.702441
	16.895000	-0.592847
	16.900000	-0.586401
	16.905000	-0.692771
	16.910000	-0.692771
	16.915000	-0.589624
	16.920000	-0.586401
	16.925000	-0.692771
	16.930000	-0.695995
	16.935000	-0.592847
	16.940000	-0.589624
	16.945000	-0.699218
	16.950000	-0.692771
	16.955000	-0.589624
	16.960000	-0.586401
	16.965000	-0.692771
	16.970000	-0.692771
	16.975000	-0.592847
	16.980000	-0.589624
	16.985000	-0.686325
	16.990000	-0.692771
	16.995000	-0.579954
	17.000000	-0.579954
	17.005000	-0.686325
	17.010000	-0.689548
	17.015000	-0.583177
	17.020000	-0.579954
	17.025000	-0.689548
	17.030000	-0.689548
	17.035000	-0.576730
	17.040000	-0.579954
	17.045000	-0.683101
	17.050000	-0.683101
	17.055000	-0.576730
	17.060000	-0.573507
	17.065000	-0.676655
	17.070000	-0.679878
	17.075000	-0.567060
	17.080000	-0.573507
	17.085000	-0.666985
	17.090000	-0.670208
	17.095000	-0.557390
	17.100000	-0.560614
	17.105000	-0.660538
	17.110000	-0.654091
	17.115000	-0.554167
	17.120000	-0.567060
	17.125000	-0.660538
	17.130000	-0.650868
	17.135000	-0.550944
	17.140000	-0.550944
	17.145000	-0.654091
	17.150000	-0.650868
	17.155000	-0.538050
	17.160000	-0.541274
	17.165000	-0.637974
	17.170000	-0.641198
	17.175000	-0.541274
	17.180000	-0.538050
	17.185000	-0.634751
	17.190000	-0.637974
	17.195000	-0.528380
	17.200000	-0.534827
	17.205000	-0.634751
	17.210000	-0.628304
	17.215000	-0.531603
	17.220000	-0.531603
	17.225000	-0.631528
	17.230000	-0.628304
	17.235000	-0.521933
	17.240000	-0.525157
	17.245000	-0.637974
	17.250000	-0.631528
	17.255000	-0.531603
	17.260000	-0.525157
	17.265000	-0.631528
	17.270000	-0.628304
	17.275000	-0.521933
	17.280000	-0.534827
	17.285000	-0.641198
	17.290000	-0.628304
	17.295000	-0.531603
	17.300000	-0.534827
	17.305000	-0.641198
	17.310000	-0.637974
	17.315000	-0.521933
	17.320000	-0.528380
	17.325000	-0.634751
	17.330000	-0.628304
	17.335000	-0.534827
	17.340000	-0.538050
	17.345000	-0.637974
	17.350000	-0.634751
	17.355000	-0.531603
	17.360000	-0.528380
	17.365000	-0.628304
	17.370000	-0.621858
	17.375000	-0.518710
	17.380000	-0.512263
	17.385000	-0.615411
	17.390000	-0.599294
	17.395000	-0.496147
	17.400000	-0.489700
	17.405000	-0.586401
	17.410000	-0.573507
	17.415000	-0.470360
	17.420000	-0.463913
	17.425000	-0.570284
	17.430000	-0.547720
	17.435000	-0.434903
	17.440000	-0.431679
	17.445000	-0.541274
	17.450000	-0.518710
	17.455000	-0.409116
	17.460000	-0.418786
	17.465000	-0.518710
	17.470000	-0.496147
	17.475000	-0.392999
	17.480000	-0.392999
	17.485000	-0.492923
	17.490000	-0.476806
	17.495000	-0.376882
	17.500000	-0.380106
	17.505000	-0.473583
	17.510000	-0.470360
	17.515000	-0.360765
	17.520000	-0.376882
	17.525000	-0.473583
	17.530000	-0.454243
	17.535000	-0.360765
	17.540000	-0.367212
	17.545000	-0.467136
	17.550000	-0.451019
	17.555000	-0.360765
	17.560000	-0.360765
	17.565000	-0.460690
	17.570000	-0.457466
	17.575000	-0.357542
	17.580000	-0.360765
	17.585000	-0.470360
	17.590000	-0.457466
	17.595000	-0.347872
	17.600000	-0.370436
	17.605000	-0.470360
	17.610000	-0.460690
	17.615000	-0.363989
	17.620000	-0.367212
	17.625000	-0.476806
	17.630000	-0.457466
	17.635000	-0.363989
	17.640000	-0.370436
	17.645000	-0.476806
	17.650000	-0.467136
	17.655000	-0.370436
	17.660000	-0.367212
	17.665000	-0.483253
	17.670000	-0.463913
	17.675000	-0.363989
	17.680000	-0.383329
	17.685000	-0.489700
	17.690000	-0.463913
	17.695000	-0.370436
	17.700000	-0.380106
	17.705000	-0.483253
	17.710000	-0.467136
	17.715000	-0.367212
	17.720000	-0.380106
	17.725000	-0.486476
	17.730000	-0.476806
	17.735000	-0.373659
	17.740000	-0.392999
	17.745000	-0.486476
	17.750000	-0.473583
	17.755000	-0.376882
	17.760000	-0.380106
	17.765000	-0.492923
	17.770000	-0.476806
	17.775000	-0.373659
	17.780000	-0.389776
	17.785000	-0.486476
	17.790000	-0.467136
	17.795000	-0.367212
	17.800000	-0.386552
	17.805000	-0.486476
	17.810000	-0.476806
	17.815000	-0.380106
	17.820000	-0.389776
	17.825000	-0.486476
	17.830000	-0.467136
	17.835000	-0.370436
	17.840000	-0.383329
	17.845000	-0.489700
	17.850000	-0.476806
	17.855000	-0.380106
	17.860000	-0.389776
	17.865000	-0.489700
	17.870000	-0.476806
	17.875000	-0.373659
	17.880000	-0.396222
	17.885000	-0.499370
	17.890000	-0.480030
	17.895000	-0.376882
	17.900000	-0.392999
	17.905000	-0.489700
	17.910000	-0.480030
	17.915000	-0.383329
	17.920000	-0.396222
	17.925000	-0.499370
	17.930000	-0.489700
	17.935000	-0.380106
	17.940000	-0.399446
	17.945000	-0.509040
	17.950000	-0.489700
	17.955000	-0.392999
	17.960000	-0.412339
	17.965000	-0.505817
	17.970000	-0.489700
	17.975000	-0.396222
	17.980000	-0.412339
	17.985000	-0.521933
	17.990000	-0.499370
	17.995000	-0.402669
	18.000000	-0.422009
	18.005000	-0.521933
	18.010000	-0.509040
	18.015000	-0.405892
	18.020000	-0.434903
	18.025000	-0.538050
	18.030000	-0.512263
	18.035000	-0.418786
	18.040000	-0.438126
	18.045000	-0.544497
	18.050000	-0.525157
	18.055000	-0.425233
	18.060000	-0.444573
	18.065000	-0.550944
	18.070000	-0.531603
	18.075000	-0.434903
	18.080000	-0.457466
	18.085000	-0.557390
	18.090000	-0.541274
	18.095000	-0.441349
	18.100000	-0.467136
	18.105000	-0.560614
	18.110000	-0.544497
	18.115000	-0.451019
	18.120000	-0.476806
	18.125000	-0.570284
	18.130000	-0.554167
	18.135000	-0.460690
	18.140000	-0.480030
	18.145000	-0.579954
	18.150000	-0.554167
	18.155000	-0.460690
	18.160000	-0.483253
	18.165000	-0.579954
	18.170000	-0.554167
	18.175000	-0.457466
	18.180000	-0.483253
	18.185000	-0.576730
	18.190000	-0.557390
	18.195000	-0.457466
	18.200000	-0.473583
	18.205000	-0.579954
	18.210000	-0.550944
	18.215000	-0.451019
	18.220000	-0.473583
	18.225000	-0.579954
	18.230000	-0.550944
	18.235000	-0.454243
	18.240000	-0.476806
	18.245000	-0.573507
	18.250000	-0.547720
	18.255000	-0.451019
	18.260000	-0.480030
	18.265000	-0.567060
	18.270000	-0.554167
	18.275000	-0.451019
	18.280000	-0.470360
	18.285000	-0.583177
	18.290000	-0.550944
	18.295000	-0.451019
	18.300000	-0.476806
	18.305000	-0.583177
	18.310000	-0.554167
	18.315000	-0.457466
	18.320000	-0.483253
	18.325000	-0.579954
	18.330000	-0.557390
	18.335000	-0.463913
	18.340000	-0.483253
	18.345000	-0.583177
	18.350000	-0.567060
	18.355000	-0.463913
	18.360000	-0.489700
	18.365000	-0.596071
	18.370000	-0.567060
	18.375000	-0.463913
	18.380000	-0.496147
	18.385000	-0.602517
	18.390000	-0.573507
	18.395000	-0.476806
	18.400000	-0.505817
	18.405000	-0.605741
	18.410000	-0.579954
	18.415000	-0.476806
	18.420000	-0.512263
	18.425000	-0.612187
	18.430000	-0.583177
	18.435000	-0.489700
	18.440000	-0.521933
	18.445000	-0.621858
	18.450000	-0.596071
	18.455000	-0.496147
	18.460000	-0.525157
	18.465000	-0.631528
	18.470000	-0.596071
	18.475000	-0.502593
	18.480000	-0.541274
	18.485000	-0.634751
	18.490000	-0.608964
	18.495000	-0.521933
	18.500000	-0.554167
	18.505000	-0.654091
	18.510000	-0.618634
	18.515000	-0.531603
	18.520000	-0.554167
	18.525000	-0.657314
	18.530000	-0.631528
	18.535000	-0.531603
	18.540000	-0.560614
	18.545000	-0.660538
	18.550000	-0.637974
	18.555000	-0.534827
	18.560000	-0.557390
	18.565000	-0.670208
	18.570000	-0.637974
	18.575000	-0.541274
	18.580000	-0.563837
	18.585000	-0.660538
	18.590000	-0.631528
	18.595000	-0.528380
	18.600000	-0.567060
	18.605000	-0.663761
	18.610000	-0.621858
	18.615000	-0.525157
	18.620000	-0.554167
	18.625000	-0.654091
	18.630000	-0.608964
	18.635000	-0.518710
	18.640000	-0.544497
	18.645000	-0.637974
	18.650000	-0.602517
	18.655000	-0.505817
	18.660000	-0.528380
	18.665000	-0.625081
	18.670000	-0.586401
	18.675000	-0.489700
	18.680000	-0.515487
	18.685000	-0.612187
	18.690000	-0.579954
	18.695000	-0.473583
	18.700000	-0.505817
	18.705000	-0.599294
	18.710000	-0.560614
	18.715000	-0.463913
	18.720000	-0.489700
	18.725000	-0.586401
	18.730000	-0.554167
	18.735000	-0.463913
	18.740000	-0.483253
	18.745000	-0.586401
	18.750000	-0.544497
	18.755000	-0.447796
	18.760000	-0.476806
	18.765000	-0.573507
	18.770000	-0.534827
	18.775000	-0.431679
	18.780000	-0.460690
	18.785000	-0.554167
	18.790000	-0.531603
	18.795000	-0.425233
	18.800000	-0.454243
	18.805000	-0.550944
	18.810000	-0.512263
	18.815000	-0.412339
	18.820000	-0.441349
	18.825000	-0.538050
	18.830000	-0.499370
	18.835000	-0.402669
	18.840000	-0.434903
	18.845000	-0.534827
	18.850000	-0.492923
	18.855000	-0.399446
	18.860000	-0.425233
	18.865000	-0.525157
	18.870000	-0.489700
	18.875000	-0.392999
	18.880000	-0.422009
	18.885000	-0.528380
	18.890000	-0.486476
	18.895000	-0.389776
	18.900000	-0.418786
	18.905000	-0.518710
	18.910000	-0.470360
	18.915000	-0.380106
	18.920000	-0.412339
	18.925000	-0.505817
	18.930000	-0.470360
	18.935000	-0.370436
	18.940000	-0.405892
	18.945000	-0.509040
	18.950000	-0.470360
	18.955000	-0.367212
	18.960000	-0.409116
	18.965000	-0.499370
	18.970000	-0.470360
	18.975000	-0.370436
	18.980000	-0.399446
	18.985000	-0.496147
	18.990000	-0.457466
	18.995000	-0.360765
	19.000000	-0.396222
	19.005000	-0.489700
	19.010000	-0.451019
	19.015000	-0.363989
	19.020000	-0.399446
	19.025000	-0.489700
	19.030000	-0.451019
	19.035000	-0.354319
	19.040000	-0.392999
	19.045000	-0.486476
	19.050000	-0.444573
	19.055000	-0.351095
	19.060000	-0.383329
	19.065000	-0.476806
	19.070000	-0.444573
	19.075000	-0.341425
	19.080000	-0.376882
	19.085000	-0.480030
	19.090000	-0.444573
	19.095000	-0.344649
	19.100000	-0.380106
	19.105000	-0.476806
	19.110000	-0.444573
	19.115000	-0.347872
	19.120000	-0.386552
	19.125000	-0.483253
	19.130000	-0.447796
	19.135000	-0.360765
	19.140000	-0.399446
	19.145000	-0.492923
	19.150000	-0.454243
	19.155000	-0.363989
	19.160000	-0.402669
	19.165000	-0.505817
	19.170000	-0.454243
	19.175000	-0.370436
	19.180000	-0.409116
	19.185000	-0.512263
	19.190000	-0.463913
	19.195000	-0.376882
	19.200000	-0.418786
	19.205000	-0.509040
	19.210000	-0.470360
	19.215000	-0.380106
	19.220000	-0.428456
	19.225000	-0.525157
	19.230000	-0.476806
	19.235000	-0.392999
	19.240000	-0.428456
	19.245000	-0.528380
	19.250000	-0.483253
	19.255000	-0.399446
	19.260000	-0.438126
	19.265000	-0.538050
	19.270000	-0.489700
	19.275000	-0.409116
	19.280000	-0.447796
	19.285000	-0.541274
	19.290000	-0.502593
	19.295000	-0.412339
	19.300000	-0.451019
	19.305000	-0.547720
	19.310000	-0.502593
	19.315000	-0.415563
	19.320000	-0.454243
	19.325000	-0.547720
	19.330000	-0.505817
	19.335000	-0.422009
	19.340000	-0.463913
	19.345000	-0.557390
	19.350000	-0.515487
	19.355000	-0.431679
	19.360000	-0.476806
	19.365000	-0.567060
	19.370000	-0.531603
	19.375000	-0.438126
	19.380000	-0.483253
	19.385000	-0.576730
	19.390000	-0.547720
	19.395000	-0.457466
	19.400000	-0.502593
	19.405000	-0.592847
	19.410000	-0.557390
	19.415000	-0.463913
	19.420000	-0.515487
	19.425000	-0.605741
	19.430000	-0.563837
	19.435000	-0.480030
	19.440000	-0.518710
	19.445000	-0.615411
	19.450000	-0.573507
	19.455000	-0.483253
	19.460000	-0.528380
	19.465000	-0.631528
	19.470000	-0.583177
	19.475000	-0.492923
	19.480000	-0.538050
	19.485000	-0.631528
	19.490000	-0.589624
	19.495000	-0.499370
	19.500000	-0.547720
	19.505000	-0.631528
	19.510000	-0.586401
	19.515000	-0.496147
	19.520000	-0.544497
	19.525000	-0.634751
	19.530000	-0.586401
	19.535000	-0.492923
	19.540000	-0.538050
	19.545000	-0.631528
	19.550000	-0.576730
	19.555000	-0.489700
	19.560000	-0.534827
	19.565000	-0.618634
	19.570000	-0.573507
	19.575000	-0.483253
	19.580000	-0.521933
	19.585000	-0.618634
	19.590000	-0.567060
	19.595000	-0.483253
	19.600000	-0.525157
	19.605000	-0.615411
	19.610000	-0.567060
	19.615000	-0.473583
	19.620000	-0.515487
	19.625000	-0.612187
	19.630000	-0.557390
	19.635000	-0.467136
	19.640000	-0.512263
	19.645000	-0.608964
	19.650000	-0.547720
	19.655000	-0.454243
	19.660000	-0.502593
	19.665000	-0.589624
	19.670000	-0.531603
	19.675000	-0.444573
	19.680000	-0.496147
	19.685000	-0.579954
	19.690000	-0.528380
	19.695000	-0.434903
	19.700000	-0.476806
	19.705000	-0.567060
	19.710000	-0.509040
	19.715000	-0.415563
	19.720000	-0.467136
	19.725000	-0.560614
	19.730000	-0.502593
	19.735000	-0.412339
	19.740000	-0.467136
	19.745000	-0.547720
	19.750000	-0.492923
	19.755000	-0.412339
	19.760000	-0.460690
	19.765000	-0.544497
	19.770000	-0.489700
	19.775000	-0.405892
	19.780000	-0.451019
	19.785000	-0.541274
	19.790000	-0.486476
	19.795000	-0.399446
	19.800000	-0.454243
	19.805000	-0.541274
	19.810000	-0.480030
	19.815000	-0.399446
	19.820000	-0.451019
	19.825000	-0.541274
	19.830000	-0.486476
	19.835000	-0.389776
	19.840000	-0.441349
	19.845000	-0.531603
	19.850000	-0.470360
	19.855000	-0.392999
	19.860000	-0.438126
	19.865000	-0.521933
	19.870000	-0.463913
	19.875000	-0.380106
	19.880000	-0.434903
	19.885000	-0.512263
	19.890000	-0.451019
	19.895000	-0.360765
	19.900000	-0.415563
	19.905000	-0.502593
	19.910000	-0.434903
	19.915000	-0.341425
	19.920000	-0.392999
	19.925000	-0.470360
	19.930000	-0.409116
	19.935000	-0.322085
	19.940000	-0.373659
	19.945000	-0.451019
	19.950000	-0.392999
	19.955000	-0.309192
	19.960000	-0.357542
	19.965000	-0.441349
	19.970000	-0.373659
	19.975000	-0.289852
	19.980000	-0.334979
	19.985000	-0.418786
	19.990000	-0.351095
	19.995000	-0.270511
	20.000000	-0.318862
	20.005000	-0.402669
	20.010000	-0.341425
	20.015000	-0.254395
	20.020000	-0.309192
	20.025000	-0.383329
	20.030000	-0.325308
	20.035000	-0.244725
	20.040000	-0.296298
	20.045000	-0.383329
	20.050000	-0.331755
	20.055000	-0.257618
	20.060000	-0.315638
	20.065000	-0.415563
	20.070000	-0.370436
	20.075000	-0.302745
	20.080000	-0.363989
	20.085000	-0.457466
	20.090000	-0.418786
	20.095000	-0.351095
	20.100000	-0.409116
	20.105000	-0.505817
	20.110000	-0.460690
	20.115000	-0.376882
	20.120000	-0.438126
	20.125000	-0.528380
	20.130000	-0.470360
	20.135000	-0.392999
	20.140000	-0.451019
	20.145000	-0.525157
	20.150000	-0.460690
	20.155000	-0.376882
	20.160000	-0.418786
	20.165000	-0.502593
	20.170000	-0.431679
	20.175000	-0.344649
	20.180000	-0.389776
	20.185000	-0.460690
	20.190000	-0.389776
	20.195000	-0.302745
	20.200000	-0.344649
	20.205000	-0.415563
	20.210000	-0.341425
	20.215000	-0.254395
	20.220000	-0.293075
	20.225000	-0.357542
	20.230000	-0.293075
	20.235000	-0.193151
	20.240000	-0.238278
	20.245000	-0.296298
	20.250000	-0.225384
	20.255000	-0.144800
	20.260000	-0.196374
	20.265000	-0.260841
	20.270000	-0.206044
	20.275000	-0.135130
	20.280000	-0.196374
	20.285000	-0.270511
	20.290000	-0.222161
	20.295000	-0.154470
	20.300000	-0.206044
	20.305000	-0.302745
	20.310000	-0.247948
	20.315000	-0.177034
	20.320000	-0.241501
	20.325000	-0.331755
	20.330000	-0.289852
	20.335000	-0.206044
	20.340000	-0.280181
	20.345000	-0.363989
	20.350000	-0.309192
	20.355000	-0.235054
	20.360000	-0.299522
	20.365000	-0.389776
	20.370000	-0.331755
	20.375000	-0.264065
	20.380000	-0.315638
	20.385000	-0.399446
	20.390000	-0.351095
	20.395000	-0.276958
	20.400000	-0.341425
	20.405000	-0.422009
	20.410000	-0.367212
	20.415000	-0.289852
	20.420000	-0.354319
	20.425000	-0.438126
	20.430000	-0.383329
	20.435000	-0.312415
	20.440000	-0.380106
	20.445000	-0.454243
	20.450000	-0.405892
	20.455000	-0.328532
	20.460000	-0.389776
	20.465000	-0.473583
	20.470000	-0.405892
	20.475000	-0.344649
	20.480000	-0.412339
	20.485000	-0.483253
	20.490000	-0.431679
	20.495000	-0.351095
	20.500000	-0.425233
	20.505000	-0.505817
	20.510000	-0.447796
	20.515000	-0.370436
	20.520000	-0.444573
	20.525000	-0.525157
	20.530000	-0.463913
	20.535000	-0.392999
	20.540000	-0.463913
	20.545000	-0.541274
	20.550000	-0.480030
	20.555000	-0.405892
	20.560000	-0.473583
	20.565000	-0.557390
	20.570000	-0.492923
	20.575000	-0.428456
	20.580000	-0.499370
	20.585000	-0.573507
	20.590000	-0.509040
	20.595000	-0.438126
	20.600000	-0.502593
	20.605000	-0.589624
	20.610000	-0.528380
	20.615000	-0.454243
	20.620000	-0.521933
	20.625000	-0.602517
	20.630000	-0.544497
	20.635000	-0.467136
	20.640000	-0.531603
	20.645000	-0.612187
	20.650000	-0.550944
	20.655000	-0.480030
	20.660000	-0.538050
	20.665000	-0.625081
	20.670000	-0.563837
	20.675000	-0.489700
	20.680000	-0.554167
	20.685000	-0.637974
	20.690000	-0.583177
	20.695000	-0.499370
	20.700000	-0.573507
	20.705000	-0.650868
	20.710000	-0.576730
	20.715000	-0.512263
	20.720000	-0.583177
	20.725000	-0.660538
	20.730000	-0.596071
	20.735000	-0.525157
	20.740000	-0.589624
	20.745000	-0.663761
	20.750000	-0.596071
	20.755000	-0.528380
	20.760000	-0.592847
	20.765000	-0.679878
	20.770000	-0.615411
	20.775000	-0.534827
	20.780000	-0.608964
	20.785000	-0.683101
	20.790000	-0.612187
	20.795000	-0.538050
	20.800000	-0.602517
	20.805000	-0.679878
	20.810000	-0.612187
	20.815000	-0.541274
	20.820000	-0.615411
	20.825000	-0.692771
	20.830000	-0.618634
	20.835000	-0.541274
	20.840000	-0.615411
	20.845000	-0.695995
	20.850000	-0.625081
	20.855000	-0.547720
	20.860000	-0.615411
	20.865000	-0.689548
	20.870000	-0.618634
	20.875000	-0.547720
	20.880000	-0.612187
	20.885000	-0.689548
	20.890000	-0.621858
	20.895000	-0.550944
	20.900000	-0.621858
	20.905000	-0.699218
	20.910000	-0.625081
	20.915000	-0.550944
	20.920000	-0.621858
	20.925000	-0.699218
	20.930000	-0.625081
	20.935000	-0.554167
	20.940000	-0.621858
	20.945000	-0.695995
	20.950000	-0.637974
	20.955000	-0.557390
	20.960000	-0.625081
	20.965000	-0.699218
	20.970000	-0.634751
	20.975000	-0.554167
	20.980000	-0.625081
	20.985000	-0.699218
	20.990000	-0.625081
	20.995000	-0.550944
	21.000000	-0.631528
	21.005000	-0.705665
	21.010000	-0.628304
	21.015000	-0.560614
	21.020000	-0.631528
	21.025000	-0.702441
	21.030000	-0.628304
	21.035000	-0.557390
	21.040000	-0.631528
	21.045000	-0.699218
	21.050000	-0.634751
	21.055000	-0.557390
	21.060000	-0.631528
	21.065000	-0.699218
	21.070000	-0.631528
	21.075000	-0.560614
	21.080000	-0.631528
	21.085000	-0.702441
	21.090000	-0.621858
	21.095000	-0.560614
	21.100000	-0.631528
	21.105000	-0.708888
	21.110000	-0.637974
	21.115000	-0.567060
	21.120000	-0.641198
	21.125000	-0.708888
	21.130000	-0.637974
	21.135000	-0.570284
	21.140000	-0.644421
	21.145000	-0.715335
	21.150000	-0.637974
	21.155000	-0.570284
	21.160000	-0.647644
	21.165000	-0.712112
	21.170000	-0.634751
	21.175000	-0.570284
	21.180000	-0.641198
	21.185000	-0.718558
	21.190000	-0.637974
	21.195000	-0.573507
	21.200000	-0.650868
	21.205000	-0.715335
	21.210000	-0.634751
	21.215000	-0.573507
	21.220000	-0.641198
	21.225000	-0.715335
	21.230000	-0.634751
	21.235000	-0.567060
	21.240000	-0.637974
	21.245000	-0.712112
	21.250000	-0.631528
	21.255000	-0.560614
	21.260000	-0.644421
	21.265000	-0.708888
	21.270000	-0.634751
	21.275000	-0.560614
	21.280000	-0.631528
	21.285000	-0.705665
	21.290000	-0.625081
	21.295000	-0.550944
	21.300000	-0.631528
	21.305000	-0.699218
	21.310000	-0.621858
	21.315000	-0.557390
	21.320000	-0.628304
	21.325000	-0.702441
	21.330000	-0.621858
	21.335000	-0.550944
	21.340000	-0.625081
	21.345000	-0.702441
	21.350000	-0.618634
	21.355000	-0.550944
	21.360000	-0.621858
	21.365000	-0.695995
	21.370000	-0.612187
	21.375000	-0.544497
	21.380000	-0.621858
	21.385000	-0.692771
	21.390000	-0.608964
	21.395000	-0.544497
	21.400000	-0.618634
	21.405000	-0.689548
	21.410000	-0.612187
	21.415000	-0.544497
	21.420000	-0.612187
	21.425000	-0.686325
	21.430000	-0.612187
	21.435000	-0.541274
	21.440000	-0.628304
	21.445000	-0.686325
	21.450000	-0.605741
	21.455000	-0.538050
	21.460000	-0.612187
	21.465000	-0.686325
	21.470000	-0.605741
	21.475000	-0.541274
	21.480000	-0.612187
	21.485000	-0.679878
	21.490000	-0.599294
	21.495000	-0.531603
	21.500000	-0.612187
	21.505000	-0.679878
	21.510000	-0.596071
	21.515000	-0.531603
	21.520000	-0.605741
	21.525000	-0.676655
	21.530000	-0.589624
	21.535000	-0.528380
	21.540000	-0.605741
	21.545000	-0.670208
	21.550000	-0.586401
	21.555000	-0.525157
	21.560000	-0.608964
	21.565000	-0.670208
	21.570000	-0.586401
	21.575000	-0.525157
	21.580000	-0.612187
	21.585000	-0.670208
	21.590000	-0.592847
	21.595000	-0.528380
	21.600000	-0.608964
	21.605000	-0.670208
	21.610000	-0.586401
	21.615000	-0.525157
	21.620000	-0.608964
	21.625000	-0.673431
	21.630000	-0.586401
	21.635000	-0.525157
	21.640000	-0.605741
	21.645000	-0.676655
	21.650000	-0.592847
	21.655000	-0.531603
	21.660000	-0.608964
	21.665000	-0.679878
	21.670000	-0.592847
	21.675000	-0.531603
	21.680000	-0.618634
	21.685000	-0.670208
	21.690000	-0.599294
	21.695000	-0.528380
	21.700000	-0.605741
	21.705000	-0.676655
	21.710000	-0.596071
	21.715000	-0.534827
	21.720000	-0.612187
	21.725000	-0.670208
	21.730000	-0.596071
	21.735000	-0.525157
	21.740000	-0.615411
	21.745000	-0.673431
	21.750000	-0.583177
	21.755000	-0.528380
	21.760000	-0.612187
	21.765000	-0.666985
	21.770000	-0.592847
	21.775000	-0.528380
	21.780000	-0.608964
	21.785000	-0.670208
	21.790000	-0.586401
	21.795000	-0.525157
	21.800000	-0.608964
	21.805000	-0.670208
	21.810000	-0.579954
	21.815000	-0.515487
	21.820000	-0.605741
	21.825000	-0.660538
	21.830000	-0.583177
	21.835000	-0.521933
	21.840000	-0.612187
	21.845000	-0.663761
	21.850000	-0.579954
	21.855000	-0.521933
	21.860000	-0.612187
	21.865000	-0.670208
	21.870000	-0.579954
	21.875000	-0.521933
	21.880000	-0.602517
	21.885000	-0.660538
	21.890000	-0.579954
	21.895000	-0.531603
	21.900000	-0.605741
	21.905000	-0.670208
	21.910000	-0.579954
	21.915000	-0.528380
	21.920000	-0.605741
	21.925000	-0.670208
	21.930000	-0.579954
	21.935000	-0.528380
	21.940000	-0.608964
	21.945000	-0.660538
	21.950000	-0.579954
	21.955000	-0.518710
	21.960000	-0.608964
	21.965000	-0.663761
	21.970000	-0.573507
	21.975000	-0.521933
	21.980000	-0.602517
	21.985000	-0.666985
	21.990000	-0.576730
	21.995000	-0.521933
	22.000000	-0.605741
	22.005000	-0.666985
	22.010000	-0.576730
	22.015000	-0.515487
	22.020000	-0.599294
	22.025000	-0.663761
	22.030000	-0.573507
	22.035000	-0.518710
	22.040000	-0.605741
	22.045000	-0.663761
	22.050000	-0.583177
	22.055000	-0.515487
	22.060000	-0.599294
	22.065000	-0.666985
	22.070000	-0.573507
	22.075000	-0.521933
	22.080000	-0.615411
	22.085000	-0.666985
	22.090000	-0.579954
	22.095000	-0.521933
	22.100000	-0.608964
	22.105000	-0.660538
	22.110000	-0.567060
	22.115000	-0.525157
	22.120000	-0.608964
	22.125000	-0.663761
	22.130000	-0.570284
	22.135000	-0.521933
	22.140000	-0.608964
	22.145000	-0.663761
	22.150000	-0.583177
	22.155000	-0.525157
	22.160000	-0.615411
	22.165000	-0.670208
	22.170000	-0.576730
	22.175000	-0.531603
	22.180000	-0.612187
	22.185000	-0.670208
	22.190000	-0.576730
	22.195000	-0.525157
	22.200000	-0.615411
	22.205000	-0.666985
	22.210000	-0.583177
	22.215000	-0.525157
	22.220000	-0.615411
	22.225000	-0.660538
	22.230000	-0.576730
	22.235000	-0.528380
	22.240000	-0.612187
	22.245000	-0.666985
	22.250000	-0.576730
	22.255000	-0.525157
	22.260000	-0.625081
	22.265000	-0.673431
	22.270000	-0.576730
	22.275000	-0.525157
	22.280000	-0.618634
	22.285000	-0.676655
	22.290000	-0.579954
	22.295000	-0.525157
	22.300000	-0.628304
	22.305000	-0.676655
	22.310000	-0.579954
	22.315000	-0.521933
	22.320000	-0.621858
	22.325000	-0.676655
	22.330000	-0.586401
	22.335000	-0.531603
	22.340000	-0.625081
	22.345000	-0.673431
	22.350000	-0.579954
	22.355000	-0.528380
	22.360000	-0.621858
	22.365000	-0.666985
	22.370000	-0.586401
	22.375000	-0.528380
	22.380000	-0.625081
	22.385000	-0.670208
	22.390000	-0.589624
	22.395000	-0.534827
	22.400000	-0.625081
	22.405000	-0.683101
	22.410000	-0.579954
	22.415000	-0.534827
	22.420000	-0.631528
	22.425000	-0.683101
	22.430000	-0.576730
	22.435000	-0.538050
	22.440000	-0.631528
	22.445000	-0.686325
	22.450000	-0.583177
	22.455000	-0.531603
	22.460000	-0.621858
	22.465000	-0.676655
	22.470000	-0.583177
	22.475000	-0.538050
	22.480000	-0.628304
	22.485000	-0.679878
	22.490000	-0.586401
	22.495000	-0.538050
	22.500000	-0.631528
	22.505000	-0.676655
	22.510000	-0.586401
	22.515000	-0.534827
	22.520000	-0.625081
	22.525000	-0.670208
	22.530000	-0.579954
	22.535000	-0.538050
	22.540000	-0.625081
	22.545000	-0.673431
	22.550000	-0.583177
	22.555000	-0.528380
	22.560000	-0.628304
	22.565000	-0.683101
	22.570000	-0.579954
	22.575000	-0.534827
	22.580000	-0.634751
	22.585000	-0.673431
	22.590000	-0.576730
	22.595000	-0.538050
	22.600000	-0.625081
	22.605000	-0.673431
	22.610000	-0.583177
	22.615000	-0.534827
	22.620000	-0.621858
	22.625000	-0.673431
	22.630000	-0.573507
	22.635000	-0.534827
	22.640000	-0.628304
	22.645000	-0.676655
	22.650000	-0.586401
	22.655000	-0.538050
	22.660000	-0.628304
	22.665000	-0.666985
	22.670000	-0.579954
	22.675000	-0.531603
	22.680000	-0.631528
	22.685000	-0.673431
	22.690000	-0.576730
	22.695000	-0.538050
	22.700000	-0.631528
	22.705000	-0.673431
	22.710000	-0.579954
	22.715000	-0.534827
	22.720000	-0.631528
	22.725000	-0.673431
	22.730000	-0.579954
	22.735000	-0.534827
	22.740000	-0.628304
	22.745000	-0.676655
	22.750000	-0.573507
	22.755000	-0.538050
	22.760000	-0.628304
	22.765000	-0.670208
	22.770000	-0.567060
	22.775000	-0.531603
	22.780000	-0.628304
	22.785000	-0.676655
	22.790000	-0.576730
	22.795000	-0.531603
	22.800000	-0.625081
	22.805000	-0.673431
	22.810000	-0.563837
	22.815000	-0.528380
	22.820000	-0.628304
	22.825000	-0.666985
	22.830000	-0.567060
	22.835000	-0.531603
	22.840000	-0.625081
	22.845000	-0.660538
	22.850000	-0.570284
	22.855000	-0.528380
	22.860000	-0.625081
	22.865000	-0.666985
	22.870000	-0.570284
	22.875000	-0.534827
	22.880000	-0.625081
	22.885000	-0.666985
	22.890000	-0.567060
	22.895000	-0.525157
	22.900000	-0.631528
	22.905000	-0.663761
	22.910000	-0.570284
	22.915000	-0.528380
	22.920000	-0.625081
	22.925000	-0.670208
	22.930000	-0.573507
	22.935000	-0.531603
	22.940000	-0.628304
	22.945000	-0.663761
	22.950000	-0.570284
	22.955000	-0.531603
	22.960000	-0.625081
	22.965000	-0.666985
	22.970000	-0.563837
	22.975000	-0.531603
	22.980000	-0.625081
	22.985000	-0.666985
	22.990000	-0.560614
	22.995000	-0.528380
	23.000000	-0.631528
	23.005000	-0.666985
	23.010000	-0.567060
	23.015000	-0.534827
	23.020000	-0.631528
	23.025000	-0.666985
	23.030000	-0.570284
	23.035000	-0.531603
	23.040000	-0.628304
	23.045000	-0.663761
	23.050000	-0.573507
	23.055000	-0.534827
	23.060000	-0.637974
	23.065000	-0.670208
	23.070000	-0.567060
	23.075000	-0.538050
	23.080000	-0.637974
	23.085000	-0.670208
	23.090000	-0.570284
	23.095000	-0.541274
	23.100000	-0.637974
	23.105000	-0.676655
	23.110000	-0.579954
	23.115000	-0.541274
	23.120000	-0.634751
	23.125000	-0.673431
	23.130000	-0.576730
	23.135000	-0.538050
	23.140000	-0.644421
	23.145000	-0.679878
	23.150000	-0.579954
	23.155000	-0.544497
	23.160000	-0.647644
	23.165000	-0.673431
	23.170000	-0.586401
	23.175000	-0.544497
	23.180000	-0.650868
	23.185000	-0.686325
	23.190000	-0.586401
	23.195000	-0.554167
	23.200000	-0.650868
	23.205000	-0.679878
	23.210000	-0.589624
	23.215000	-0.554167
	23.220000	-0.650868
	23.225000	-0.692771
	23.230000	-0.592847
	23.235000	-0.557390
	23.240000	-0.666985
	23.245000	-0.699218
	23.250000	-0.592847
	23.255000	-0.560614
	23.260000	-0.663761
	23.265000	-0.692771
	23.270000	-0.586401
	23.275000	-0.557390
	23.280000	-0.660538
	23.285000	-0.689548
	23.290000	-0.589624
	23.295000	-0.554167
	23.300000	-0.657314
	23.305000	-0.686325
	23.310000	-0.592847
	23.315000	-0.557390
	23.320000	-0.657314
	23.325000	-0.689548
	23.330000	-0.583177
	23.335000	-0.544497
	23.340000	-0.647644
	23.345000	-0.683101
	23.350000	-0.579954
	23.355000	-0.544497
	23.360000	-0.650868
	23.365000	-0.676655
	23.370000	-0.567060
	23.375000	-0.531603
	23.380000	-0.647644
	23.385000	-0.663761
	23.390000	-0.560614
	23.395000	-0.528380
	23.400000	-0.628304
	23.405000	-0.663761
	23.410000	-0.550944
	23.415000	-0.512263
	23.420000	-0.618634
	23.425000	-0.650868
	23.430000	-0.544497
	23.435000	-0.512263
	23.440000	-0.618634
	23.445000	-0.644421
	23.450000	-0.534827
	23.455000	-0.499370
	23.460000	-0.618634
	23.465000	-0.634751
	23.470000	-0.528380
	23.475000	-0.496147
	23.480000	-0.608964
	23.485000	-0.625081
	23.490000	-0.525157
	23.495000	-0.502593
	23.500000	-0.599294
	23.505000	-0.618634
	23.510000	-0.518710
	23.515000	-0.486476
	23.520000	-0.583177
	23.525000	-0.612187
	23.530000	-0.512263
	23.535000	-0.476806
	23.540000	-0.586401
	23.545000	-0.608964
	23.550000	-0.492923
	23.555000	-0.473583
	23.560000	-0.563837
	23.565000	-0.596071
	23.570000	-0.486476
	23.575000	-0.467136
	23.580000	-0.567060
	23.585000	-0.586401
	23.590000	-0.480030
	23.595000	-0.457466
	23.600000	-0.547720
	23.605000	-0.573507
	23.610000	-0.467136
	23.615000	-0.434903
	23.620000	-0.538050
	23.625000	-0.560614
	23.630000	-0.447796
	23.635000	-0.425233
	23.640000	-0.525157
	23.645000	-0.538050
	23.650000	-0.434903
	23.655000	-0.405892
	23.660000	-0.518710
	23.665000	-0.521933
	23.670000	-0.425233
	23.675000	-0.389776
	23.680000	-0.496147
	23.685000	-0.512263
	23.690000	-0.405892
	23.695000	-0.380106
	23.700000	-0.476806
	23.705000	-0.489700
	23.710000	-0.392999
	23.715000	-0.367212
	23.720000	-0.470360
	23.725000	-0.486476
	23.730000	-0.376882
	23.735000	-0.357542
	23.740000	-0.454243
	23.745000	-0.470360
	23.750000	-0.370436
	23.755000	-0.334979
	23.760000	-0.444573
	23.765000	-0.463913
	23.770000	-0.360765
	23.775000	-0.341425
	23.780000	-0.434903
	23.785000	-0.451019
	23.790000	-0.351095
	23.795000	-0.325308
	23.800000	-0.431679
	23.805000	-0.451019
	23.810000	-0.354319
	23.815000	-0.331755
	23.820000	-0.431679
	23.825000	-0.454243
	23.830000	-0.354319
	23.835000	-0.331755
	23.840000	-0.434903
	23.845000	-0.454243
	23.850000	-0.351095
	23.855000	-0.344649
	23.860000	-0.444573
	23.865000	-0.460690
	23.870000	-0.360765
	23.875000	-0.341425
	23.880000	-0.447796
	23.885000	-0.467136
	23.890000	-0.363989
	23.895000	-0.341425
	23.900000	-0.454243
	23.905000	-0.473583
	23.910000	-0.367212
	23.915000	-0.351095
	23.920000	-0.463913
	23.925000	-0.476806
	23.930000	-0.370436
	23.935000	-0.360765
	23.940000	-0.460690
	23.945000	-0.476806
	23.950000	-0.370436
	23.955000	-0.360765
	23.960000	-0.470360
	23.965000	-0.486476
	23.970000	-0.386552
	23.975000	-0.370436
	23.980000	-0.473583
	23.985000	-0.486476
	23.990000	-0.380106
	23.995000	-0.373659
	24.000000	-0.480030
	24.005000	-0.489700
	24.010000	-0.392999
	24.015000	-0.380106
	24.020000	-0.480030
	24.025000	-0.505817
	24.030000	-0.402669
	24.035000	-0.396222
	24.040000	-0.496147
	24.045000	-0.515487
	24.050000	-0.412339
	24.055000	-0.399446
	24.060000	-0.509040
	24.065000	-0.521933
	24.070000	-0.428456
	24.075000	-0.412339
	24.080000	-0.521933
	24.085000	-0.541274
	24.090000	-0.444573
	24.095000	-0.425233
	24.100000	-0.534827
	24.105000	-0.547720
	24.110000	-0.444573
	24.115000	-0.438126
	24.120000	-0.538050
	24.125000	-0.557390
	24.130000	-0.451019
	24.135000	-0.438126
	24.140000	-0.547720
	24.145000	-0.554167
	24.150000	-0.454243
	24.155000	-0.438126
	24.160000	-0.547720
	24.165000	-0.557390
	24.170000	-0.447796
	24.175000	-0.441349
	24.180000	-0.554167
	24.185000	-0.567060
	24.190000	-0.457466
	24.195000	-0.447796
	24.200000	-0.554167
	24.205000	-0.560614
	24.210000	-0.460690
	24.215000	-0.444573
	24.220000	-0.547720
	24.225000	-0.557390
	24.230000	-0.447796
	24.235000	-0.438126
	24.240000	-0.544497
	24.245000	-0.544497
	24.250000	-0.428456
	24.255000	-0.425233
	24.260000	-0.521933
	24.265000	-0.528380
	24.270000	-0.415563
	24.275000	-0.405892
	24.280000	-0.509040
	24.285000	-0.515487
	24.290000	-0.412339
	24.295000	-0.402669
	24.300000	-0.502593
	24.305000	-0.512263
	24.310000	-0.405892
	24.315000	-0.392999
	24.320000	-0.489700
	24.325000	-0.486476
	24.330000	-0.386552
	24.335000	-0.370436
	24.340000	-0.470360
	24.345000	-0.473583
	24.350000	-0.354319
	24.355000	-0.334979
	24.360000	-0.434903
	24.365000	-0.422009
	24.370000	-0.315638
	24.375000	-0.293075
	24.380000	-0.389776
	24.385000	-0.396222
	24.390000	-0.276958
	24.395000	-0.260841
	24.400000	-0.354319
	24.405000	-0.351095
	24.410000	-0.241501
	24.415000	-0.238278
	24.420000	-0.328532
	24.425000	-0.328532
	24.430000	-0.225384
	24.435000	-0.206044
	24.440000	-0.309192
	24.445000	-0.312415
	24.450000	-0.206044
	24.455000	-0.199597
	24.460000	-0.293075
	24.465000	-0.305968
	24.470000	-0.199597
	24.475000	-0.189927
	24.480000	-0.305968
	24.485000	-0.309192
	24.490000	-0.209268
	24.495000	-0.206044
	24.500000	-0.315638
	24.505000	-0.325308
	24.510000	-0.238278
	24.515000	-0.241501
	24.520000	-0.351095
	24.525000	-0.367212
	24.530000	-0.276958
	24.535000	-0.299522
	24.540000	-0.402669
	24.545000	-0.415563
	24.550000	-0.338202
	24.555000	-0.334979
	24.560000	-0.441349
	24.565000	-0.447796
	24.570000	-0.367212
	24.575000	-0.363989
	24.580000	-0.460690
	24.585000	-0.470360
	24.590000	-0.370436
	24.595000	-0.370436
	24.600000	-0.463913
	24.605000	-0.457466
	24.610000	-0.360765
	24.615000	-0.351095
	24.620000	-0.444573
	24.625000	-0.434903
	24.630000	-0.331755
	24.635000	-0.322085
	24.640000	-0.405892
	24.645000	-0.396222
	24.650000	-0.283405
	24.655000	-0.280181
	24.660000	-0.357542
	24.665000	-0.338202
	24.670000	-0.228608
	24.675000	-0.215714
	24.680000	-0.302745
	24.685000	-0.276958
	24.690000	-0.164141
	24.695000	-0.141577
	24.700000	-0.231831
	24.705000	-0.212491
	24.710000	-0.102897
	24.715000	-0.090003
	24.720000	-0.173811
	24.725000	-0.170587
	24.730000	-0.067440
	24.735000	-0.064216
	24.740000	-0.167364
	24.745000	-0.173811
	24.750000	-0.077110
	24.755000	-0.083557
	24.760000	-0.189927
	24.765000	-0.196374
	24.770000	-0.099673
	24.775000	-0.109343
	24.780000	-0.218938
	24.785000	-0.215714
	24.790000	-0.128684
	24.795000	-0.138354
	24.800000	-0.251171
	24.805000	-0.244725
	24.810000	-0.151247
	24.815000	-0.160917
	24.820000	-0.260841
	24.825000	-0.260841
	24.830000	-0.170587
	24.835000	-0.173811
	24.840000	-0.283405
	24.845000	-0.283405
	24.850000	-0.180257
	24.855000	-0.193151
	24.860000	-0.299522
	24.865000	-0.286628
	24.870000	-0.199597
	24.875000	-0.209268
	24.880000	-0.305968
	24.885000	-0.312415
	24.890000	-0.215714
	24.895000	-0.235054
	24.900000	-0.322085
	24.905000	-0.331755
	24.910000	-0.228608
	24.915000	-0.241501
	24.920000	-0.344649
	24.925000	-0.344649
	24.930000	-0.251171
	24.935000	-0.257618
	24.940000	-0.357542
	24.945000	-0.360765
	24.950000	-0.270511
	24.955000	-0.273735
	24.960000	-0.380106
	24.965000	-0.373659
	24.970000	-0.280181
	24.975000	-0.293075
	24.980000	-0.402669
	24.985000	-0.392999
	24.990000	-0.305968
	24.995000	-0.312415
	25.000000	-0.409116
	25.005000	-0.422009
	25.010000	-0.325308
	25.015000	-0.334979
	25.020000	-0.441349
	25.025000	-0.428456
	25.030000	-0.341425
	25.035000	-0.354319
	25.040000	-0.460690
	25.045000	-0.451019
	25.050000	-0.360765
	25.055000	-0.367212
	25.060000	-0.473583
	25.065000	-0.467136
	25.070000	-0.373659
	25.075000	-0.383329
	25.080000	-0.489700
	25.085000	-0.486476
	25.090000	-0.396222
	25.095000	-0.399446
	25.100000	-0.512263
	25.105000	-0.492923
	25.110000	-0.405892
	25.115000	-0.418786
	25.120000	-0.521933
	25.125000	-0.515487
	25.130000	-0.422009
	25.135000	-0.434903
	25.140000	-0.531603
	25.145000	-0.525157
	25.150000	-0.434903
	25.155000	-0.434903
	25.160000	-0.547720
	25.165000	-0.534827
	25.170000	-0.438126
	25.175000	-0.451019
	25.180000	-0.554167
	25.185000	-0.541274
	25.190000	-0.441349
	25.195000	-0.457466
	25.200000	-0.560614
	25.205000	-0.557390
	25.210000	-0.454243
	25.215000	-0.467136
	25.220000	-0.570284
	25.225000	-0.560614
	25.230000	-0.467136
	25.235000	-0.476806
	25.240000	-0.583177
	25.245000	-0.573507
	25.250000	-0.476806
	25.255000	-0.486476
	25.260000	-0.586401
	25.265000	-0.583177
	25.270000	-0.483253
	25.275000	-0.486476
	25.280000	-0.592847
	25.285000	-0.583177
	25.290000	-0.489700
	25.295000	-0.499370
	25.300000	-0.602517
	25.305000	-0.589624
	25.310000	-0.486476
	25.315000	-0.499370
	25.320000	-0.605741
	25.325000	-0.592847
	25.330000	-0.492923
	25.335000	-0.505817
	25.340000	-0.602517
	25.345000	-0.589624
	25.350000	-0.499370
	25.355000	-0.518710
	25.360000	-0.612187
	25.365000	-0.592847
	25.370000	-0.502593
	25.375000	-0.509040
	25.380000	-0.625081
	25.385000	-0.605741
	25.390000	-0.496147
	25.395000	-0.512263
	25.400000	-0.618634
	25.405000	-0.602517
	25.410000	-0.496147
	25.415000	-0.515487
	25.420000	-0.615411
	25.425000	-0.608964
	25.430000	-0.502593
	25.435000	-0.521933
	25.440000	-0.618634
	25.445000	-0.605741
	25.450000	-0.502593
	25.455000	-0.521933
	25.460000	-0.625081
	25.465000	-0.612187
	25.470000	-0.509040
	25.475000	-0.515487
	25.480000	-0.631528
	25.485000	-0.605741
	25.490000	-0.509040
	25.495000	-0.521933
	25.500000	-0.625081
	25.505000	-0.612187
	25.510000	-0.509040
	25.515000	-0.528380
	25.520000	-0.628304
	25.525000	-0.615411
	25.530000	-0.509040
	25.535000	-0.521933
	25.540000	-0.618634
	25.545000	-0.615411
	25.550000	-0.505817
	25.555000	-0.521933
	25.560000	-0.625081
	25.565000	-0.612187
	25.570000	-0.512263
	25.575000	-0.518710
	25.580000	-0.621858
	25.585000	-0.605741
	25.590000	-0.502593
	25.595000	-0.515487
	25.600000	-0.625081
	25.605000	-0.612187
	25.610000	-0.499370
	25.615000	-0.521933
	25.620000	-0.625081
	25.625000	-0.608964
	25.630000	-0.502593
	25.635000	-0.528380
	25.640000	-0.628304
	25.645000	-0.605741
	25.650000	-0.512263
	25.655000	-0.528380
	25.660000	-0.625081
	25.665000	-0.608964
	25.670000	-0.505817
	25.675000	-0.528380
	25.680000	-0.625081
	25.685000	-0.612187
	25.690000	-0.509040
	25.695000	-0.525157
	25.700000	-0.628304
	25.705000	-0.605741
	25.710000	-0.505817
	25.715000	-0.528380
	25.720000	-0.625081
	25.725000	-0.612187
	25.730000	-0.499370
	25.735000	-0.518710
	25.740000	-0.628304
	25.745000	-0.599294
	25.750000	-0.505817
	25.755000	-0.515487
	25.760000	-0.625081
	25.765000	-0.605741
	25.770000	-0.502593
	25.775000	-0.525157
	25.780000	-0.625081
	25.785000	-0.599294
	25.790000	-0.499370
	25.795000	-0.512263
	25.800000	-0.628304
	25.805000	-0.592847
	25.810000	-0.496147
	25.815000	-0.518710
	25.820000	-0.621858
	25.825000	-0.596071
	25.830000	-0.499370
	25.835000	-0.515487
	25.840000	-0.615411
	25.845000	-0.592847
	25.850000	-0.489700
	25.855000	-0.515487
	25.860000	-0.615411
	25.865000	-0.586401
	25.870000	-0.489700
	25.875000	-0.515487
	25.880000	-0.615411
	25.885000	-0.586401
	25.890000	-0.489700
	25.895000	-0.509040
	25.900000	-0.608964
	25.905000	-0.583177
	25.910000	-0.489700
	25.915000	-0.509040
	25.920000	-0.605741
	25.925000	-0.589624
	25.930000	-0.483253
	25.935000	-0.515487
	25.940000	-0.615411
	25.945000	-0.579954
	25.950000	-0.486476
	25.955000	-0.509040
	25.960000	-0.599294
	25.965000	-0.583177
	25.970000	-0.483253
	25.975000	-0.512263
	25.980000	-0.605741
	25.985000	-0.583177
	25.990000	-0.476806
	25.995000	-0.502593
	26.000000	-0.605741
	26.005000	-0.576730
	26.010000	-0.476806
	26.015000	-0.505817
	26.020000	-0.602517
	26.025000	-0.573507
	26.030000	-0.476806
	26.035000	-0.502593
	26.040000	-0.605741
	26.045000	-0.576730
	26.050000	-0.470360
	26.055000	-0.499370
	26.060000	-0.602517
	26.065000	-0.570284
	26.070000	-0.473583
	26.075000	-0.505817
	26.080000	-0.596071
	26.085000	-0.570284
	26.090000	-0.467136
	26.095000	-0.496147
	26.100000	-0.599294
	26.105000	-0.567060
	26.110000	-0.476806
	26.115000	-0.499370
	26.120000	-0.599294
	26.125000	-0.570284
	26.130000	-0.473583
	26.135000	-0.502593
	26.140000	-0.596071
	26.145000	-0.570284
	26.150000	-0.463913
	26.155000	-0.489700
	26.160000	-0.596071
	26.165000	-0.570284
	26.170000	-0.467136
	26.175000	-0.496147
	26.180000	-0.592847
	26.185000	-0.560614
	26.190000	-0.467136
	26.195000	-0.496147
	26.200000	-0.596071
	26.205000	-0.570284
	26.210000	-0.463913
	26.215000	-0.499370
	26.220000	-0.599294
	26.225000	-0.567060
	26.230000	-0.460690
	26.235000	-0.492923
	26.240000	-0.592847
	26.245000	-0.557390
	26.250000	-0.467136
	26.255000	-0.489700
	26.260000	-0.596071
	26.265000	-0.557390
	26.270000	-0.460690
	26.275000	-0.496147
	26.280000	-0.586401
	26.285000	-0.560614
	26.290000	-0.467136
	26.295000	-0.496147
	26.300000	-0.586401
	26.305000	-0.563837
	26.310000	-0.457466
	26.315000	-0.496147
	26.320000	-0.596071
	26.325000	-0.567060
	26.330000	-0.463913
	26.335000	-0.496147
	26.340000	-0.596071
	26.345000	-0.560614
	26.350000	-0.463913
	26.355000	-0.496147
	26.360000	-0.583177
	26.365000	-0.554167
	26.370000	-0.463913
	26.375000	-0.489700
	26.380000	-0.592847
	26.385000	-0.557390
	26.390000	-0.454243
	26.395000	-0.499370
	26.400000	-0.592847
	26.405000	-0.563837
	26.410000	-0.460690
	26.415000	-0.496147
	26.420000	-0.592847
	26.425000	-0.554167
	26.430000	-0.463913
	26.435000	-0.496147
	26.440000	-0.596071
	26.445000	-0.557390
	26.450000	-0.457466
	26.455000	-0.496147
	26.460000	-0.589624
	26.465000	-0.560614
	26.470000	-0.451019
	26.475000	-0.489700
	26.480000	-0.586401
	26.485000	-0.557390
	26.490000	-0.454243
	26.495000	-0.489700
	26.500000	-0.589624
	26.505000	-0.554167
	26.510000	-0.457466
	26.515000	-0.499370
	26.520000	-0.592847
	26.525000	-0.557390
	26.530000	-0.457466
	26.535000	-0.492923
	26.540000	-0.589624
	26.545000	-0.550944
	26.550000	-0.463913
	26.555000	-0.492923
	26.560000	-0.592847
	26.565000	-0.550944
	26.570000	-0.454243
	26.575000	-0.489700
	26.580000	-0.592847
	26.585000	-0.550944
	26.590000	-0.451019
	26.595000	-0.496147
	26.600000	-0.589624
	26.605000	-0.554167
	26.610000	-0.454243
	26.615000	-0.492923
	26.620000	-0.592847
	26.625000	-0.554167
	26.630000	-0.460690
	26.635000	-0.489700
	26.640000	-0.596071
	26.645000	-0.550944
	26.650000	-0.460690
	26.655000	-0.492923
	26.660000	-0.596071
	26.665000	-0.557390
	26.670000	-0.454243
	26.675000	-0.499370
	26.680000	-0.592847
	26.685000	-0.547720
	26.690000	-0.454243
	26.695000	-0.499370
	26.700000	-0.592847
	26.705000	-0.554167
	26.710000	-0.457466
	26.715000	-0.489700
	26.720000	-0.586401
	26.725000	-0.538050
	26.730000	-0.451019
	26.735000	-0.496147
	26.740000	-0.583177
	26.745000	-0.547720
	26.750000	-0.457466
	26.755000	-0.492923
	26.760000	-0.586401
	26.765000	-0.544497
	26.770000	-0.451019
	26.775000	-0.496147
	26.780000	-0.586401
	26.785000	-0.554167
	26.790000	-0.454243
	26.795000	-0.489700
	26.800000	-0.592847
	26.805000	-0.547720
	26.810000	-0.454243
	26.815000	-0.492923
	26.820000	-0.586401
	26.825000	-0.544497
	26.830000	-0.451019
	26.835000	-0.492923
	26.840000	-0.592847
	26.845000	-0.544497
	26.850000	-0.447796
	26.855000	-0.496147
	26.860000	-0.589624
	26.865000	-0.544497
	26.870000	-0.451019
	26.875000	-0.496147
	26.880000	-0.589624
	26.885000	-0.544497
	26.890000	-0.447796
	26.895000	-0.499370
	26.900000	-0.592847
	26.905000	-0.544497
	26.910000	-0.454243
	26.915000	-0.496147
	26.920000	-0.586401
	26.925000	-0.547720
	26.930000	-0.451019
	26.935000	-0.492923
	26.940000	-0.583177
	26.945000	-0.544497
	26.950000	-0.447796
	26.955000	-0.496147
	26.960000	-0.586401
	26.965000	-0.534827
	26.970000	-0.454243
	26.975000	-0.499370
	26.980000	-0.592847
	26.985000	-0.547720
	26.990000	-0.451019
	26.995000	-0.499370
	27.000000	-0.592847
	27.005000	-0.544497
	27.010000	-0.457466
	27.015000	-0.502593
	27.020000	-0.596071
	27.025000	-0.547720
	27.030000	-0.457466
	27.035000	-0.502593
	27.040000	-0.596071
	27.045000	-0.547720
	27.050000	-0.454243
	27.055000	-0.499370
	27.060000	-0.586401
	27.065000	-0.538050
	27.070000	-0.457466
	27.075000	-0.502593
	27.080000	-0.599294
	27.085000	-0.550944
	27.090000	-0.454243
	27.095000	-0.502593
	27.100000	-0.596071
	27.105000	-0.544497
	27.110000	-0.454243
	27.115000	-0.499370
	27.120000	-0.586401
	27.125000	-0.538050
	27.130000	-0.451019
	27.135000	-0.505817
	27.140000	-0.586401
	27.145000	-0.541274
	27.150000	-0.457466
	27.155000	-0.509040
	27.160000	-0.592847
	27.165000	-0.541274
	27.170000	-0.454243
	27.175000	-0.502593
	27.180000	-0.592847
	27.185000	-0.538050
	27.190000	-0.457466
	27.195000	-0.505817
	27.200000	-0.596071
	27.205000	-0.544497
	27.210000	-0.454243
	27.215000	-0.505817
	27.220000	-0.592847
	27.225000	-0.541274
	27.230000	-0.454243
	27.235000	-0.505817
	27.240000	-0.592847
	27.245000	-0.544497
	27.250000	-0.451019
	27.255000	-0.496147
	27.260000	-0.592847
	27.265000	-0.538050
	27.270000	-0.444573
	27.275000	-0.499370
	27.280000	-0.592847
	27.285000	-0.541274
	27.290000	-0.454243
	27.295000	-0.499370
	27.300000	-0.589624
	27.305000	-0.541274
	27.310000	-0.451019
	27.315000	-0.499370
	27.320000	-0.589624
	27.325000	-0.541274
	27.330000	-0.444573
	27.335000	-0.502593
	27.340000	-0.586401
	27.345000	-0.534827
	27.350000	-0.451019
	27.355000	-0.499370
	27.360000	-0.586401
	27.365000	-0.531603
	27.370000	-0.441349
	27.375000	-0.509040
	27.380000	-0.586401
	27.385000	-0.538050
	27.390000	-0.441349
	27.395000	-0.499370
	27.400000	-0.583177
	27.405000	-0.528380
	27.410000	-0.451019
	27.415000	-0.499370
	27.420000	-0.589624
	27.425000	-0.534827
	27.430000	-0.444573
	27.435000	-0.502593
	27.440000	-0.583177
	27.445000	-0.531603
	27.450000	-0.444573
	27.455000	-0.499370
	27.460000	-0.583177
	27.465000	-0.528380
	27.470000	-0.447796
	27.475000	-0.496147
	27.480000	-0.579954
	27.485000	-0.538050
	27.490000	-0.444573
	27.495000	-0.496147
	27.500000	-0.586401
	27.505000	-0.528380
	27.510000	-0.447796
	27.515000	-0.496147
	27.520000	-0.586401
	27.525000	-0.528380
	27.530000	-0.444573
	27.535000	-0.505817
	27.540000	-0.586401
	27.545000	-0.528380
	27.550000	-0.441349
	27.555000	-0.496147
	27.560000	-0.579954
	27.565000	-0.525157
	27.570000	-0.434903
	27.575000	-0.502593
	27.580000	-0.589624
	27.585000	-0.531603
	27.590000	-0.441349
	27.595000	-0.489700
	27.600000	-0.589624
	27.605000	-0.521933
	27.610000	-0.441349
	27.615000	-0.492923
	27.620000	-0.579954
	27.625000	-0.525157
	27.630000	-0.438126
	27.635000	-0.496147
	27.640000	-0.583177
	27.645000	-0.531603
	27.650000	-0.441349
	27.655000	-0.489700
	27.660000	-0.579954
	27.665000	-0.528380
	27.670000	-0.431679
	27.675000	-0.486476
	27.680000	-0.583177
	27.685000	-0.528380
	27.690000	-0.438126
	27.695000	-0.492923
	27.700000	-0.573507
	27.705000	-0.521933
	27.710000	-0.434903
	27.715000	-0.492923
	27.720000	-0.573507
	27.725000	-0.512263
	27.730000	-0.431679
	27.735000	-0.486476
	27.740000	-0.570284
	27.745000	-0.515487
	27.750000	-0.431679
	27.755000	-0.480030
	27.760000	-0.573507
	27.765000	-0.518710
	27.770000	-0.431679
	27.775000	-0.489700
	27.780000	-0.573507
	27.785000	-0.509040
	27.790000	-0.428456
	27.795000	-0.496147
	27.800000	-0.570284
	27.805000	-0.515487
	27.810000	-0.428456
	27.815000	-0.492923
	27.820000	-0.579954
	27.825000	-0.509040
	27.830000	-0.428456
	27.835000	-0.486476
	27.840000	-0.570284
	27.845000	-0.509040
	27.850000	-0.434903
	27.855000	-0.489700
	27.860000	-0.573507
	27.865000	-0.505817
	27.870000	-0.425233
	27.875000	-0.489700
	27.880000	-0.560614
	27.885000	-0.505817
	27.890000	-0.422009
	27.895000	-0.483253
	27.900000	-0.563837
	27.905000	-0.502593
	27.910000	-0.418786
	27.915000	-0.473583
	27.920000	-0.557390
	27.925000	-0.489700
	27.930000	-0.412339
	27.935000	-0.476806
	27.940000	-0.557390
	27.945000	-0.492923
	27.950000	-0.412339
	27.955000	-0.480030
	27.960000	-0.557390
	27.965000	-0.489700
	27.970000	-0.422009
	27.975000	-0.480030
	27.980000	-0.554167
	27.985000	-0.489700
	27.990000	-0.412339
	27.995000	-0.470360
	28.000000	-0.554167
	28.005000	-0.492923
	28.010000	-0.412339
	28.015000	-0.476806
	28.020000	-0.560614
	28.025000	-0.492923
	28.030000	-0.415563
	28.035000	-0.476806
	28.040000	-0.547720
	28.045000	-0.492923
	28.050000	-0.405892
	28.055000	-0.473583
	28.060000	-0.547720
	28.065000	-0.489700
	28.070000	-0.415563
	28.075000	-0.480030
	28.080000	-0.550944
	28.085000	-0.486476
	28.090000	-0.412339
	28.095000	-0.473583
	28.100000	-0.550944
	28.105000	-0.492923
	28.110000	-0.415563
	28.115000	-0.470360
	28.120000	-0.554167
	28.125000	-0.492923
	28.130000	-0.415563
	28.135000	-0.476806
	28.140000	-0.557390
	28.145000	-0.492923
	28.150000	-0.412339
	28.155000	-0.476806
	28.160000	-0.550944
	28.165000	-0.489700
	28.170000	-0.412339
	28.175000	-0.476806
	28.180000	-0.554167
	28.185000	-0.492923
	28.190000	-0.409116
	28.195000	-0.480030
	28.200000	-0.554167
	28.205000	-0.486476
	28.210000	-0.412339
	28.215000	-0.476806
	28.220000	-0.550944
	28.225000	-0.483253
	28.230000	-0.402669
	28.235000	-0.476806
	28.240000	-0.544497
	28.245000	-0.483253
	28.250000	-0.405892
	28.255000	-0.473583
	28.260000	-0.547720
	28.265000	-0.476806
	28.270000	-0.405892
	28.275000	-0.470360
	28.280000	-0.547720
	28.285000	-0.480030
	28.290000	-0.409116
	28.295000	-0.470360
	28.300000	-0.547720
	28.305000	-0.483253
	28.310000	-0.409116
	28.315000	-0.470360
	28.320000	-0.547720
	28.325000	-0.483253
	28.330000	-0.409116
	28.335000	-0.476806
	28.340000	-0.544497
	28.345000	-0.483253
	28.350000	-0.409116
	28.355000	-0.473583
	28.360000	-0.550944
	28.365000	-0.480030
	28.370000	-0.405892
	28.375000	-0.480030
	28.380000	-0.550944
	28.385000	-0.483253
	28.390000	-0.405892
	28.395000	-0.473583
	28.400000	-0.550944
	28.405000	-0.480030
	28.410000	-0.405892
	28.415000	-0.476806
	28.420000	-0.550944
	28.425000	-0.480030
	28.430000	-0.405892
	28.435000	-0.483253
	28.440000	-0.550944
	28.445000	-0.483253
	28.450000	-0.409116
	28.455000	-0.476806
	28.460000	-0.557390
	28.465000	-0.486476
	28.470000	-0.409116
	28.475000	-0.483253
	28.480000	-0.550944
	28.485000	-0.486476
	28.490000	-0.409116
	28.495000	-0.476806
	28.500000	-0.554167
	28.505000	-0.486476
	28.510000	-0.405892
	28.515000	-0.483253
	28.520000	-0.554167
	28.525000	-0.486476
	28.530000	-0.409116
	28.535000	-0.480030
	28.540000	-0.554167
	28.545000	-0.486476
	28.550000	-0.409116
	28.555000	-0.483253
	28.560000	-0.550944
	28.565000	-0.486476
	28.570000	-0.412339
	28.575000	-0.476806
	28.580000	-0.560614
	28.585000	-0.489700
	28.590000	-0.418786
	28.595000	-0.483253
	28.600000	-0.554167
	28.605000	-0.480030
	28.610000	-0.418786
	28.615000	-0.489700
	28.620000	-0.557390
	28.625000	-0.483253
	28.630000	-0.418786
	28.635000	-0.489700
	28.640000	-0.550944
	28.645000	-0.486476
	28.650000	-0.412339
	28.655000	-0.486476
	28.660000	-0.554167
	28.665000	-0.483253
	28.670000	-0.405892
	28.675000	-0.476806
	28.680000	-0.557390
	28.685000	-0.483253
	28.690000	-0.405892
	28.695000	-0.480030
	28.700000	-0.550944
	28.705000	-0.480030
	28.710000	-0.399446
	28.715000	-0.476806
	28.720000	-0.557390
	28.725000	-0.476806
	28.730000	-0.402669
	28.735000	-0.483253
	28.740000	-0.557390
	28.745000	-0.486476
	28.750000	-0.409116
	28.755000	-0.480030
	28.760000	-0.550944
	28.765000	-0.476806
	28.770000	-0.405892
	28.775000	-0.480030
	28.780000	-0.547720
	28.785000	-0.489700
	28.790000	-0.409116
	28.795000	-0.483253
	28.800000	-0.557390
	28.805000	-0.473583
	28.810000	-0.402669
	28.815000	-0.486476
	28.820000	-0.563837
	28.825000	-0.483253
	28.830000	-0.412339
	28.835000	-0.486476
	28.840000	-0.557390
	28.845000	-0.483253
	28.850000	-0.415563
	28.855000	-0.499370
	28.860000	-0.557390
	28.865000	-0.480030
	28.870000	-0.409116
	28.875000	-0.483253
	28.880000	-0.560614
	28.885000	-0.480030
	28.890000	-0.412339
	28.895000	-0.486476
	28.900000	-0.554167
	28.905000	-0.480030
	28.910000	-0.415563
	28.915000	-0.476806
	28.920000	-0.554167
	28.925000	-0.480030
	28.930000	-0.412339
	28.935000	-0.489700
	28.940000	-0.563837
	28.945000	-0.473583
	28.950000	-0.405892
	28.955000	-0.483253
	28.960000	-0.557390
	28.965000	-0.473583
	28.970000	-0.405892
	28.975000	-0.486476
	28.980000	-0.557390
	28.985000	-0.476806
	28.990000	-0.405892
	28.995000	-0.489700
	29.000000	-0.550944
	29.005000	-0.476806
	29.010000	-0.409116
	29.015000	-0.483253
	29.020000	-0.547720
	29.025000	-0.467136
	29.030000	-0.412339
	29.035000	-0.483253
	29.040000	-0.550944
	29.045000	-0.470360
	29.050000	-0.409116
	29.055000	-0.480030
	29.060000	-0.541274
	29.065000	-0.460690
	29.070000	-0.402669
	29.075000	-0.480030
	29.080000	-0.544497
	29.085000	-0.470360
	29.090000	-0.405892
	29.095000	-0.483253
	29.100000	-0.541274
	29.105000	-0.463913
	29.110000	-0.405892
	29.115000	-0.483253
	29.120000	-0.541274
	29.125000	-0.467136
	29.130000	-0.399446
	29.135000	-0.483253
	29.140000	-0.547720
	29.145000	-0.467136
	29.150000	-0.405892
	29.155000	-0.476806
	29.160000	-0.550944
	29.165000	-0.467136
	29.170000	-0.405892
	29.175000	-0.483253
	29.180000	-0.544497
	29.185000	-0.470360
	29.190000	-0.402669
	29.195000	-0.486476
	29.200000	-0.541274
	29.205000	-0.470360
	29.210000	-0.405892
	29.215000	-0.476806
	29.220000	-0.541274
	29.225000	-0.470360
	29.230000	-0.405892
	29.235000	-0.486476
	29.240000	-0.547720
	29.245000	-0.470360
	29.250000	-0.409116
	29.255000	-0.480030
	29.260000	-0.547720
	29.265000	-0.467136
	29.270000	-0.405892
	29.275000	-0.480030
	29.280000	-0.550944
	29.285000	-0.473583
	29.290000	-0.399446
	29.295000	-0.486476
	29.300000	-0.547720
	29.305000	-0.463913
	29.310000	-0.402669
	29.315000	-0.483253
	29.320000	-0.550944
	29.325000	-0.467136
	29.330000	-0.405892
	29.335000	-0.492923
	29.340000	-0.547720
	29.345000	-0.463913
	29.350000	-0.412339
	29.355000	-0.489700
	29.360000	-0.547720
	29.365000	-0.473583
	29.370000	-0.409116
	29.375000	-0.489700
	29.380000	-0.560614
	29.385000	-0.476806
	29.390000	-0.418786
	29.395000	-0.492923
	29.400000	-0.554167
	29.405000	-0.476806
	29.410000	-0.415563
	29.415000	-0.492923
	29.420000	-0.557390
	29.425000	-0.476806
	29.430000	-0.409116
	29.435000	-0.496147
	29.440000	-0.560614
	29.445000	-0.470360
	29.450000	-0.412339
	29.455000	-0.499370
	29.460000	-0.554167
	29.465000	-0.473583
	29.470000	-0.415563
	29.475000	-0.499370
	29.480000	-0.563837
	29.485000	-0.470360
	29.490000	-0.418786
	29.495000	-0.489700
	29.500000	-0.557390
	29.505000	-0.473583
	29.510000	-0.412339
	29.515000	-0.496147
	29.520000	-0.560614
	29.525000	-0.473583
	29.530000	-0.409116
	29.535000	-0.496147
	29.540000	-0.557390
	29.545000	-0.470360
	29.550000	-0.418786
	29.555000	-0.496147
	29.560000	-0.554167
	29.565000	-0.476806
	29.570000	-0.418786
	29.575000	-0.502593
	29.580000	-0.557390
	29.585000	-0.473583
	29.590000	-0.412339
	29.595000	-0.492923
	29.600000	-0.557390
	29.605000	-0.473583
	29.610000	-0.412339
	29.615000	-0.502593
	29.620000	-0.557390
	29.625000	-0.473583
	29.630000	-0.409116
	29.635000	-0.499370
	29.640000	-0.557390
	29.645000	-0.476806
	29.650000	-0.422009
	29.655000	-0.496147
	29.660000	-0.550944
	29.665000	-0.476806
	29.670000	-0.418786
	29.675000	-0.499370
	29.680000	-0.563837
	29.685000	-0.476806
	29.690000	-0.412339
	29.695000	-0.505817
	29.700000	-0.567060
	29.705000	-0.473583
	29.710000	-0.425233
	29.715000	-0.502593
	29.720000	-0.567060
	29.725000	-0.476806
	29.730000	-0.418786
	29.735000	-0.509040
	29.740000	-0.560614
	29.745000	-0.480030
	29.750000	-0.422009
	29.755000	-0.515487
	29.760000	-0.567060
	29.765000	-0.476806
	29.770000	-0.418786
	29.775000	-0.515487
	29.780000	-0.567060
	29.785000	-0.473583
	29.790000	-0.415563
	29.795000	-0.515487
	29.800000	-0.563837
	29.805000	-0.473583
	29.810000	-0.428456
	29.815000	-0.512263
	29.820000	-0.560614
	29.825000	-0.470360
	29.830000	-0.425233
	29.835000	-0.512263
	29.840000	-0.563837
	29.845000	-0.476806
	29.850000	-0.422009
	29.855000	-0.509040
	29.860000	-0.570284
	29.865000	-0.480030
	29.870000	-0.422009
	29.875000	-0.512263
	29.880000	-0.563837
	29.885000	-0.473583
	29.890000	-0.425233
	29.895000	-0.515487
	29.900000	-0.567060
	29.905000	-0.473583
	29.910000	-0.418786
	29.915000	-0.515487
	29.920000	-0.563837
	29.925000	-0.480030
	29.930000	-0.428456
	29.935000	-0.505817
	29.940000	-0.567060
	29.945000	-0.470360
	29.950000	-0.422009
	29.955000	-0.509040
	29.960000	-0.567060
	29.965000	-0.473583
	29.970000	-0.425233
	29.975000	-0.499370
	29.980000	-0.560614
	29.985000	-0.476806
	29.990000	-0.418786
	29.995000	-0.509040
	30.000000	-0.567060
	30.005000	-0.473583
	30.010000	-0.415563
	30.015000	-0.512263
	30.020000	-0.560614
	30.025000	-0.476806
	30.030000	-0.425233
	30.035000	-0.515487
	30.040000	-0.560614
	30.045000	-0.480030
	30.050000	-0.425233
	30.055000	-0.512263
	30.060000	-0.563837
	30.065000	-0.473583
	30.070000	-0.422009
	30.075000	-0.509040
	30.080000	-0.560614
	30.085000	-0.476806
	30.090000	-0.418786
	30.095000	-0.512263
	30.100000	-0.563837
	30.105000	-0.473583
	30.110000	-0.422009
	30.115000	-0.509040
	30.120000	-0.560614
	30.125000	-0.467136
	30.130000	-0.428456
	30.135000	-0.512263
	30.140000	-0.563837
	30.145000	-0.473583
	30.150000	-0.422009
	30.155000	-0.515487
	30.160000	-0.563837
	30.165000	-0.470360
	30.170000	-0.425233
	30.175000	-0.509040
	30.180000	-0.567060
	30.185000	-0.476806
	30.190000	-0.422009
	30.195000	-0.512263
	30.200000	-0.563837
	30.205000	-0.470360
	30.210000	-0.431679
	30.215000	-0.515487
	30.220000	-0.563837
	30.225000	-0.473583
	30.230000	-0.418786
	30.235000	-0.515487
	30.240000	-0.567060
	30.245000	-0.473583
	30.250000	-0.425233
	30.255000	-0.515487
	30.260000	-0.563837
	30.265000	-0.473583
	30.270000	-0.425233
	30.275000	-0.518710
	30.280000	-0.563837
	30.285000	-0.476806
	30.290000	-0.422009
	30.295000	-0.518710
	30.300000	-0.563837
	30.305000	-0.473583
	30.310000	-0.418786
	30.315000	-0.521933
	30.320000	-0.567060
	30.325000	-0.473583
	30.330000	-0.418786
	30.335000	-0.509040
	30.340000	-0.567060
	30.345000	-0.476806
	30.350000	-0.422009
	30.355000	-0.515487
	30.360000	-0.560614
	30.365000	-0.476806
	30.370000	-0.428456
	30.375000	-0.525157
	30.380000	-0.567060
	30.385000	-0.480030
	30.390000	-0.428456
	30.395000	-0.515487
	30.400000	-0.563837
	30.405000	-0.470360
	30.410000	-0.425233
	30.415000	-0.512263
	30.420000	-0.567060
	30.425000	-0.470360
	30.430000	-0.425233
	30.435000	-0.515487
	30.440000	-0.560614
	30.445000	-0.473583
	30.450000	-0.425233
	30.455000	-0.515487
	30.460000	-0.560614
	30.465000	-0.467136
	30.470000	-0.418786
	30.475000	-0.515487
	30.480000	-0.563837
	30.485000	-0.470360
	30.490000	-0.428456
	30.495000	-0.518710
	30.500000	-0.567060
	30.505000	-0.467136
	30.510000	-0.428456
	30.515000	-0.515487
	30.520000	-0.563837
	30.525000	-0.463913
	30.530000	-0.425233
	30.535000	-0.521933
	30.540000	-0.560614
	30.545000	-0.470360
	30.550000	-0.425233
	30.555000	-0.521933
	30.560000	-0.560614
	30.565000	-0.470360
	30.570000	-0.425233
	30.575000	-0.515487
	30.580000	-0.563837
	30.585000	-0.476806
	30.590000	-0.431679
	30.595000	-0.512263
	30.600000	-0.560614
	30.605000	-0.467136
	30.610000	-0.422009
	30.615000	-0.515487
	30.620000	-0.557390
	30.625000	-0.467136
	30.630000	-0.428456
	30.635000	-0.518710
	30.640000	-0.560614
	30.645000	-0.463913
	30.650000	-0.422009
	30.655000	-0.521933
	30.660000	-0.554167
	30.665000	-0.467136
	30.670000	-0.425233
	30.675000	-0.521933
	30.680000	-0.560614
	30.685000	-0.473583
	30.690000	-0.422009
	30.695000	-0.521933
	30.700000	-0.554167
	30.705000	-0.460690
	30.710000	-0.425233
	30.715000	-0.512263
	30.720000	-0.560614
	30.725000	-0.463913
	30.730000	-0.418786
	30.735000	-0.521933
	30.740000	-0.560614
	30.745000	-0.460690
	30.750000	-0.418786
	30.755000	-0.515487
	30.760000	-0.550944
	30.765000	-0.467136
	30.770000	-0.425233
	30.775000	-0.518710
	30.780000	-0.557390
	30.785000	-0.457466
	30.790000	-0.425233
	30.795000	-0.521933
	30.800000	-0.557390
	30.805000	-0.457466
	30.810000	-0.418786
	30.815000	-0.518710
	30.820000	-0.554167
	30.825000	-0.457466
	30.830000	-0.425233
	30.835000	-0.515487
	30.840000	-0.554167
	30.845000	-0.463913
	30.850000	-0.422009
	30.855000	-0.512263
	30.860000	-0.560614
	30.865000	-0.457466
	30.870000	-0.418786
	30.875000	-0.512263
	30.880000	-0.554167
	30.885000	-0.457466
	30.890000	-0.418786
	30.895000	-0.518710
	30.900000	-0.557390
	30.905000	-0.467136
	30.910000	-0.425233
	30.915000	-0.521933
	30.920000	-0.557390
	30.925000	-0.457466
	30.930000	-0.428456
	30.935000	-0.521933
	30.940000	-0.557390
	30.945000	-0.463913
	30.950000	-0.428456
	30.955000	-0.518710
	30.960000	-0.567060
	30.965000	-0.463913
	30.970000	-0.425233
	30.975000	-0.521933
	30.980000	-0.560614
	30.985000	-0.457466
	30.990000	-0.425233
	30.995000	-0.518710
	31.000000	-0.550944
	31.005000	-0.460690
	31.010000	-0.422009
	31.015000	-0.521933
	31.020000	-0.560614
	31.025000	-0.460690
	31.030000	-0.425233
	31.035000	-0.521933
	31.040000	-0.557390
	31.045000	-0.457466
	31.050000	-0.422009
	31.055000	-0.521933
	31.060000	-0.554167
	31.065000	-0.457466
	31.070000	-0.428456
	31.075000	-0.521933
	31.080000	-0.544497
	31.085000	-0.460690
	31.090000	-0.418786
	31.095000	-0.521933
	31.100000	-0.554167
	31.105000	-0.454243
	31.110000	-0.418786
	31.115000	-0.518710
	31.120000	-0.547720
	31.125000	-0.451019
	31.130000	-0.415563
	31.135000	-0.518710
	31.140000	-0.541274
	31.145000	-0.447796
	31.150000	-0.415563
	31.155000	-0.509040
	31.160000	-0.541274
	31.165000	-0.447796
	31.170000	-0.412339
	31.175000	-0.515487
	31.180000	-0.541274
	31.185000	-0.444573
	31.190000	-0.405892
	31.195000	-0.512263
	31.200000	-0.538050
	31.205000	-0.434903
	31.210000	-0.405892
	31.215000	-0.502593
	31.220000	-0.534827
	31.225000	-0.438126
	31.230000	-0.409116
	31.235000	-0.505817
	31.240000	-0.531603
	31.245000	-0.434903
	31.250000	-0.399446
	31.255000	-0.492923
	31.260000	-0.531603
	31.265000	-0.431679
	31.270000	-0.392999
	31.275000	-0.499370
	31.280000	-0.531603
	31.285000	-0.431679
	31.290000	-0.402669
	31.295000	-0.496147
	31.300000	-0.525157
	31.305000	-0.431679
	31.310000	-0.399446
	31.315000	-0.492923
	31.320000	-0.528380
	31.325000	-0.425233
	31.330000	-0.399446
	31.335000	-0.499370
	31.340000	-0.525157
	31.345000	-0.431679
	31.350000	-0.402669
	31.355000	-0.492923
	31.360000	-0.521933
	31.365000	-0.425233
	31.370000	-0.402669
	31.375000	-0.496147
	31.380000	-0.521933
	31.385000	-0.428456
	31.390000	-0.392999
	31.395000	-0.496147
	31.400000	-0.528380
	31.405000	-0.428456
	31.410000	-0.399446
	31.415000	-0.492923
	31.420000	-0.525157
	31.425000	-0.425233
	31.430000	-0.396222
	31.435000	-0.499370
	31.440000	-0.521933
	31.445000	-0.431679
	31.450000	-0.399446
	31.455000	-0.502593
	31.460000	-0.521933
	31.465000	-0.428456
	31.470000	-0.399446
	31.475000	-0.496147
	31.480000	-0.528380
	31.485000	-0.428456
	31.490000	-0.402669
	31.495000	-0.509040
	31.500000	-0.534827
	31.505000	-0.444573
	31.510000	-0.412339
	31.515000	-0.521933
	31.520000	-0.541274
	31.525000	-0.447796
	31.530000	-0.418786
	31.535000	-0.525157
	31.540000	-0.544497
	31.545000	-0.444573
	31.550000	-0.425233
	31.555000	-0.515487
	31.560000	-0.544497
	31.565000	-0.441349
	31.570000	-0.415563
	31.575000	-0.525157
	31.580000	-0.544497
	31.585000	-0.441349
	31.590000	-0.422009
	31.595000	-0.521933
