2024/7/11 	 20:17:40 
 This file comes from Vt only measurement 	 1.000000E-1 
 Voltage Sensitivity 	 0.000000E+0 
 Sampling rate 	 200 
 Number of samples per channel 	 -1 
 No filter from Labview 	 	 	 
 	 
 ***End_of_Header*** 
 	 Time 	  Voltage 	 Filtered Voltage 	 
	0.000000	-0.438126
	0.005000	-0.363989
	0.010000	-0.370436
	0.015000	-0.451019
	0.020000	-0.438126
	0.025000	-0.367212
	0.030000	-0.370436
	0.035000	-0.451019
	0.040000	-0.441349
	0.045000	-0.370436
	0.050000	-0.373659
	0.055000	-0.460690
	0.060000	-0.451019
	0.065000	-0.370436
	0.070000	-0.383329
	0.075000	-0.463913
	0.080000	-0.454243
	0.085000	-0.376882
	0.090000	-0.380106
	0.095000	-0.460690
	0.100000	-0.454243
	0.105000	-0.376882
	0.110000	-0.392999
	0.115000	-0.467136
	0.120000	-0.457466
	0.125000	-0.380106
	0.130000	-0.386552
	0.135000	-0.473583
	0.140000	-0.463913
	0.145000	-0.389776
	0.150000	-0.392999
	0.155000	-0.473583
	0.160000	-0.463913
	0.165000	-0.380106
	0.170000	-0.396222
	0.175000	-0.473583
	0.180000	-0.457466
	0.185000	-0.386552
	0.190000	-0.389776
	0.195000	-0.460690
	0.200000	-0.460690
	0.205000	-0.383329
	0.210000	-0.392999
	0.215000	-0.470360
	0.220000	-0.460690
	0.225000	-0.386552
	0.230000	-0.386552
	0.235000	-0.467136
	0.240000	-0.457466
	0.245000	-0.386552
	0.250000	-0.392999
	0.255000	-0.467136
	0.260000	-0.460690
	0.265000	-0.386552
	0.270000	-0.389776
	0.275000	-0.473583
	0.280000	-0.463913
	0.285000	-0.380106
	0.290000	-0.389776
	0.295000	-0.470360
	0.300000	-0.463913
	0.305000	-0.386552
	0.310000	-0.392999
	0.315000	-0.473583
	0.320000	-0.463913
	0.325000	-0.392999
	0.330000	-0.396222
	0.335000	-0.483253
	0.340000	-0.470360
	0.345000	-0.399446
	0.350000	-0.399446
	0.355000	-0.476806
	0.360000	-0.480030
	0.365000	-0.399446
	0.370000	-0.399446
	0.375000	-0.480030
	0.380000	-0.476806
	0.385000	-0.402669
	0.390000	-0.402669
	0.395000	-0.480030
	0.400000	-0.480030
	0.405000	-0.392999
	0.410000	-0.402669
	0.415000	-0.486476
	0.420000	-0.480030
	0.425000	-0.396222
	0.430000	-0.405892
	0.435000	-0.483253
	0.440000	-0.480030
	0.445000	-0.405892
	0.450000	-0.405892
	0.455000	-0.486476
	0.460000	-0.480030
	0.465000	-0.402669
	0.470000	-0.409116
	0.475000	-0.489700
	0.480000	-0.480030
	0.485000	-0.412339
	0.490000	-0.412339
	0.495000	-0.492923
	0.500000	-0.486476
	0.505000	-0.409116
	0.510000	-0.418786
	0.515000	-0.496147
	0.520000	-0.483253
	0.525000	-0.412339
	0.530000	-0.418786
	0.535000	-0.496147
	0.540000	-0.489700
	0.545000	-0.409116
	0.550000	-0.422009
	0.555000	-0.496147
	0.560000	-0.489700
	0.565000	-0.415563
	0.570000	-0.415563
	0.575000	-0.499370
	0.580000	-0.492923
	0.585000	-0.415563
	0.590000	-0.422009
	0.595000	-0.496147
	0.600000	-0.502593
	0.605000	-0.422009
	0.610000	-0.418786
	0.615000	-0.499370
	0.620000	-0.496147
	0.625000	-0.418786
	0.630000	-0.425233
	0.635000	-0.502593
	0.640000	-0.499370
	0.645000	-0.418786
	0.650000	-0.425233
	0.655000	-0.502593
	0.660000	-0.496147
	0.665000	-0.422009
	0.670000	-0.418786
	0.675000	-0.499370
	0.680000	-0.502593
	0.685000	-0.425233
	0.690000	-0.422009
	0.695000	-0.499370
	0.700000	-0.496147
	0.705000	-0.422009
	0.710000	-0.428456
	0.715000	-0.496147
	0.720000	-0.502593
	0.725000	-0.418786
	0.730000	-0.428456
	0.735000	-0.502593
	0.740000	-0.499370
	0.745000	-0.425233
	0.750000	-0.425233
	0.755000	-0.502593
	0.760000	-0.496147
	0.765000	-0.425233
	0.770000	-0.425233
	0.775000	-0.499370
	0.780000	-0.502593
	0.785000	-0.425233
	0.790000	-0.425233
	0.795000	-0.509040
	0.800000	-0.505817
	0.805000	-0.425233
	0.810000	-0.428456
	0.815000	-0.509040
	0.820000	-0.509040
	0.825000	-0.425233
	0.830000	-0.422009
	0.835000	-0.509040
	0.840000	-0.505817
	0.845000	-0.431679
	0.850000	-0.431679
	0.855000	-0.505817
	0.860000	-0.512263
	0.865000	-0.438126
	0.870000	-0.428456
	0.875000	-0.512263
	0.880000	-0.509040
	0.885000	-0.428456
	0.890000	-0.431679
	0.895000	-0.509040
	0.900000	-0.505817
	0.905000	-0.434903
	0.910000	-0.431679
	0.915000	-0.512263
	0.920000	-0.509040
	0.925000	-0.434903
	0.930000	-0.431679
	0.935000	-0.512263
	0.940000	-0.515487
	0.945000	-0.438126
	0.950000	-0.431679
	0.955000	-0.515487
	0.960000	-0.512263
	0.965000	-0.431679
	0.970000	-0.438126
	0.975000	-0.509040
	0.980000	-0.518710
	0.985000	-0.438126
	0.990000	-0.441349
	0.995000	-0.518710
	1.000000	-0.515487
	1.005000	-0.438126
	1.010000	-0.434903
	1.015000	-0.512263
	1.020000	-0.518710
	1.025000	-0.441349
	1.030000	-0.438126
	1.035000	-0.509040
	1.040000	-0.515487
	1.045000	-0.431679
	1.050000	-0.441349
	1.055000	-0.518710
	1.060000	-0.521933
	1.065000	-0.438126
	1.070000	-0.441349
	1.075000	-0.518710
	1.080000	-0.525157
	1.085000	-0.447796
	1.090000	-0.438126
	1.095000	-0.515487
	1.100000	-0.518710
	1.105000	-0.441349
	1.110000	-0.438126
	1.115000	-0.521933
	1.120000	-0.525157
	1.125000	-0.441349
	1.130000	-0.444573
	1.135000	-0.515487
	1.140000	-0.521933
	1.145000	-0.444573
	1.150000	-0.438126
	1.155000	-0.518710
	1.160000	-0.518710
	1.165000	-0.444573
	1.170000	-0.441349
	1.175000	-0.521933
	1.180000	-0.525157
	1.185000	-0.447796
	1.190000	-0.444573
	1.195000	-0.521933
	1.200000	-0.525157
	1.205000	-0.451019
	1.210000	-0.444573
	1.215000	-0.525157
	1.220000	-0.534827
	1.225000	-0.454243
	1.230000	-0.438126
	1.235000	-0.528380
	1.240000	-0.531603
	1.245000	-0.457466
	1.250000	-0.441349
	1.255000	-0.525157
	1.260000	-0.531603
	1.265000	-0.457466
	1.270000	-0.444573
	1.275000	-0.525157
	1.280000	-0.528380
	1.285000	-0.451019
	1.290000	-0.444573
	1.295000	-0.525157
	1.300000	-0.534827
	1.305000	-0.463913
	1.310000	-0.447796
	1.315000	-0.525157
	1.320000	-0.528380
	1.325000	-0.457466
	1.330000	-0.447796
	1.335000	-0.521933
	1.340000	-0.531603
	1.345000	-0.454243
	1.350000	-0.451019
	1.355000	-0.525157
	1.360000	-0.525157
	1.365000	-0.454243
	1.370000	-0.444573
	1.375000	-0.525157
	1.380000	-0.531603
	1.385000	-0.457466
	1.390000	-0.444573
	1.395000	-0.525157
	1.400000	-0.531603
	1.405000	-0.454243
	1.410000	-0.444573
	1.415000	-0.515487
	1.420000	-0.525157
	1.425000	-0.447796
	1.430000	-0.444573
	1.435000	-0.521933
	1.440000	-0.528380
	1.445000	-0.454243
	1.450000	-0.444573
	1.455000	-0.521933
	1.460000	-0.525157
	1.465000	-0.451019
	1.470000	-0.441349
	1.475000	-0.521933
	1.480000	-0.531603
	1.485000	-0.454243
	1.490000	-0.438126
	1.495000	-0.518710
	1.500000	-0.531603
	1.505000	-0.451019
	1.510000	-0.441349
	1.515000	-0.521933
	1.520000	-0.525157
	1.525000	-0.454243
	1.530000	-0.441349
	1.535000	-0.515487
	1.540000	-0.521933
	1.545000	-0.451019
	1.550000	-0.434903
	1.555000	-0.518710
	1.560000	-0.528380
	1.565000	-0.447796
	1.570000	-0.438126
	1.575000	-0.518710
	1.580000	-0.525157
	1.585000	-0.447796
	1.590000	-0.438126
	1.595000	-0.512263
	1.600000	-0.528380
	1.605000	-0.441349
	1.610000	-0.425233
	1.615000	-0.502593
	1.620000	-0.515487
	1.625000	-0.438126
	1.630000	-0.422009
	1.635000	-0.502593
	1.640000	-0.509040
	1.645000	-0.434903
	1.650000	-0.415563
	1.655000	-0.499370
	1.660000	-0.509040
	1.665000	-0.428456
	1.670000	-0.422009
	1.675000	-0.499370
	1.680000	-0.509040
	1.685000	-0.431679
	1.690000	-0.422009
	1.695000	-0.499370
	1.700000	-0.509040
	1.705000	-0.434903
	1.710000	-0.422009
	1.715000	-0.499370
	1.720000	-0.509040
	1.725000	-0.441349
	1.730000	-0.418786
	1.735000	-0.502593
	1.740000	-0.512263
	1.745000	-0.431679
	1.750000	-0.415563
	1.755000	-0.492923
	1.760000	-0.512263
	1.765000	-0.438126
	1.770000	-0.422009
	1.775000	-0.502593
	1.780000	-0.512263
	1.785000	-0.434903
	1.790000	-0.415563
	1.795000	-0.496147
	1.800000	-0.512263
	1.805000	-0.438126
	1.810000	-0.422009
	1.815000	-0.492923
	1.820000	-0.505817
	1.825000	-0.434903
	1.830000	-0.418786
	1.835000	-0.496147
	1.840000	-0.512263
	1.845000	-0.428456
	1.850000	-0.425233
	1.855000	-0.502593
	1.860000	-0.502593
	1.865000	-0.438126
	1.870000	-0.418786
	1.875000	-0.499370
	1.880000	-0.509040
	1.885000	-0.434903
	1.890000	-0.418786
	1.895000	-0.496147
	1.900000	-0.512263
	1.905000	-0.434903
	1.910000	-0.415563
	1.915000	-0.496147
	1.920000	-0.512263
	1.925000	-0.438126
	1.930000	-0.418786
	1.935000	-0.502593
	1.940000	-0.505817
	1.945000	-0.431679
	1.950000	-0.418786
	1.955000	-0.492923
	1.960000	-0.512263
	1.965000	-0.431679
	1.970000	-0.415563
	1.975000	-0.492923
	1.980000	-0.509040
	1.985000	-0.434903
	1.990000	-0.418786
	1.995000	-0.489700
	2.000000	-0.512263
	2.005000	-0.431679
	2.010000	-0.418786
	2.015000	-0.489700
	2.020000	-0.502593
	2.025000	-0.434903
	2.030000	-0.405892
	2.035000	-0.486476
	2.040000	-0.509040
	2.045000	-0.434903
	2.050000	-0.412339
	2.055000	-0.492923
	2.060000	-0.509040
	2.065000	-0.428456
	2.070000	-0.415563
	2.075000	-0.486476
	2.080000	-0.505817
	2.085000	-0.428456
	2.090000	-0.412339
	2.095000	-0.489700
	2.100000	-0.502593
	2.105000	-0.431679
	2.110000	-0.412339
	2.115000	-0.483253
	2.120000	-0.496147
	2.125000	-0.418786
	2.130000	-0.412339
	2.135000	-0.486476
	2.140000	-0.499370
	2.145000	-0.422009
	2.150000	-0.412339
	2.155000	-0.480030
	2.160000	-0.502593
	2.165000	-0.425233
	2.170000	-0.405892
	2.175000	-0.480030
	2.180000	-0.499370
	2.185000	-0.428456
	2.190000	-0.405892
	2.195000	-0.480030
	2.200000	-0.499370
	2.205000	-0.422009
	2.210000	-0.409116
	2.215000	-0.483253
	2.220000	-0.496147
	2.225000	-0.425233
	2.230000	-0.405892
	2.235000	-0.476806
	2.240000	-0.496147
	2.245000	-0.425233
	2.250000	-0.405892
	2.255000	-0.480030
	2.260000	-0.496147
	2.265000	-0.422009
	2.270000	-0.399446
	2.275000	-0.480030
	2.280000	-0.492923
	2.285000	-0.422009
	2.290000	-0.396222
	2.295000	-0.476806
	2.300000	-0.492923
	2.305000	-0.425233
	2.310000	-0.399446
	2.315000	-0.470360
	2.320000	-0.499370
	2.325000	-0.425233
	2.330000	-0.399446
	2.335000	-0.470360
	2.340000	-0.489700
	2.345000	-0.425233
	2.350000	-0.399446
	2.355000	-0.480030
	2.360000	-0.492923
	2.365000	-0.422009
	2.370000	-0.396222
	2.375000	-0.467136
	2.380000	-0.496147
	2.385000	-0.418786
	2.390000	-0.396222
	2.395000	-0.476806
	2.400000	-0.489700
	2.405000	-0.418786
	2.410000	-0.396222
	2.415000	-0.470360
	2.420000	-0.496147
	2.425000	-0.422009
	2.430000	-0.392999
	2.435000	-0.467136
	2.440000	-0.492923
	2.445000	-0.425233
	2.450000	-0.399446
	2.455000	-0.473583
	2.460000	-0.492923
	2.465000	-0.425233
	2.470000	-0.405892
	2.475000	-0.476806
	2.480000	-0.492923
	2.485000	-0.428456
	2.490000	-0.405892
	2.495000	-0.473583
	2.500000	-0.486476
	2.505000	-0.409116
	2.510000	-0.380106
	2.515000	-0.451019
	2.520000	-0.463913
	2.525000	-0.399446
	2.530000	-0.363989
	2.535000	-0.425233
	2.540000	-0.438126
	2.545000	-0.367212
	2.550000	-0.331755
	2.555000	-0.392999
	2.560000	-0.418786
	2.565000	-0.351095
	2.570000	-0.318862
	2.575000	-0.386552
	2.580000	-0.402669
	2.585000	-0.315638
	2.590000	-0.299522
	2.595000	-0.363989
	2.600000	-0.383329
	2.605000	-0.309192
	2.610000	-0.276958
	2.615000	-0.344649
	2.620000	-0.367212
	2.625000	-0.293075
	2.630000	-0.257618
	2.635000	-0.328532
	2.640000	-0.347872
	2.645000	-0.276958
	2.650000	-0.244725
	2.655000	-0.305968
	2.660000	-0.328532
	2.665000	-0.254395
	2.670000	-0.228608
	2.675000	-0.296298
	2.680000	-0.309192
	2.685000	-0.247948
	2.690000	-0.218938
	2.695000	-0.289852
	2.700000	-0.305968
	2.705000	-0.238278
	2.710000	-0.222161
	2.715000	-0.289852
	2.720000	-0.318862
	2.725000	-0.244725
	2.730000	-0.225384
	2.735000	-0.296298
	2.740000	-0.328532
	2.745000	-0.264065
	2.750000	-0.251171
	2.755000	-0.322085
	2.760000	-0.360765
	2.765000	-0.302745
	2.770000	-0.286628
	2.775000	-0.370436
	2.780000	-0.405892
	2.785000	-0.360765
	2.790000	-0.354319
	2.795000	-0.431679
	2.800000	-0.463913
	2.805000	-0.405892
	2.810000	-0.405892
	2.815000	-0.476806
	2.820000	-0.518710
	2.825000	-0.467136
	2.830000	-0.447796
	2.835000	-0.528380
	2.840000	-0.557390
	2.845000	-0.496147
	2.850000	-0.470360
	2.855000	-0.534827
	2.860000	-0.554167
	2.865000	-0.486476
	2.870000	-0.454243
	2.875000	-0.515487
	2.880000	-0.525157
	2.885000	-0.451019
	2.890000	-0.415563
	2.895000	-0.463913
	2.900000	-0.476806
	2.905000	-0.399446
	2.910000	-0.357542
	2.915000	-0.402669
	2.920000	-0.405892
	2.925000	-0.322085
	2.930000	-0.280181
	2.935000	-0.322085
	2.940000	-0.334979
	2.945000	-0.244725
	2.950000	-0.199597
	2.955000	-0.251171
	2.960000	-0.264065
	2.965000	-0.189927
	2.970000	-0.160917
	2.975000	-0.228608
	2.980000	-0.254395
	2.985000	-0.186704
	2.990000	-0.167364
	2.995000	-0.241501
	3.000000	-0.273735
	3.005000	-0.218938
	3.010000	-0.189927
	3.015000	-0.273735
	3.020000	-0.312415
	3.025000	-0.251171
	3.030000	-0.225384
	3.035000	-0.296298
	3.040000	-0.328532
	3.045000	-0.273735
	3.050000	-0.257618
	3.055000	-0.322085
	3.060000	-0.367212
	3.065000	-0.309192
	3.070000	-0.280181
	3.075000	-0.351095
	3.080000	-0.392999
	3.085000	-0.331755
	3.090000	-0.309192
	3.095000	-0.383329
	3.100000	-0.418786
	3.105000	-0.360765
	3.110000	-0.334979
	3.115000	-0.405892
	3.120000	-0.444573
	3.125000	-0.386552
	3.130000	-0.363989
	3.135000	-0.444573
	3.140000	-0.470360
	3.145000	-0.418786
	3.150000	-0.392999
	3.155000	-0.463913
	3.160000	-0.505817
	3.165000	-0.444573
	3.170000	-0.425233
	3.175000	-0.486476
	3.180000	-0.525157
	3.185000	-0.457466
	3.190000	-0.434903
	3.195000	-0.512263
	3.200000	-0.550944
	3.205000	-0.483253
	3.210000	-0.454243
	3.215000	-0.528380
	3.220000	-0.560614
	3.225000	-0.502593
	3.230000	-0.476806
	3.235000	-0.544497
	3.240000	-0.576730
	3.245000	-0.518710
	3.250000	-0.486476
	3.255000	-0.557390
	3.260000	-0.592847
	3.265000	-0.525157
	3.270000	-0.499370
	3.275000	-0.563837
	3.280000	-0.599294
	3.285000	-0.534827
	3.290000	-0.505817
	3.295000	-0.570284
	3.300000	-0.608964
	3.305000	-0.544497
	3.310000	-0.515487
	3.315000	-0.576730
	3.320000	-0.612187
	3.325000	-0.557390
	3.330000	-0.521933
	3.335000	-0.589624
	3.340000	-0.628304
	3.345000	-0.563837
	3.350000	-0.538050
	3.355000	-0.599294
	3.360000	-0.634751
	3.365000	-0.570284
	3.370000	-0.541274
	3.375000	-0.605741
	3.380000	-0.637974
	3.385000	-0.579954
	3.390000	-0.547720
	3.395000	-0.615411
	3.400000	-0.647644
	3.405000	-0.579954
	3.410000	-0.557390
	3.415000	-0.615411
	3.420000	-0.650868
	3.425000	-0.579954
	3.430000	-0.554167
	3.435000	-0.618634
	3.440000	-0.654091
	3.445000	-0.592847
	3.450000	-0.554167
	3.455000	-0.621858
	3.460000	-0.654091
	3.465000	-0.592847
	3.470000	-0.557390
	3.475000	-0.618634
	3.480000	-0.660538
	3.485000	-0.592847
	3.490000	-0.560614
	3.495000	-0.631528
	3.500000	-0.657314
	3.505000	-0.589624
	3.510000	-0.563837
	3.515000	-0.625081
	3.520000	-0.654091
	3.525000	-0.596071
	3.530000	-0.560614
	3.535000	-0.628304
	3.540000	-0.663761
	3.545000	-0.596071
	3.550000	-0.567060
	3.555000	-0.631528
	3.560000	-0.663761
	3.565000	-0.596071
	3.570000	-0.567060
	3.575000	-0.634751
	3.580000	-0.663761
	3.585000	-0.599294
	3.590000	-0.563837
	3.595000	-0.634751
	3.600000	-0.670208
	3.605000	-0.599294
	3.610000	-0.560614
	3.615000	-0.631528
	3.620000	-0.660538
	3.625000	-0.596071
	3.630000	-0.563837
	3.635000	-0.631528
	3.640000	-0.657314
	3.645000	-0.599294
	3.650000	-0.560614
	3.655000	-0.625081
	3.660000	-0.663761
	3.665000	-0.592847
	3.670000	-0.560614
	3.675000	-0.628304
	3.680000	-0.660538
	3.685000	-0.599294
	3.690000	-0.554167
	3.695000	-0.628304
	3.700000	-0.660538
	3.705000	-0.596071
	3.710000	-0.560614
	3.715000	-0.628304
	3.720000	-0.657314
	3.725000	-0.599294
	3.730000	-0.563837
	3.735000	-0.621858
	3.740000	-0.670208
	3.745000	-0.596071
	3.750000	-0.557390
	3.755000	-0.625081
	3.760000	-0.654091
	3.765000	-0.592847
	3.770000	-0.557390
	3.775000	-0.631528
	3.780000	-0.663761
	3.785000	-0.592847
	3.790000	-0.557390
	3.795000	-0.618634
	3.800000	-0.663761
	3.805000	-0.599294
	3.810000	-0.554167
	3.815000	-0.621858
	3.820000	-0.660538
	3.825000	-0.592847
	3.830000	-0.554167
	3.835000	-0.618634
	3.840000	-0.654091
	3.845000	-0.596071
	3.850000	-0.557390
	3.855000	-0.615411
	3.860000	-0.657314
	3.865000	-0.592847
	3.870000	-0.554167
	3.875000	-0.615411
	3.880000	-0.654091
	3.885000	-0.586401
	3.890000	-0.554167
	3.895000	-0.621858
	3.900000	-0.654091
	3.905000	-0.583177
	3.910000	-0.554167
	3.915000	-0.612187
	3.920000	-0.650868
	3.925000	-0.586401
	3.930000	-0.541274
	3.935000	-0.608964
	3.940000	-0.647644
	3.945000	-0.586401
	3.950000	-0.541274
	3.955000	-0.612187
	3.960000	-0.650868
	3.965000	-0.579954
	3.970000	-0.541274
	3.975000	-0.608964
	3.980000	-0.647644
	3.985000	-0.579954
	3.990000	-0.541274
	3.995000	-0.608964
	4.000000	-0.644421
	4.005000	-0.573507
	4.010000	-0.547720
	4.015000	-0.605741
	4.020000	-0.644421
	4.025000	-0.579954
	4.030000	-0.538050
	4.035000	-0.599294
	4.040000	-0.641198
	4.045000	-0.579954
	4.050000	-0.528380
	4.055000	-0.596071
	4.060000	-0.641198
	4.065000	-0.576730
	4.070000	-0.534827
	4.075000	-0.599294
	4.080000	-0.641198
	4.085000	-0.573507
	4.090000	-0.531603
	4.095000	-0.592847
	4.100000	-0.634751
	4.105000	-0.573507
	4.110000	-0.534827
	4.115000	-0.596071
	4.120000	-0.637974
	4.125000	-0.573507
	4.130000	-0.525157
	4.135000	-0.592847
	4.140000	-0.637974
	4.145000	-0.576730
	4.150000	-0.531603
	4.155000	-0.589624
	4.160000	-0.634751
	4.165000	-0.570284
	4.170000	-0.531603
	4.175000	-0.589624
	4.180000	-0.637974
	4.185000	-0.573507
	4.190000	-0.521933
	4.195000	-0.592847
	4.200000	-0.634751
	4.205000	-0.567060
	4.210000	-0.525157
	4.215000	-0.583177
	4.220000	-0.631528
	4.225000	-0.563837
	4.230000	-0.525157
	4.235000	-0.583177
	4.240000	-0.628304
	4.245000	-0.567060
	4.250000	-0.512263
	4.255000	-0.586401
	4.260000	-0.634751
	4.265000	-0.567060
	4.270000	-0.518710
	4.275000	-0.583177
	4.280000	-0.628304
	4.285000	-0.563837
	4.290000	-0.525157
	4.295000	-0.589624
	4.300000	-0.625081
	4.305000	-0.557390
	4.310000	-0.518710
	4.315000	-0.579954
	4.320000	-0.631528
	4.325000	-0.567060
	4.330000	-0.525157
	4.335000	-0.579954
	4.340000	-0.631528
	4.345000	-0.560614
	4.350000	-0.521933
	4.355000	-0.583177
	4.360000	-0.628304
	4.365000	-0.567060
	4.370000	-0.518710
	4.375000	-0.592847
	4.380000	-0.634751
	4.385000	-0.570284
	4.390000	-0.518710
	4.395000	-0.586401
	4.400000	-0.641198
	4.405000	-0.563837
	4.410000	-0.528380
	4.415000	-0.583177
	4.420000	-0.631528
	4.425000	-0.570284
	4.430000	-0.521933
	4.435000	-0.589624
	4.440000	-0.631528
	4.445000	-0.567060
	4.450000	-0.521933
	4.455000	-0.589624
	4.460000	-0.637974
	4.465000	-0.570284
	4.470000	-0.528380
	4.475000	-0.586401
	4.480000	-0.634751
	4.485000	-0.573507
	4.490000	-0.531603
	4.495000	-0.592847
	4.500000	-0.634751
	4.505000	-0.579954
	4.510000	-0.525157
	4.515000	-0.589624
	4.520000	-0.641198
	4.525000	-0.570284
	4.530000	-0.528380
	4.535000	-0.592847
	4.540000	-0.637974
	4.545000	-0.576730
	4.550000	-0.538050
	4.555000	-0.592847
	4.560000	-0.644421
	4.565000	-0.579954
	4.570000	-0.534827
	4.575000	-0.596071
	4.580000	-0.644421
	4.585000	-0.579954
	4.590000	-0.541274
	4.595000	-0.599294
	4.600000	-0.650868
	4.605000	-0.583177
	4.610000	-0.538050
	4.615000	-0.592847
	4.620000	-0.644421
	4.625000	-0.589624
	4.630000	-0.534827
	4.635000	-0.596071
	4.640000	-0.650868
	4.645000	-0.583177
	4.650000	-0.531603
	4.655000	-0.596071
	4.660000	-0.647644
	4.665000	-0.589624
	4.670000	-0.541274
	4.675000	-0.602517
	4.680000	-0.641198
	4.685000	-0.583177
	4.690000	-0.541274
	4.695000	-0.599294
	4.700000	-0.644421
	4.705000	-0.589624
	4.710000	-0.538050
	4.715000	-0.605741
	4.720000	-0.657314
	4.725000	-0.586401
	4.730000	-0.541274
	4.735000	-0.602517
	4.740000	-0.650868
	4.745000	-0.596071
	4.750000	-0.547720
	4.755000	-0.605741
	4.760000	-0.657314
	4.765000	-0.589624
	4.770000	-0.541274
	4.775000	-0.602517
	4.780000	-0.654091
	4.785000	-0.596071
	4.790000	-0.544497
	4.795000	-0.605741
	4.800000	-0.650868
	4.805000	-0.592847
	4.810000	-0.541274
	4.815000	-0.608964
	4.820000	-0.654091
	4.825000	-0.599294
	4.830000	-0.544497
	4.835000	-0.602517
	4.840000	-0.654091
	4.845000	-0.599294
	4.850000	-0.547720
	4.855000	-0.612187
	4.860000	-0.657314
	4.865000	-0.599294
	4.870000	-0.547720
	4.875000	-0.599294
	4.880000	-0.660538
	4.885000	-0.602517
	4.890000	-0.544497
	4.895000	-0.608964
	4.900000	-0.663761
	4.905000	-0.596071
	4.910000	-0.550944
	4.915000	-0.612187
	4.920000	-0.657314
	4.925000	-0.599294
	4.930000	-0.550944
	4.935000	-0.615411
	4.940000	-0.660538
	4.945000	-0.605741
	4.950000	-0.547720
	4.955000	-0.608964
	4.960000	-0.663761
	4.965000	-0.602517
	4.970000	-0.547720
	4.975000	-0.612187
	4.980000	-0.657314
	4.985000	-0.605741
	4.990000	-0.547720
	4.995000	-0.612187
	5.000000	-0.654091
	5.005000	-0.602517
	5.010000	-0.554167
	5.015000	-0.608964
	5.020000	-0.660538
	5.025000	-0.605741
	5.030000	-0.547720
	5.035000	-0.605741
	5.040000	-0.660538
	5.045000	-0.599294
	5.050000	-0.547720
	5.055000	-0.608964
	5.060000	-0.660538
	5.065000	-0.602517
	5.070000	-0.547720
	5.075000	-0.602517
	5.080000	-0.660538
	5.085000	-0.605741
	5.090000	-0.550944
	5.095000	-0.612187
	5.100000	-0.657314
	5.105000	-0.599294
	5.110000	-0.557390
	5.115000	-0.612187
	5.120000	-0.663761
	5.125000	-0.608964
	5.130000	-0.554167
	5.135000	-0.599294
	5.140000	-0.663761
	5.145000	-0.612187
	5.150000	-0.557390
	5.155000	-0.605741
	5.160000	-0.657314
	5.165000	-0.599294
	5.170000	-0.547720
	5.175000	-0.608964
	5.180000	-0.663761
	5.185000	-0.608964
	5.190000	-0.557390
	5.195000	-0.612187
	5.200000	-0.663761
	5.205000	-0.605741
	5.210000	-0.554167
	5.215000	-0.599294
	5.220000	-0.663761
	5.225000	-0.608964
	5.230000	-0.554167
	5.235000	-0.605741
	5.240000	-0.663761
	5.245000	-0.608964
	5.250000	-0.550944
	5.255000	-0.599294
	5.260000	-0.666985
	5.265000	-0.605741
	5.270000	-0.550944
	5.275000	-0.612187
	5.280000	-0.670208
	5.285000	-0.605741
	5.290000	-0.560614
	5.295000	-0.615411
	5.300000	-0.670208
	5.305000	-0.605741
	5.310000	-0.563837
	5.315000	-0.605741
	5.320000	-0.666985
	5.325000	-0.602517
	5.330000	-0.554167
	5.335000	-0.612187
	5.340000	-0.663761
	5.345000	-0.612187
	5.350000	-0.554167
	5.355000	-0.612187
	5.360000	-0.666985
	5.365000	-0.612187
	5.370000	-0.557390
	5.375000	-0.615411
	5.380000	-0.670208
	5.385000	-0.608964
	5.390000	-0.560614
	5.395000	-0.615411
	5.400000	-0.670208
	5.405000	-0.612187
	5.410000	-0.557390
	5.415000	-0.615411
	5.420000	-0.670208
	5.425000	-0.608964
	5.430000	-0.560614
	5.435000	-0.608964
	5.440000	-0.666985
	5.445000	-0.615411
	5.450000	-0.557390
	5.455000	-0.618634
	5.460000	-0.666985
	5.465000	-0.615411
	5.470000	-0.560614
	5.475000	-0.612187
	5.480000	-0.673431
	5.485000	-0.612187
	5.490000	-0.563837
	5.495000	-0.612187
	5.500000	-0.670208
	5.505000	-0.615411
	5.510000	-0.563837
	5.515000	-0.615411
	5.520000	-0.673431
	5.525000	-0.625081
	5.530000	-0.560614
	5.535000	-0.618634
	5.540000	-0.670208
	5.545000	-0.618634
	5.550000	-0.563837
	5.555000	-0.618634
	5.560000	-0.676655
	5.565000	-0.621858
	5.570000	-0.567060
	5.575000	-0.615411
	5.580000	-0.676655
	5.585000	-0.625081
	5.590000	-0.563837
	5.595000	-0.621858
	5.600000	-0.676655
	5.605000	-0.625081
	5.610000	-0.567060
	5.615000	-0.615411
	5.620000	-0.679878
	5.625000	-0.618634
	5.630000	-0.567060
	5.635000	-0.615411
	5.640000	-0.679878
	5.645000	-0.625081
	5.650000	-0.567060
	5.655000	-0.618634
	5.660000	-0.673431
	5.665000	-0.618634
	5.670000	-0.570284
	5.675000	-0.618634
	5.680000	-0.670208
	5.685000	-0.615411
	5.690000	-0.560614
	5.695000	-0.608964
	5.700000	-0.676655
	5.705000	-0.612187
	5.710000	-0.550944
	5.715000	-0.612187
	5.720000	-0.666985
	5.725000	-0.621858
	5.730000	-0.560614
	5.735000	-0.608964
	5.740000	-0.666985
	5.745000	-0.608964
	5.750000	-0.550944
	5.755000	-0.602517
	5.760000	-0.663761
	5.765000	-0.605741
	5.770000	-0.550944
	5.775000	-0.599294
	5.780000	-0.663761
	5.785000	-0.612187
	5.790000	-0.544497
	5.795000	-0.596071
	5.800000	-0.654091
	5.805000	-0.599294
	5.810000	-0.547720
	5.815000	-0.589624
	5.820000	-0.650868
	5.825000	-0.596071
	5.830000	-0.534827
	5.835000	-0.586401
	5.840000	-0.650868
	5.845000	-0.589624
	5.850000	-0.538050
	5.855000	-0.579954
	5.860000	-0.637974
	5.865000	-0.592847
	5.870000	-0.534827
	5.875000	-0.586401
	5.880000	-0.637974
	5.885000	-0.586401
	5.890000	-0.528380
	5.895000	-0.579954
	5.900000	-0.644421
	5.905000	-0.583177
	5.910000	-0.528380
	5.915000	-0.579954
	5.920000	-0.631528
	5.925000	-0.589624
	5.930000	-0.518710
	5.935000	-0.579954
	5.940000	-0.631528
	5.945000	-0.579954
	5.950000	-0.525157
	5.955000	-0.570284
	5.960000	-0.631528
	5.965000	-0.576730
	5.970000	-0.518710
	5.975000	-0.573507
	5.980000	-0.628304
	5.985000	-0.583177
	5.990000	-0.525157
	5.995000	-0.570284
	6.000000	-0.631528
	6.005000	-0.586401
	6.010000	-0.518710
	6.015000	-0.570284
	6.020000	-0.628304
	6.025000	-0.583177
	6.030000	-0.525157
	6.035000	-0.567060
	6.040000	-0.625081
	6.045000	-0.586401
	6.050000	-0.521933
	6.055000	-0.570284
	6.060000	-0.631528
	6.065000	-0.576730
	6.070000	-0.521933
	6.075000	-0.567060
	6.080000	-0.634751
	6.085000	-0.579954
	6.090000	-0.515487
	6.095000	-0.560614
	6.100000	-0.628304
	6.105000	-0.579954
	6.110000	-0.515487
	6.115000	-0.567060
	6.120000	-0.625081
	6.125000	-0.576730
	6.130000	-0.515487
	6.135000	-0.557390
	6.140000	-0.621858
	6.145000	-0.576730
	6.150000	-0.518710
	6.155000	-0.563837
	6.160000	-0.625081
	6.165000	-0.576730
	6.170000	-0.509040
	6.175000	-0.557390
	6.180000	-0.612187
	6.185000	-0.573507
	6.190000	-0.505817
	6.195000	-0.560614
	6.200000	-0.621858
	6.205000	-0.573507
	6.210000	-0.505817
	6.215000	-0.557390
	6.220000	-0.615411
	6.225000	-0.567060
	6.230000	-0.512263
	6.235000	-0.557390
	6.240000	-0.618634
	6.245000	-0.563837
	6.250000	-0.505817
	6.255000	-0.554167
	6.260000	-0.615411
	6.265000	-0.570284
	6.270000	-0.502593
	6.275000	-0.554167
	6.280000	-0.608964
	6.285000	-0.567060
	6.290000	-0.502593
	6.295000	-0.541274
	6.300000	-0.608964
	6.305000	-0.563837
	6.310000	-0.499370
	6.315000	-0.550944
	6.320000	-0.605741
	6.325000	-0.557390
	6.330000	-0.499370
	6.335000	-0.547720
	6.340000	-0.605741
	6.345000	-0.563837
	6.350000	-0.496147
	6.355000	-0.534827
	6.360000	-0.605741
	6.365000	-0.563837
	6.370000	-0.499370
	6.375000	-0.541274
	6.380000	-0.608964
	6.385000	-0.554167
	6.390000	-0.492923
	6.395000	-0.531603
	6.400000	-0.599294
	6.405000	-0.557390
	6.410000	-0.492923
	6.415000	-0.538050
	6.420000	-0.596071
	6.425000	-0.554167
	6.430000	-0.492923
	6.435000	-0.538050
	6.440000	-0.599294
	6.445000	-0.554167
	6.450000	-0.483253
	6.455000	-0.534827
	6.460000	-0.599294
	6.465000	-0.557390
	6.470000	-0.492923
	6.475000	-0.534827
	6.480000	-0.602517
	6.485000	-0.557390
	6.490000	-0.502593
	6.495000	-0.541274
	6.500000	-0.608964
	6.505000	-0.563837
	6.510000	-0.505817
	6.515000	-0.550944
	6.520000	-0.615411
	6.525000	-0.563837
	6.530000	-0.499370
	6.535000	-0.544497
	6.540000	-0.602517
	6.545000	-0.557390
	6.550000	-0.489700
	6.555000	-0.531603
	6.560000	-0.596071
	6.565000	-0.547720
	6.570000	-0.483253
	6.575000	-0.518710
	6.580000	-0.576730
	6.585000	-0.534827
	6.590000	-0.473583
	6.595000	-0.502593
	6.600000	-0.560614
	6.605000	-0.515487
	6.610000	-0.451019
	6.615000	-0.476806
	6.620000	-0.538050
	6.625000	-0.486476
	6.630000	-0.418786
	6.635000	-0.454243
	6.640000	-0.509040
	6.645000	-0.463913
	6.650000	-0.389776
	6.655000	-0.418786
	6.660000	-0.476806
	6.665000	-0.418786
	6.670000	-0.360765
	6.675000	-0.380106
	6.680000	-0.444573
	6.685000	-0.392999
	6.690000	-0.325308
	6.695000	-0.354319
	6.700000	-0.412339
	6.705000	-0.363989
	6.710000	-0.293075
	6.715000	-0.322085
	6.720000	-0.376882
	6.725000	-0.331755
	6.730000	-0.251171
	6.735000	-0.289852
	6.740000	-0.351095
	6.745000	-0.312415
	6.750000	-0.257618
	6.755000	-0.296298
	6.760000	-0.367212
	6.765000	-0.334979
	6.770000	-0.280181
	6.775000	-0.325308
	6.780000	-0.402669
	6.785000	-0.363989
	6.790000	-0.309192
	6.795000	-0.354319
	6.800000	-0.412339
	6.805000	-0.386552
	6.810000	-0.322085
	6.815000	-0.363989
	6.820000	-0.418786
	6.825000	-0.380106
	6.830000	-0.318862
	6.835000	-0.354319
	6.840000	-0.412339
	6.845000	-0.363989
	6.850000	-0.296298
	6.855000	-0.325308
	6.860000	-0.373659
	6.865000	-0.341425
	6.870000	-0.267288
	6.875000	-0.296298
	6.880000	-0.351095
	6.885000	-0.309192
	6.890000	-0.244725
	6.895000	-0.270511
	6.900000	-0.331755
	6.905000	-0.299522
	6.910000	-0.238278
	6.915000	-0.273735
	6.920000	-0.328532
	6.925000	-0.296298
	6.930000	-0.235054
	6.935000	-0.270511
	6.940000	-0.344649
	6.945000	-0.305968
	6.950000	-0.247948
	6.955000	-0.296298
	6.960000	-0.360765
	6.965000	-0.338202
	6.970000	-0.283405
	6.975000	-0.325308
	6.980000	-0.405892
	6.985000	-0.370436
	6.990000	-0.318862
	6.995000	-0.357542
	7.000000	-0.428456
	7.005000	-0.399446
	7.010000	-0.347872
	7.015000	-0.389776
	7.020000	-0.457466
	7.025000	-0.431679
	7.030000	-0.383329
	7.035000	-0.422009
	7.040000	-0.492923
	7.045000	-0.460690
	7.050000	-0.405892
	7.055000	-0.447796
	7.060000	-0.525157
	7.065000	-0.499370
	7.070000	-0.431679
	7.075000	-0.476806
	7.080000	-0.541274
	7.085000	-0.512263
	7.090000	-0.457466
	7.095000	-0.486476
	7.100000	-0.557390
	7.105000	-0.521933
	7.110000	-0.463913
	7.115000	-0.502593
	7.120000	-0.570284
	7.125000	-0.547720
	7.130000	-0.480030
	7.135000	-0.518710
	7.140000	-0.592847
	7.145000	-0.560614
	7.150000	-0.499370
	7.155000	-0.531603
	7.160000	-0.612187
	7.165000	-0.576730
	7.170000	-0.521933
	7.175000	-0.554167
	7.180000	-0.634751
	7.185000	-0.605741
	7.190000	-0.544497
	7.195000	-0.589624
	7.200000	-0.654091
	7.205000	-0.628304
	7.210000	-0.573507
	7.215000	-0.612187
	7.220000	-0.683101
	7.225000	-0.654091
	7.230000	-0.589624
	7.235000	-0.631528
	7.240000	-0.708888
	7.245000	-0.676655
	7.250000	-0.608964
	7.255000	-0.650868
	7.260000	-0.718558
	7.265000	-0.686325
	7.270000	-0.631528
	7.275000	-0.660538
	7.280000	-0.737898
	7.285000	-0.702441
	7.290000	-0.641198
	7.295000	-0.673431
	7.300000	-0.741122
	7.305000	-0.712112
	7.310000	-0.647644
	7.315000	-0.679878
	7.320000	-0.747569
	7.325000	-0.728228
	7.330000	-0.660538
	7.335000	-0.695995
	7.340000	-0.757239
	7.345000	-0.734675
	7.350000	-0.670208
	7.355000	-0.695995
	7.360000	-0.766909
	7.365000	-0.731452
	7.370000	-0.670208
	7.375000	-0.708888
	7.380000	-0.773355
	7.385000	-0.741122
	7.390000	-0.673431
	7.395000	-0.705665
	7.400000	-0.773355
	7.405000	-0.741122
	7.410000	-0.679878
	7.415000	-0.705665
	7.420000	-0.773355
	7.425000	-0.741122
	7.430000	-0.673431
	7.435000	-0.705665
	7.440000	-0.776579
	7.445000	-0.747569
	7.450000	-0.679878
	7.455000	-0.705665
	7.460000	-0.776579
	7.465000	-0.750792
	7.470000	-0.679878
	7.475000	-0.712112
	7.480000	-0.779802
	7.485000	-0.747569
	7.490000	-0.683101
	7.495000	-0.712112
	7.500000	-0.779802
	7.505000	-0.747569
	7.510000	-0.679878
	7.515000	-0.712112
	7.520000	-0.770132
	7.525000	-0.744345
	7.530000	-0.670208
	7.535000	-0.699218
	7.540000	-0.766909
	7.545000	-0.741122
	7.550000	-0.666985
	7.555000	-0.702441
	7.560000	-0.766909
	7.565000	-0.741122
	7.570000	-0.673431
	7.575000	-0.702441
	7.580000	-0.776579
	7.585000	-0.734675
	7.590000	-0.670208
	7.595000	-0.702441
	7.600000	-0.766909
	7.605000	-0.737898
	7.610000	-0.673431
	7.615000	-0.695995
	7.620000	-0.763685
	7.625000	-0.741122
	7.630000	-0.666985
	7.635000	-0.699218
	7.640000	-0.763685
	7.645000	-0.734675
	7.650000	-0.663761
	7.655000	-0.692771
	7.660000	-0.760462
	7.665000	-0.734675
	7.670000	-0.666985
	7.675000	-0.692771
	7.680000	-0.763685
	7.685000	-0.734675
	7.690000	-0.666985
	7.695000	-0.689548
	7.700000	-0.766909
	7.705000	-0.734675
	7.710000	-0.666985
	7.715000	-0.692771
	7.720000	-0.763685
	7.725000	-0.734675
	7.730000	-0.660538
	7.735000	-0.689548
	7.740000	-0.763685
	7.745000	-0.731452
	7.750000	-0.663761
	7.755000	-0.689548
	7.760000	-0.757239
	7.765000	-0.731452
	7.770000	-0.657314
	7.775000	-0.692771
	7.780000	-0.754015
	7.785000	-0.734675
	7.790000	-0.660538
	7.795000	-0.686325
	7.800000	-0.757239
	7.805000	-0.721782
	7.810000	-0.650868
	7.815000	-0.676655
	7.820000	-0.750792
	7.825000	-0.725005
	7.830000	-0.654091
	7.835000	-0.676655
	7.840000	-0.747569
	7.845000	-0.718558
	7.850000	-0.647644
	7.855000	-0.676655
	7.860000	-0.747569
	7.865000	-0.715335
	7.870000	-0.647644
	7.875000	-0.670208
	7.880000	-0.741122
	7.885000	-0.715335
	7.890000	-0.644421
	7.895000	-0.666985
	7.900000	-0.737898
	7.905000	-0.715335
	7.910000	-0.634751
	7.915000	-0.666985
	7.920000	-0.737898
	7.925000	-0.712112
	7.930000	-0.634751
	7.935000	-0.660538
	7.940000	-0.734675
	7.945000	-0.708888
	7.950000	-0.634751
	7.955000	-0.660538
	7.960000	-0.737898
	7.965000	-0.705665
	7.970000	-0.628304
	7.975000	-0.657314
	7.980000	-0.731452
	7.985000	-0.705665
	7.990000	-0.628304
	7.995000	-0.660538
	8.000000	-0.725005
	8.005000	-0.702441
	8.010000	-0.631528
	8.015000	-0.654091
	8.020000	-0.725005
	8.025000	-0.695995
	8.030000	-0.631528
	8.035000	-0.650868
	8.040000	-0.718558
	8.045000	-0.699218
	8.050000	-0.625081
	8.055000	-0.650868
	8.060000	-0.718558
	8.065000	-0.692771
	8.070000	-0.625081
	8.075000	-0.650868
	8.080000	-0.725005
	8.085000	-0.699218
	8.090000	-0.621858
	8.095000	-0.641198
	8.100000	-0.721782
	8.105000	-0.699218
	8.110000	-0.625081
	8.115000	-0.641198
	8.120000	-0.712112
	8.125000	-0.695995
	8.130000	-0.615411
	8.135000	-0.641198
	8.140000	-0.718558
	8.145000	-0.692771
	8.150000	-0.618634
	8.155000	-0.637974
	8.160000	-0.718558
	8.165000	-0.695995
	8.170000	-0.618634
	8.175000	-0.641198
	8.180000	-0.715335
	8.185000	-0.676655
	8.190000	-0.615411
	8.195000	-0.644421
	8.200000	-0.712112
	8.205000	-0.689548
	8.210000	-0.618634
	8.215000	-0.631528
	8.220000	-0.708888
	8.225000	-0.689548
	8.230000	-0.612187
	8.235000	-0.637974
	8.240000	-0.708888
	8.245000	-0.686325
	8.250000	-0.605741
	8.255000	-0.637974
	8.260000	-0.712112
	8.265000	-0.692771
	8.270000	-0.608964
	8.275000	-0.631528
	8.280000	-0.702441
	8.285000	-0.686325
	8.290000	-0.608964
	8.295000	-0.634751
	8.300000	-0.708888
	8.305000	-0.689548
	8.310000	-0.612187
	8.315000	-0.634751
	8.320000	-0.708888
	8.325000	-0.676655
	8.330000	-0.612187
	8.335000	-0.634751
	8.340000	-0.708888
	8.345000	-0.686325
	8.350000	-0.602517
	8.355000	-0.634751
	8.360000	-0.702441
	8.365000	-0.679878
	8.370000	-0.608964
	8.375000	-0.625081
	8.380000	-0.702441
	8.385000	-0.676655
	8.390000	-0.608964
	8.395000	-0.631528
	8.400000	-0.702441
	8.405000	-0.683101
	8.410000	-0.605741
	8.415000	-0.625081
	8.420000	-0.705665
	8.425000	-0.686325
	8.430000	-0.605741
	8.435000	-0.625081
	8.440000	-0.705665
	8.445000	-0.679878
	8.450000	-0.608964
	8.455000	-0.625081
	8.460000	-0.699218
	8.465000	-0.683101
	8.470000	-0.605741
	8.475000	-0.625081
	8.480000	-0.699218
	8.485000	-0.679878
	8.490000	-0.605741
	8.495000	-0.625081
	8.500000	-0.699218
	8.505000	-0.679878
	8.510000	-0.605741
	8.515000	-0.628304
	8.520000	-0.702441
	8.525000	-0.676655
	8.530000	-0.605741
	8.535000	-0.618634
	8.540000	-0.695995
	8.545000	-0.676655
	8.550000	-0.605741
	8.555000	-0.621858
	8.560000	-0.695995
	8.565000	-0.679878
	8.570000	-0.605741
	8.575000	-0.618634
	8.580000	-0.695995
	8.585000	-0.676655
	8.590000	-0.602517
	8.595000	-0.625081
	8.600000	-0.689548
	8.605000	-0.670208
	8.610000	-0.596071
	8.615000	-0.618634
	8.620000	-0.699218
	8.625000	-0.670208
	8.630000	-0.599294
	8.635000	-0.618634
	8.640000	-0.702441
	8.645000	-0.673431
	8.650000	-0.602517
	8.655000	-0.615411
	8.660000	-0.692771
	8.665000	-0.683101
	8.670000	-0.602517
	8.675000	-0.618634
	8.680000	-0.689548
	8.685000	-0.676655
	8.690000	-0.599294
	8.695000	-0.615411
	8.700000	-0.695995
	8.705000	-0.676655
	8.710000	-0.599294
	8.715000	-0.618634
	8.720000	-0.689548
	8.725000	-0.676655
	8.730000	-0.599294
	8.735000	-0.615411
	8.740000	-0.692771
	8.745000	-0.676655
	8.750000	-0.599294
	8.755000	-0.618634
	8.760000	-0.689548
	8.765000	-0.673431
	8.770000	-0.602517
	8.775000	-0.612187
	8.780000	-0.692771
	8.785000	-0.676655
	8.790000	-0.592847
	8.795000	-0.605741
	8.800000	-0.692771
	8.805000	-0.673431
	8.810000	-0.602517
	8.815000	-0.618634
	8.820000	-0.692771
	8.825000	-0.670208
	8.830000	-0.592847
	8.835000	-0.618634
	8.840000	-0.689548
	8.845000	-0.670208
	8.850000	-0.596071
	8.855000	-0.615411
	8.860000	-0.695995
	8.865000	-0.676655
	8.870000	-0.602517
	8.875000	-0.615411
	8.880000	-0.692771
	8.885000	-0.673431
	8.890000	-0.596071
	8.895000	-0.615411
	8.900000	-0.692771
	8.905000	-0.676655
	8.910000	-0.602517
	8.915000	-0.612187
	8.920000	-0.692771
	8.925000	-0.676655
	8.930000	-0.596071
	8.935000	-0.615411
	8.940000	-0.686325
	8.945000	-0.679878
	8.950000	-0.602517
	8.955000	-0.608964
	8.960000	-0.686325
	8.965000	-0.673431
	8.970000	-0.596071
	8.975000	-0.608964
	8.980000	-0.689548
	8.985000	-0.673431
	8.990000	-0.599294
	8.995000	-0.608964
	9.000000	-0.686325
	9.005000	-0.676655
	9.010000	-0.599294
	9.015000	-0.602517
	9.020000	-0.689548
	9.025000	-0.676655
	9.030000	-0.596071
	9.035000	-0.608964
	9.040000	-0.686325
	9.045000	-0.676655
	9.050000	-0.592847
	9.055000	-0.608964
	9.060000	-0.689548
	9.065000	-0.673431
	9.070000	-0.596071
	9.075000	-0.612187
	9.080000	-0.689548
	9.085000	-0.676655
	9.090000	-0.599294
	9.095000	-0.605741
	9.100000	-0.692771
	9.105000	-0.679878
	9.110000	-0.599294
	9.115000	-0.608964
	9.120000	-0.689548
	9.125000	-0.676655
	9.130000	-0.599294
	9.135000	-0.605741
	9.140000	-0.695995
	9.145000	-0.676655
	9.150000	-0.605741
	9.155000	-0.605741
	9.160000	-0.689548
	9.165000	-0.679878
	9.170000	-0.599294
	9.175000	-0.615411
	9.180000	-0.692771
	9.185000	-0.676655
	9.190000	-0.596071
	9.195000	-0.608964
	9.200000	-0.692771
	9.205000	-0.683101
	9.210000	-0.599294
	9.215000	-0.608964
	9.220000	-0.686325
	9.225000	-0.679878
	9.230000	-0.599294
	9.235000	-0.615411
	9.240000	-0.689548
	9.245000	-0.679878
	9.250000	-0.608964
	9.255000	-0.608964
	9.260000	-0.689548
	9.265000	-0.676655
	9.270000	-0.596071
	9.275000	-0.612187
	9.280000	-0.686325
	9.285000	-0.679878
	9.290000	-0.599294
	9.295000	-0.605741
	9.300000	-0.686325
	9.305000	-0.679878
	9.310000	-0.599294
	9.315000	-0.612187
	9.320000	-0.686325
	9.325000	-0.676655
	9.330000	-0.605741
	9.335000	-0.605741
	9.340000	-0.689548
	9.345000	-0.676655
	9.350000	-0.602517
	9.355000	-0.605741
	9.360000	-0.683101
	9.365000	-0.679878
	9.370000	-0.599294
	9.375000	-0.605741
	9.380000	-0.683101
	9.385000	-0.679878
	9.390000	-0.596071
	9.395000	-0.602517
	9.400000	-0.683101
	9.405000	-0.676655
	9.410000	-0.596071
	9.415000	-0.612187
	9.420000	-0.683101
	9.425000	-0.679878
	9.430000	-0.596071
	9.435000	-0.605741
	9.440000	-0.683101
	9.445000	-0.673431
	9.450000	-0.599294
	9.455000	-0.602517
	9.460000	-0.686325
	9.465000	-0.673431
	9.470000	-0.599294
	9.475000	-0.602517
	9.480000	-0.683101
	9.485000	-0.673431
	9.490000	-0.599294
	9.495000	-0.605741
	9.500000	-0.683101
	9.505000	-0.673431
	9.510000	-0.599294
	9.515000	-0.608964
	9.520000	-0.686325
	9.525000	-0.673431
	9.530000	-0.599294
	9.535000	-0.602517
	9.540000	-0.686325
	9.545000	-0.673431
	9.550000	-0.596071
	9.555000	-0.602517
	9.560000	-0.686325
	9.565000	-0.673431
	9.570000	-0.602517
	9.575000	-0.599294
	9.580000	-0.686325
	9.585000	-0.676655
	9.590000	-0.605741
	9.595000	-0.602517
	9.600000	-0.683101
	9.605000	-0.676655
	9.610000	-0.599294
	9.615000	-0.605741
	9.620000	-0.679878
	9.625000	-0.683101
	9.630000	-0.602517
	9.635000	-0.608964
	9.640000	-0.683101
	9.645000	-0.673431
	9.650000	-0.599294
	9.655000	-0.602517
	9.660000	-0.676655
	9.665000	-0.676655
	9.670000	-0.599294
	9.675000	-0.605741
	9.680000	-0.686325
	9.685000	-0.683101
	9.690000	-0.599294
	9.695000	-0.599294
	9.700000	-0.683101
	9.705000	-0.676655
	9.710000	-0.599294
	9.715000	-0.605741
	9.720000	-0.683101
	9.725000	-0.679878
	9.730000	-0.602517
	9.735000	-0.605741
	9.740000	-0.683101
	9.745000	-0.676655
	9.750000	-0.599294
	9.755000	-0.605741
	9.760000	-0.683101
	9.765000	-0.676655
	9.770000	-0.605741
	9.775000	-0.605741
	9.780000	-0.683101
	9.785000	-0.673431
	9.790000	-0.599294
	9.795000	-0.596071
	9.800000	-0.683101
	9.805000	-0.679878
	9.810000	-0.596071
	9.815000	-0.602517
	9.820000	-0.676655
	9.825000	-0.679878
	9.830000	-0.602517
	9.835000	-0.596071
	9.840000	-0.686325
	9.845000	-0.679878
	9.850000	-0.599294
	9.855000	-0.599294
	9.860000	-0.676655
	9.865000	-0.673431
	9.870000	-0.602517
	9.875000	-0.592847
	9.880000	-0.679878
	9.885000	-0.679878
	9.890000	-0.599294
	9.895000	-0.602517
	9.900000	-0.673431
	9.905000	-0.676655
	9.910000	-0.599294
	9.915000	-0.605741
	9.920000	-0.676655
	9.925000	-0.673431
	9.930000	-0.596071
	9.935000	-0.599294
	9.940000	-0.676655
	9.945000	-0.676655
	9.950000	-0.592847
	9.955000	-0.592847
	9.960000	-0.673431
	9.965000	-0.673431
	9.970000	-0.596071
	9.975000	-0.596071
	9.980000	-0.670208
	9.985000	-0.673431
	9.990000	-0.596071
	9.995000	-0.596071
	10.000000	-0.676655
	10.005000	-0.670208
	10.010000	-0.596071
	10.015000	-0.596071
	10.020000	-0.666985
	10.025000	-0.673431
	10.030000	-0.592847
	10.035000	-0.592847
	10.040000	-0.683101
	10.045000	-0.676655
	10.050000	-0.602517
	10.055000	-0.592847
	10.060000	-0.676655
	10.065000	-0.683101
	10.070000	-0.599294
	10.075000	-0.596071
	10.080000	-0.679878
	10.085000	-0.670208
	10.090000	-0.596071
	10.095000	-0.599294
	10.100000	-0.679878
	10.105000	-0.683101
	10.110000	-0.602517
	10.115000	-0.596071
	10.120000	-0.673431
	10.125000	-0.683101
	10.130000	-0.599294
	10.135000	-0.596071
	10.140000	-0.676655
	10.145000	-0.676655
	10.150000	-0.599294
	10.155000	-0.592847
	10.160000	-0.673431
	10.165000	-0.683101
	10.170000	-0.602517
	10.175000	-0.596071
	10.180000	-0.676655
	10.185000	-0.679878
	10.190000	-0.596071
	10.195000	-0.589624
	10.200000	-0.673431
	10.205000	-0.679878
	10.210000	-0.596071
	10.215000	-0.592847
	10.220000	-0.676655
	10.225000	-0.673431
	10.230000	-0.592847
	10.235000	-0.592847
	10.240000	-0.670208
	10.245000	-0.673431
	10.250000	-0.599294
	10.255000	-0.596071
	10.260000	-0.679878
	10.265000	-0.673431
	10.270000	-0.596071
	10.275000	-0.586401
	10.280000	-0.670208
	10.285000	-0.670208
	10.290000	-0.599294
	10.295000	-0.589624
	10.300000	-0.670208
	10.305000	-0.673431
	10.310000	-0.589624
	10.315000	-0.586401
	10.320000	-0.670208
	10.325000	-0.673431
	10.330000	-0.592847
	10.335000	-0.586401
	10.340000	-0.660538
	10.345000	-0.666985
	10.350000	-0.592847
	10.355000	-0.583177
	10.360000	-0.663761
	10.365000	-0.663761
	10.370000	-0.592847
	10.375000	-0.583177
	10.380000	-0.666985
	10.385000	-0.666985
	10.390000	-0.596071
	10.395000	-0.579954
	10.400000	-0.663761
	10.405000	-0.666985
	10.410000	-0.592847
	10.415000	-0.583177
	10.420000	-0.663761
	10.425000	-0.670208
	10.430000	-0.589624
	10.435000	-0.589624
	10.440000	-0.663761
	10.445000	-0.673431
	10.450000	-0.592847
	10.455000	-0.579954
	10.460000	-0.666985
	10.465000	-0.676655
	10.470000	-0.583177
	10.475000	-0.576730
	10.480000	-0.663761
	10.485000	-0.666985
	10.490000	-0.592847
	10.495000	-0.583177
	10.500000	-0.660538
	10.505000	-0.666985
	10.510000	-0.596071
	10.515000	-0.576730
	10.520000	-0.654091
	10.525000	-0.660538
	10.530000	-0.583177
	10.535000	-0.573507
	10.540000	-0.644421
	10.545000	-0.657314
	10.550000	-0.579954
	10.555000	-0.567060
	10.560000	-0.644421
	10.565000	-0.650868
	10.570000	-0.573507
	10.575000	-0.557390
	10.580000	-0.634751
	10.585000	-0.644421
	10.590000	-0.563837
	10.595000	-0.547720
	10.600000	-0.631528
	10.605000	-0.637974
	10.610000	-0.560614
	10.615000	-0.547720
	10.620000	-0.625081
	10.625000	-0.628304
	10.630000	-0.554167
	10.635000	-0.541274
	10.640000	-0.618634
	10.645000	-0.625081
	10.650000	-0.550944
	10.655000	-0.541274
	10.660000	-0.612187
	10.665000	-0.628304
	10.670000	-0.547720
	10.675000	-0.538050
	10.680000	-0.618634
	10.685000	-0.625081
	10.690000	-0.547720
	10.695000	-0.534827
	10.700000	-0.612187
	10.705000	-0.618634
	10.710000	-0.538050
	10.715000	-0.525157
	10.720000	-0.608964
	10.725000	-0.615411
	10.730000	-0.544497
	10.735000	-0.528380
	10.740000	-0.608964
	10.745000	-0.612187
	10.750000	-0.534827
	10.755000	-0.518710
	10.760000	-0.596071
	10.765000	-0.608964
	10.770000	-0.531603
	10.775000	-0.515487
	10.780000	-0.592847
	10.785000	-0.602517
	10.790000	-0.534827
	10.795000	-0.518710
	10.800000	-0.592847
	10.805000	-0.602517
	10.810000	-0.538050
	10.815000	-0.509040
	10.820000	-0.592847
	10.825000	-0.605741
	10.830000	-0.531603
	10.835000	-0.518710
	10.840000	-0.586401
	10.845000	-0.602517
	10.850000	-0.525157
	10.855000	-0.509040
	10.860000	-0.586401
	10.865000	-0.605741
	10.870000	-0.531603
	10.875000	-0.509040
	10.880000	-0.589624
	10.885000	-0.599294
	10.890000	-0.528380
	10.895000	-0.505817
	10.900000	-0.579954
	10.905000	-0.599294
	10.910000	-0.525157
	10.915000	-0.502593
	10.920000	-0.583177
	10.925000	-0.599294
	10.930000	-0.518710
	10.935000	-0.505817
	10.940000	-0.573507
	10.945000	-0.592847
	10.950000	-0.518710
	10.955000	-0.505817
	10.960000	-0.573507
	10.965000	-0.592847
	10.970000	-0.515487
	10.975000	-0.502593
	10.980000	-0.573507
	10.985000	-0.592847
	10.990000	-0.521933
	10.995000	-0.502593
	11.000000	-0.573507
	11.005000	-0.592847
	11.010000	-0.515487
	11.015000	-0.499370
	11.020000	-0.573507
	11.025000	-0.592847
	11.030000	-0.518710
	11.035000	-0.499370
	11.040000	-0.573507
	11.045000	-0.583177
	11.050000	-0.512263
	11.055000	-0.499370
	11.060000	-0.567060
	11.065000	-0.586401
	11.070000	-0.512263
	11.075000	-0.496147
	11.080000	-0.563837
	11.085000	-0.592847
	11.090000	-0.509040
	11.095000	-0.496147
	11.100000	-0.570284
	11.105000	-0.583177
	11.110000	-0.512263
	11.115000	-0.499370
	11.120000	-0.573507
	11.125000	-0.586401
	11.130000	-0.515487
	11.135000	-0.496147
	11.140000	-0.573507
	11.145000	-0.589624
	11.150000	-0.515487
	11.155000	-0.502593
	11.160000	-0.570284
	11.165000	-0.589624
	11.170000	-0.518710
	11.175000	-0.505817
	11.180000	-0.570284
	11.185000	-0.592847
	11.190000	-0.525157
	11.195000	-0.505817
	11.200000	-0.583177
	11.205000	-0.602517
	11.210000	-0.525157
	11.215000	-0.515487
	11.220000	-0.586401
	11.225000	-0.608964
	11.230000	-0.541274
	11.235000	-0.512263
	11.240000	-0.592847
	11.245000	-0.608964
	11.250000	-0.547720
	11.255000	-0.521933
	11.260000	-0.599294
	11.265000	-0.615411
	11.270000	-0.541274
	11.275000	-0.521933
	11.280000	-0.592847
	11.285000	-0.608964
	11.290000	-0.534827
	11.295000	-0.518710
	11.300000	-0.579954
	11.305000	-0.596071
	11.310000	-0.515487
	11.315000	-0.496147
	11.320000	-0.557390
	11.325000	-0.573507
	11.330000	-0.499370
	11.335000	-0.463913
	11.340000	-0.531603
	11.345000	-0.547720
	11.350000	-0.467136
	11.355000	-0.434903
	11.360000	-0.502593
	11.365000	-0.512263
	11.370000	-0.431679
	11.375000	-0.409116
	11.380000	-0.470360
	11.385000	-0.486476
	11.390000	-0.405892
	11.395000	-0.380106
	11.400000	-0.444573
	11.405000	-0.457466
	11.410000	-0.380106
	11.415000	-0.347872
	11.420000	-0.412339
	11.425000	-0.431679
	11.430000	-0.347872
	11.435000	-0.318862
	11.440000	-0.380106
	11.445000	-0.396222
	11.450000	-0.318862
	11.455000	-0.286628
	11.460000	-0.357542
	11.465000	-0.383329
	11.470000	-0.318862
	11.475000	-0.293075
	11.480000	-0.367212
	11.485000	-0.402669
	11.490000	-0.344649
	11.495000	-0.322085
	11.500000	-0.412339
	11.505000	-0.434903
	11.510000	-0.380106
	11.515000	-0.363989
	11.520000	-0.441349
	11.525000	-0.467136
	11.530000	-0.409116
	11.535000	-0.376882
	11.540000	-0.454243
	11.545000	-0.480030
	11.550000	-0.405892
	11.555000	-0.389776
	11.560000	-0.454243
	11.565000	-0.483253
	11.570000	-0.412339
	11.575000	-0.386552
	11.580000	-0.457466
	11.585000	-0.473583
	11.590000	-0.402669
	11.595000	-0.386552
	11.600000	-0.441349
	11.605000	-0.457466
	11.610000	-0.386552
	11.615000	-0.347872
	11.620000	-0.402669
	11.625000	-0.415563
	11.630000	-0.347872
	11.635000	-0.312415
	11.640000	-0.370436
	11.645000	-0.380106
	11.650000	-0.302745
	11.655000	-0.280181
	11.660000	-0.341425
	11.665000	-0.363989
	11.670000	-0.293075
	11.675000	-0.273735
	11.680000	-0.344649
	11.685000	-0.370436
	11.690000	-0.312415
	11.695000	-0.289852
	11.700000	-0.370436
	11.705000	-0.402669
	11.710000	-0.341425
	11.715000	-0.325308
	11.720000	-0.405892
	11.725000	-0.434903
	11.730000	-0.383329
	11.735000	-0.363989
	11.740000	-0.431679
	11.745000	-0.463913
	11.750000	-0.412339
	11.755000	-0.392999
	11.760000	-0.457466
	11.765000	-0.496147
	11.770000	-0.438126
	11.775000	-0.409116
	11.780000	-0.483253
	11.785000	-0.509040
	11.790000	-0.451019
	11.795000	-0.422009
	11.800000	-0.499370
	11.805000	-0.528380
	11.810000	-0.467136
	11.815000	-0.444573
	11.820000	-0.512263
	11.825000	-0.554167
	11.830000	-0.489700
	11.835000	-0.460690
	11.840000	-0.534827
	11.845000	-0.563837
	11.850000	-0.499370
	11.855000	-0.483253
	11.860000	-0.550944
	11.865000	-0.583177
	11.870000	-0.518710
	11.875000	-0.499370
	11.880000	-0.567060
	11.885000	-0.605741
	11.890000	-0.541274
	11.895000	-0.518710
	11.900000	-0.592847
	11.905000	-0.618634
	11.910000	-0.560614
	11.915000	-0.541274
	11.920000	-0.608964
	11.925000	-0.634751
	11.930000	-0.583177
	11.935000	-0.563837
	11.940000	-0.634751
	11.945000	-0.670208
	11.950000	-0.608964
	11.955000	-0.586401
	11.960000	-0.660538
	11.965000	-0.695995
	11.970000	-0.631528
	11.975000	-0.608964
	11.980000	-0.673431
	11.985000	-0.712112
	11.990000	-0.650868
	11.995000	-0.625081
	12.000000	-0.699218
	12.005000	-0.734675
	12.010000	-0.670208
	12.015000	-0.647644
	12.020000	-0.708888
	12.025000	-0.747569
	12.030000	-0.683101
	12.035000	-0.654091
	12.040000	-0.725005
	12.045000	-0.757239
	12.050000	-0.699218
	12.055000	-0.666985
	12.060000	-0.741122
	12.065000	-0.776579
	12.070000	-0.712112
	12.075000	-0.676655
	12.080000	-0.744345
	12.085000	-0.779802
	12.090000	-0.715335
	12.095000	-0.686325
	12.100000	-0.754015
	12.105000	-0.789472
	12.110000	-0.718558
	12.115000	-0.692771
	12.120000	-0.757239
	12.125000	-0.789472
	12.130000	-0.728228
	12.135000	-0.695995
	12.140000	-0.763685
	12.145000	-0.792696
	12.150000	-0.721782
	12.155000	-0.699218
	12.160000	-0.766909
	12.165000	-0.795919
	12.170000	-0.728228
	12.175000	-0.695995
	12.180000	-0.763685
	12.185000	-0.795919
	12.190000	-0.731452
	12.195000	-0.692771
	12.200000	-0.757239
	12.205000	-0.795919
	12.210000	-0.721782
	12.215000	-0.695995
	12.220000	-0.760462
	12.225000	-0.792696
	12.230000	-0.731452
	12.235000	-0.699218
	12.240000	-0.760462
	12.245000	-0.795919
	12.250000	-0.721782
	12.255000	-0.686325
	12.260000	-0.757239
	12.265000	-0.789472
	12.270000	-0.718558
	12.275000	-0.679878
	12.280000	-0.754015
	12.285000	-0.792696
	12.290000	-0.715335
	12.295000	-0.686325
	12.300000	-0.754015
	12.305000	-0.779802
	12.310000	-0.715335
	12.315000	-0.676655
	12.320000	-0.747569
	12.325000	-0.779802
	12.330000	-0.718558
	12.335000	-0.683101
	12.340000	-0.741122
	12.345000	-0.779802
	12.350000	-0.712112
	12.355000	-0.673431
	12.360000	-0.741122
	12.365000	-0.773355
	12.370000	-0.705665
	12.375000	-0.673431
	12.380000	-0.741122
	12.385000	-0.773355
	12.390000	-0.708888
	12.395000	-0.666985
	12.400000	-0.734675
	12.405000	-0.766909
	12.410000	-0.705665
	12.415000	-0.666985
	12.420000	-0.734675
	12.425000	-0.773355
	12.430000	-0.699218
	12.435000	-0.666985
	12.440000	-0.725005
	12.445000	-0.770132
	12.450000	-0.699218
	12.455000	-0.670208
	12.460000	-0.721782
	12.465000	-0.770132
	12.470000	-0.699218
	12.475000	-0.663761
	12.480000	-0.728228
	12.485000	-0.763685
	12.490000	-0.692771
	12.495000	-0.660538
	12.500000	-0.728228
	12.505000	-0.770132
	12.510000	-0.699218
	12.515000	-0.663761
	12.520000	-0.728228
	12.525000	-0.763685
	12.530000	-0.702441
	12.535000	-0.660538
	12.540000	-0.734675
	12.545000	-0.766909
	12.550000	-0.699218
	12.555000	-0.660538
	12.560000	-0.725005
	12.565000	-0.763685
	12.570000	-0.705665
	12.575000	-0.663761
	12.580000	-0.731452
	12.585000	-0.760462
	12.590000	-0.702441
	12.595000	-0.666985
	12.600000	-0.725005
	12.605000	-0.763685
	12.610000	-0.702441
	12.615000	-0.660538
	12.620000	-0.728228
	12.625000	-0.763685
	12.630000	-0.708888
	12.635000	-0.666985
	12.640000	-0.728228
	12.645000	-0.766909
	12.650000	-0.699218
	12.655000	-0.666985
	12.660000	-0.728228
	12.665000	-0.766909
	12.670000	-0.695995
	12.675000	-0.660538
	12.680000	-0.728228
	12.685000	-0.773355
	12.690000	-0.702441
	12.695000	-0.660538
	12.700000	-0.728228
	12.705000	-0.776579
	12.710000	-0.702441
	12.715000	-0.663761
	12.720000	-0.721782
	12.725000	-0.763685
	12.730000	-0.702441
	12.735000	-0.657314
	12.740000	-0.731452
	12.745000	-0.773355
	12.750000	-0.699218
	12.755000	-0.660538
	12.760000	-0.718558
	12.765000	-0.763685
	12.770000	-0.702441
	12.775000	-0.660538
	12.780000	-0.715335
	12.785000	-0.763685
	12.790000	-0.692771
	12.795000	-0.650868
	12.800000	-0.712112
	12.805000	-0.760462
	12.810000	-0.689548
	12.815000	-0.654091
	12.820000	-0.718558
	12.825000	-0.757239
	12.830000	-0.683101
	12.835000	-0.654091
	12.840000	-0.715335
	12.845000	-0.757239
	12.850000	-0.686325
	12.855000	-0.647644
	12.860000	-0.708888
	12.865000	-0.754015
	12.870000	-0.686325
	12.875000	-0.647644
	12.880000	-0.705665
	12.885000	-0.747569
	12.890000	-0.692771
	12.895000	-0.641198
	12.900000	-0.712112
	12.905000	-0.754015
	12.910000	-0.683101
	12.915000	-0.641198
	12.920000	-0.702441
	12.925000	-0.750792
	12.930000	-0.683101
	12.935000	-0.641198
	12.940000	-0.708888
	12.945000	-0.750792
	12.950000	-0.679878
	12.955000	-0.637974
	12.960000	-0.705665
	12.965000	-0.754015
	12.970000	-0.689548
	12.975000	-0.634751
	12.980000	-0.699218
	12.985000	-0.744345
	12.990000	-0.683101
	12.995000	-0.637974
	13.000000	-0.695995
	13.005000	-0.747569
	13.010000	-0.676655
	13.015000	-0.637974
	13.020000	-0.695995
	13.025000	-0.737898
	13.030000	-0.689548
	13.035000	-0.631528
	13.040000	-0.689548
	13.045000	-0.737898
	13.050000	-0.673431
	13.055000	-0.625081
	13.060000	-0.695995
	13.065000	-0.734675
	13.070000	-0.676655
	13.075000	-0.628304
	13.080000	-0.695995
	13.085000	-0.734675
	13.090000	-0.670208
	13.095000	-0.625081
	13.100000	-0.689548
	13.105000	-0.731452
	13.110000	-0.673431
	13.115000	-0.625081
	13.120000	-0.689548
	13.125000	-0.737898
	13.130000	-0.673431
	13.135000	-0.625081
	13.140000	-0.689548
	13.145000	-0.737898
	13.150000	-0.673431
	13.155000	-0.628304
	13.160000	-0.692771
	13.165000	-0.728228
	13.170000	-0.666985
	13.175000	-0.625081
	13.180000	-0.686325
	13.185000	-0.734675
	13.190000	-0.673431
	13.195000	-0.621858
	13.200000	-0.683101
	13.205000	-0.734675
	13.210000	-0.663761
	13.215000	-0.621858
	13.220000	-0.686325
	13.225000	-0.737898
	13.230000	-0.670208
	13.235000	-0.618634
	13.240000	-0.679878
	13.245000	-0.728228
	13.250000	-0.670208
	13.255000	-0.628304
	13.260000	-0.686325
	13.265000	-0.734675
	13.270000	-0.670208
	13.275000	-0.628304
	13.280000	-0.689548
	13.285000	-0.728228
	13.290000	-0.676655
	13.295000	-0.625081
	13.300000	-0.679878
	13.305000	-0.737898
	13.310000	-0.670208
	13.315000	-0.625081
	13.320000	-0.686325
	13.325000	-0.731452
	13.330000	-0.679878
	13.335000	-0.625081
	13.340000	-0.679878
	13.345000	-0.731452
	13.350000	-0.670208
	13.355000	-0.621858
	13.360000	-0.676655
	13.365000	-0.734675
	13.370000	-0.673431
	13.375000	-0.621858
	13.380000	-0.683101
	13.385000	-0.731452
	13.390000	-0.673431
	13.395000	-0.631528
	13.400000	-0.686325
	13.405000	-0.728228
	13.410000	-0.670208
	13.415000	-0.621858
	13.420000	-0.673431
	13.425000	-0.725005
	13.430000	-0.670208
	13.435000	-0.618634
	13.440000	-0.679878
	13.445000	-0.725005
	13.450000	-0.663761
	13.455000	-0.618634
	13.460000	-0.676655
	13.465000	-0.731452
	13.470000	-0.666985
	13.475000	-0.618634
	13.480000	-0.683101
	13.485000	-0.725005
	13.490000	-0.666985
	13.495000	-0.612187
	13.500000	-0.670208
	13.505000	-0.721782
	13.510000	-0.670208
	13.515000	-0.618634
	13.520000	-0.673431
	13.525000	-0.718558
	13.530000	-0.663761
	13.535000	-0.615411
	13.540000	-0.673431
	13.545000	-0.718558
	13.550000	-0.663761
	13.555000	-0.612187
	13.560000	-0.673431
	13.565000	-0.718558
	13.570000	-0.663761
	13.575000	-0.605741
	13.580000	-0.676655
	13.585000	-0.718558
	13.590000	-0.657314
	13.595000	-0.612187
	13.600000	-0.673431
	13.605000	-0.725005
	13.610000	-0.663761
	13.615000	-0.612187
	13.620000	-0.666985
	13.625000	-0.721782
	13.630000	-0.660538
	13.635000	-0.612187
	13.640000	-0.663761
	13.645000	-0.715335
	13.650000	-0.657314
	13.655000	-0.612187
	13.660000	-0.666985
	13.665000	-0.718558
	13.670000	-0.663761
	13.675000	-0.608964
	13.680000	-0.660538
	13.685000	-0.715335
	13.690000	-0.657314
	13.695000	-0.608964
	13.700000	-0.666985
	13.705000	-0.718558
	13.710000	-0.663761
	13.715000	-0.608964
	13.720000	-0.660538
	13.725000	-0.715335
	13.730000	-0.657314
	13.735000	-0.608964
	13.740000	-0.663761
	13.745000	-0.715335
	13.750000	-0.654091
	13.755000	-0.602517
	13.760000	-0.660538
	13.765000	-0.712112
	13.770000	-0.660538
	13.775000	-0.599294
	13.780000	-0.657314
	13.785000	-0.715335
	13.790000	-0.657314
	13.795000	-0.599294
	13.800000	-0.660538
	13.805000	-0.712112
	13.810000	-0.657314
	13.815000	-0.599294
	13.820000	-0.660538
	13.825000	-0.712112
	13.830000	-0.654091
	13.835000	-0.605741
	13.840000	-0.660538
	13.845000	-0.708888
	13.850000	-0.650868
	13.855000	-0.602517
	13.860000	-0.657314
	13.865000	-0.712112
	13.870000	-0.657314
	13.875000	-0.602517
	13.880000	-0.657314
	13.885000	-0.708888
	13.890000	-0.647644
	13.895000	-0.599294
	13.900000	-0.654091
	13.905000	-0.705665
	13.910000	-0.654091
	13.915000	-0.602517
	13.920000	-0.654091
	13.925000	-0.705665
	13.930000	-0.657314
	13.935000	-0.592847
	13.940000	-0.654091
	13.945000	-0.712112
	13.950000	-0.654091
	13.955000	-0.605741
	13.960000	-0.657314
	13.965000	-0.712112
	13.970000	-0.654091
	13.975000	-0.602517
	13.980000	-0.650868
	13.985000	-0.712112
	13.990000	-0.650868
	13.995000	-0.602517
	14.000000	-0.654091
	14.005000	-0.712112
	14.010000	-0.660538
	14.015000	-0.592847
	14.020000	-0.647644
	14.025000	-0.712112
	14.030000	-0.654091
	14.035000	-0.602517
	14.040000	-0.654091
	14.045000	-0.708888
	14.050000	-0.657314
	14.055000	-0.599294
	14.060000	-0.654091
	14.065000	-0.712112
	14.070000	-0.660538
	14.075000	-0.599294
	14.080000	-0.660538
	14.085000	-0.705665
	14.090000	-0.654091
	14.095000	-0.599294
	14.100000	-0.650868
	14.105000	-0.712112
	14.110000	-0.660538
	14.115000	-0.599294
	14.120000	-0.657314
	14.125000	-0.708888
	14.130000	-0.657314
	14.135000	-0.608964
	14.140000	-0.657314
	14.145000	-0.712112
	14.150000	-0.654091
	14.155000	-0.599294
	14.160000	-0.657314
	14.165000	-0.715335
	14.170000	-0.650868
	14.175000	-0.596071
	14.180000	-0.654091
	14.185000	-0.708888
	14.190000	-0.654091
	14.195000	-0.599294
	14.200000	-0.654091
	14.205000	-0.705665
	14.210000	-0.654091
	14.215000	-0.602517
	14.220000	-0.650868
	14.225000	-0.715335
	14.230000	-0.657314
	14.235000	-0.602517
	14.240000	-0.654091
	14.245000	-0.705665
	14.250000	-0.657314
	14.255000	-0.592847
	14.260000	-0.647644
	14.265000	-0.708888
	14.270000	-0.650868
	14.275000	-0.596071
	14.280000	-0.650868
	14.285000	-0.708888
	14.290000	-0.650868
	14.295000	-0.602517
	14.300000	-0.650868
	14.305000	-0.705665
	14.310000	-0.660538
	14.315000	-0.592847
	14.320000	-0.650868
	14.325000	-0.705665
	14.330000	-0.657314
	14.335000	-0.596071
	14.340000	-0.650868
	14.345000	-0.712112
	14.350000	-0.657314
	14.355000	-0.599294
	14.360000	-0.647644
	14.365000	-0.705665
	14.370000	-0.650868
	14.375000	-0.596071
	14.380000	-0.647644
	14.385000	-0.712112
	14.390000	-0.657314
	14.395000	-0.596071
	14.400000	-0.647644
	14.405000	-0.712112
	14.410000	-0.657314
	14.415000	-0.599294
	14.420000	-0.650868
	14.425000	-0.715335
	14.430000	-0.657314
	14.435000	-0.599294
	14.440000	-0.650868
	14.445000	-0.708888
	14.450000	-0.654091
	14.455000	-0.599294
	14.460000	-0.644421
	14.465000	-0.705665
	14.470000	-0.657314
	14.475000	-0.596071
	14.480000	-0.650868
	14.485000	-0.708888
	14.490000	-0.654091
	14.495000	-0.599294
	14.500000	-0.647644
	14.505000	-0.705665
	14.510000	-0.657314
	14.515000	-0.592847
	14.520000	-0.644421
	14.525000	-0.708888
	14.530000	-0.657314
	14.535000	-0.596071
	14.540000	-0.647644
	14.545000	-0.705665
	14.550000	-0.657314
	14.555000	-0.602517
	14.560000	-0.647644
	14.565000	-0.705665
	14.570000	-0.657314
	14.575000	-0.602517
	14.580000	-0.644421
	14.585000	-0.708888
	14.590000	-0.657314
	14.595000	-0.599294
	14.600000	-0.644421
	14.605000	-0.712112
	14.610000	-0.657314
	14.615000	-0.589624
	14.620000	-0.641198
	14.625000	-0.702441
	14.630000	-0.657314
	14.635000	-0.589624
	14.640000	-0.641198
	14.645000	-0.705665
	14.650000	-0.654091
	14.655000	-0.596071
	14.660000	-0.637974
	14.665000	-0.702441
	14.670000	-0.654091
	14.675000	-0.592847
	14.680000	-0.647644
	14.685000	-0.708888
	14.690000	-0.663761
	14.695000	-0.599294
	14.700000	-0.647644
	14.705000	-0.702441
	14.710000	-0.657314
	14.715000	-0.599294
	14.720000	-0.644421
	14.725000	-0.705665
	14.730000	-0.663761
	14.735000	-0.599294
	14.740000	-0.641198
	14.745000	-0.705665
	14.750000	-0.660538
	14.755000	-0.596071
	14.760000	-0.650868
	14.765000	-0.702441
	14.770000	-0.660538
	14.775000	-0.596071
	14.780000	-0.647644
	14.785000	-0.708888
	14.790000	-0.654091
	14.795000	-0.599294
	14.800000	-0.644421
	14.805000	-0.702441
	14.810000	-0.663761
	14.815000	-0.599294
	14.820000	-0.641198
	14.825000	-0.712112
	14.830000	-0.657314
	14.835000	-0.599294
	14.840000	-0.644421
	14.845000	-0.702441
	14.850000	-0.660538
	14.855000	-0.596071
	14.860000	-0.644421
	14.865000	-0.712112
	14.870000	-0.657314
	14.875000	-0.596071
	14.880000	-0.650868
	14.885000	-0.705665
	14.890000	-0.660538
	14.895000	-0.599294
	14.900000	-0.644421
	14.905000	-0.705665
	14.910000	-0.660538
	14.915000	-0.596071
	14.920000	-0.644421
	14.925000	-0.708888
	14.930000	-0.657314
	14.935000	-0.592847
	14.940000	-0.644421
	14.945000	-0.708888
	14.950000	-0.663761
	14.955000	-0.599294
	14.960000	-0.641198
	14.965000	-0.708888
	14.970000	-0.657314
	14.975000	-0.592847
	14.980000	-0.644421
	14.985000	-0.708888
	14.990000	-0.660538
	14.995000	-0.596071
	15.000000	-0.647644
	15.005000	-0.708888
	15.010000	-0.670208
	15.015000	-0.599294
	15.020000	-0.641198
	15.025000	-0.708888
	15.030000	-0.663761
	15.035000	-0.599294
	15.040000	-0.641198
	15.045000	-0.712112
	15.050000	-0.670208
	15.055000	-0.599294
	15.060000	-0.644421
	15.065000	-0.712112
	15.070000	-0.660538
	15.075000	-0.602517
	15.080000	-0.644421
	15.085000	-0.712112
	15.090000	-0.657314
	15.095000	-0.596071
	15.100000	-0.644421
	15.105000	-0.712112
	15.110000	-0.663761
	15.115000	-0.599294
	15.120000	-0.637974
	15.125000	-0.705665
	15.130000	-0.660538
	15.135000	-0.602517
	15.140000	-0.644421
	15.145000	-0.712112
	15.150000	-0.663761
	15.155000	-0.602517
	15.160000	-0.644421
	15.165000	-0.715335
	15.170000	-0.666985
	15.175000	-0.605741
	15.180000	-0.637974
	15.185000	-0.702441
	15.190000	-0.663761
	15.195000	-0.599294
	15.200000	-0.647644
	15.205000	-0.705665
	15.210000	-0.660538
	15.215000	-0.599294
	15.220000	-0.647644
	15.225000	-0.715335
	15.230000	-0.660538
	15.235000	-0.599294
	15.240000	-0.637974
	15.245000	-0.708888
	15.250000	-0.666985
	15.255000	-0.596071
	15.260000	-0.641198
	15.265000	-0.705665
	15.270000	-0.657314
	15.275000	-0.602517
	15.280000	-0.637974
	15.285000	-0.708888
	15.290000	-0.663761
	15.295000	-0.599294
	15.300000	-0.637974
	15.305000	-0.702441
	15.310000	-0.663761
	15.315000	-0.592847
	15.320000	-0.631528
	15.325000	-0.699218
	15.330000	-0.660538
	15.335000	-0.599294
	15.340000	-0.634751
	15.345000	-0.702441
	15.350000	-0.660538
	15.355000	-0.596071
	15.360000	-0.631528
	15.365000	-0.708888
	15.370000	-0.660538
	15.375000	-0.599294
	15.380000	-0.641198
	15.385000	-0.702441
	15.390000	-0.663761
	15.395000	-0.602517
	15.400000	-0.637974
	15.405000	-0.702441
	15.410000	-0.663761
	15.415000	-0.596071
	15.420000	-0.634751
	15.425000	-0.712112
	15.430000	-0.663761
	15.435000	-0.599294
	15.440000	-0.634751
	15.445000	-0.708888
	15.450000	-0.670208
	15.455000	-0.602517
	15.460000	-0.637974
	15.465000	-0.702441
	15.470000	-0.670208
	15.475000	-0.599294
	15.480000	-0.637974
	15.485000	-0.708888
	15.490000	-0.660538
	15.495000	-0.596071
	15.500000	-0.631528
	15.505000	-0.705665
	15.510000	-0.660538
	15.515000	-0.599294
	15.520000	-0.644421
	15.525000	-0.708888
	15.530000	-0.666985
	15.535000	-0.602517
	15.540000	-0.644421
	15.545000	-0.705665
	15.550000	-0.670208
	15.555000	-0.596071
	15.560000	-0.637974
	15.565000	-0.712112
	15.570000	-0.670208
	15.575000	-0.602517
	15.580000	-0.644421
	15.585000	-0.705665
	15.590000	-0.663761
	15.595000	-0.602517
	15.600000	-0.634751
	15.605000	-0.708888
	15.610000	-0.666985
	15.615000	-0.605741
	15.620000	-0.644421
	15.625000	-0.712112
	15.630000	-0.663761
	15.635000	-0.605741
	15.640000	-0.647644
	15.645000	-0.712112
	15.650000	-0.673431
	15.655000	-0.599294
	15.660000	-0.641198
	15.665000	-0.702441
	15.670000	-0.670208
	15.675000	-0.605741
	15.680000	-0.634751
	15.685000	-0.708888
	15.690000	-0.670208
	15.695000	-0.599294
	15.700000	-0.647644
	15.705000	-0.712112
	15.710000	-0.673431
	15.715000	-0.602517
	15.720000	-0.641198
	15.725000	-0.708888
	15.730000	-0.670208
	15.735000	-0.602517
	15.740000	-0.637974
	15.745000	-0.712112
	15.750000	-0.670208
	15.755000	-0.599294
	15.760000	-0.644421
	15.765000	-0.708888
	15.770000	-0.670208
	15.775000	-0.596071
	15.780000	-0.641198
	15.785000	-0.705665
	15.790000	-0.676655
	15.795000	-0.605741
	15.800000	-0.641198
	15.805000	-0.712112
	15.810000	-0.676655
	15.815000	-0.605741
	15.820000	-0.637974
	15.825000	-0.708888
	15.830000	-0.660538
	15.835000	-0.602517
	15.840000	-0.644421
	15.845000	-0.708888
	15.850000	-0.666985
	15.855000	-0.605741
	15.860000	-0.634751
	15.865000	-0.705665
	15.870000	-0.670208
	15.875000	-0.602517
	15.880000	-0.634751
	15.885000	-0.708888
	15.890000	-0.670208
	15.895000	-0.599294
	15.900000	-0.628304
	15.905000	-0.702441
	15.910000	-0.670208
	15.915000	-0.592847
	15.920000	-0.631528
	15.925000	-0.699218
	15.930000	-0.663761
	15.935000	-0.592847
	15.940000	-0.631528
	15.945000	-0.695995
	15.950000	-0.663761
	15.955000	-0.589624
	15.960000	-0.625081
	15.965000	-0.692771
	15.970000	-0.666985
	15.975000	-0.596071
	15.980000	-0.628304
	15.985000	-0.692771
	15.990000	-0.660538
	15.995000	-0.586401
	16.000000	-0.621858
	16.005000	-0.689548
	16.010000	-0.654091
	16.015000	-0.586401
	16.020000	-0.615411
	16.025000	-0.689548
	16.030000	-0.647644
	16.035000	-0.583177
	16.040000	-0.615411
	16.045000	-0.686325
	16.050000	-0.654091
	16.055000	-0.583177
	16.060000	-0.608964
	16.065000	-0.676655
	16.070000	-0.641198
	16.075000	-0.570284
	16.080000	-0.605741
	16.085000	-0.676655
	16.090000	-0.641198
	16.095000	-0.570284
	16.100000	-0.608964
	16.105000	-0.676655
	16.110000	-0.634751
	16.115000	-0.567060
	16.120000	-0.599294
	16.125000	-0.670208
	16.130000	-0.631528
	16.135000	-0.560614
	16.140000	-0.592847
	16.145000	-0.657314
	16.150000	-0.625081
	16.155000	-0.557390
	16.160000	-0.592847
	16.165000	-0.660538
	16.170000	-0.631528
	16.175000	-0.554167
	16.180000	-0.583177
	16.185000	-0.654091
	16.190000	-0.615411
	16.195000	-0.550944
	16.200000	-0.579954
	16.205000	-0.647644
	16.210000	-0.621858
	16.215000	-0.541274
	16.220000	-0.573507
	16.225000	-0.650868
	16.230000	-0.618634
	16.235000	-0.538050
	16.240000	-0.573507
	16.245000	-0.637974
	16.250000	-0.602517
	16.255000	-0.541274
	16.260000	-0.563837
	16.265000	-0.641198
	16.270000	-0.605741
	16.275000	-0.534827
	16.280000	-0.560614
	16.285000	-0.631528
	16.290000	-0.602517
	16.295000	-0.531603
	16.300000	-0.550944
	16.305000	-0.625081
	16.310000	-0.596071
	16.315000	-0.521933
	16.320000	-0.550944
	16.325000	-0.625081
	16.330000	-0.589624
	16.335000	-0.518710
	16.340000	-0.541274
	16.345000	-0.621858
	16.350000	-0.586401
	16.355000	-0.518710
	16.360000	-0.547720
	16.365000	-0.615411
	16.370000	-0.579954
	16.375000	-0.512263
	16.380000	-0.550944
	16.385000	-0.615411
	16.390000	-0.579954
	16.395000	-0.515487
	16.400000	-0.541274
	16.405000	-0.612187
	16.410000	-0.579954
	16.415000	-0.512263
	16.420000	-0.534827
	16.425000	-0.608964
	16.430000	-0.579954
	16.435000	-0.509040
	16.440000	-0.538050
	16.445000	-0.605741
	16.450000	-0.576730
	16.455000	-0.505817
	16.460000	-0.538050
	16.465000	-0.605741
	16.470000	-0.573507
	16.475000	-0.509040
	16.480000	-0.528380
	16.485000	-0.602517
	16.490000	-0.576730
	16.495000	-0.505817
	16.500000	-0.538050
	16.505000	-0.605741
	16.510000	-0.570284
	16.515000	-0.509040
	16.520000	-0.538050
	16.525000	-0.615411
	16.530000	-0.576730
	16.535000	-0.512263
	16.540000	-0.538050
	16.545000	-0.608964
	16.550000	-0.583177
	16.555000	-0.515487
	16.560000	-0.544497
	16.565000	-0.608964
	16.570000	-0.586401
	16.575000	-0.512263
	16.580000	-0.531603
	16.585000	-0.605741
	16.590000	-0.570284
	16.595000	-0.496147
	16.600000	-0.521933
	16.605000	-0.583177
	16.610000	-0.550944
	16.615000	-0.473583
	16.620000	-0.496147
	16.625000	-0.557390
	16.630000	-0.518710
	16.635000	-0.438126
	16.640000	-0.463913
	16.645000	-0.521933
	16.650000	-0.483253
	16.655000	-0.409116
	16.660000	-0.425233
	16.665000	-0.492923
	16.670000	-0.457466
	16.675000	-0.386552
	16.680000	-0.402669
	16.685000	-0.473583
	16.690000	-0.438126
	16.695000	-0.370436
	16.700000	-0.389776
	16.705000	-0.457466
	16.710000	-0.422009
	16.715000	-0.351095
	16.720000	-0.380106
	16.725000	-0.444573
	16.730000	-0.409116
	16.735000	-0.347872
	16.740000	-0.357542
	16.745000	-0.431679
	16.750000	-0.405892
	16.755000	-0.331755
	16.760000	-0.360765
	16.765000	-0.434903
	16.770000	-0.405892
	16.775000	-0.341425
	16.780000	-0.367212
	16.785000	-0.441349
	16.790000	-0.425233
	16.795000	-0.360765
	16.800000	-0.386552
	16.805000	-0.473583
	16.810000	-0.454243
	16.815000	-0.396222
	16.820000	-0.431679
	16.825000	-0.512263
	16.830000	-0.499370
	16.835000	-0.434903
	16.840000	-0.473583
	16.845000	-0.550944
	16.850000	-0.528380
	16.855000	-0.467136
	16.860000	-0.496147
	16.865000	-0.567060
	16.870000	-0.544497
	16.875000	-0.486476
	16.880000	-0.509040
	16.885000	-0.579954
	16.890000	-0.557390
	16.895000	-0.486476
	16.900000	-0.505817
	16.905000	-0.567060
	16.910000	-0.550944
	16.915000	-0.480030
	16.920000	-0.502593
	16.925000	-0.567060
	16.930000	-0.541274
	16.935000	-0.463913
	16.940000	-0.489700
	16.945000	-0.547720
	16.950000	-0.521933
	16.955000	-0.434903
	16.960000	-0.441349
	16.965000	-0.496147
	16.970000	-0.463913
	16.975000	-0.383329
	16.980000	-0.386552
	16.985000	-0.444573
	16.990000	-0.409116
	16.995000	-0.334979
	17.000000	-0.347872
	17.005000	-0.405892
	17.010000	-0.380106
	17.015000	-0.309192
	17.020000	-0.331755
	17.025000	-0.399446
	17.030000	-0.373659
	17.035000	-0.315638
	17.040000	-0.334979
	17.045000	-0.405892
	17.050000	-0.383329
	17.055000	-0.328532
	17.060000	-0.357542
	17.065000	-0.425233
	17.070000	-0.405892
	17.075000	-0.344649
	17.080000	-0.367212
	17.085000	-0.438126
	17.090000	-0.428456
	17.095000	-0.360765
	17.100000	-0.383329
	17.105000	-0.457466
	17.110000	-0.438126
	17.115000	-0.373659
	17.120000	-0.409116
	17.125000	-0.480030
	17.130000	-0.460690
	17.135000	-0.402669
	17.140000	-0.431679
	17.145000	-0.499370
	17.150000	-0.489700
	17.155000	-0.418786
	17.160000	-0.444573
	17.165000	-0.512263
	17.170000	-0.509040
	17.175000	-0.438126
	17.180000	-0.454243
	17.185000	-0.534827
	17.190000	-0.525157
	17.195000	-0.457466
	17.200000	-0.486476
	17.205000	-0.560614
	17.210000	-0.544497
	17.215000	-0.486476
	17.220000	-0.512263
	17.225000	-0.589624
	17.230000	-0.567060
	17.235000	-0.509040
	17.240000	-0.534827
	17.245000	-0.612187
	17.250000	-0.596071
	17.255000	-0.534827
	17.260000	-0.567060
	17.265000	-0.637974
	17.270000	-0.625081
	17.275000	-0.560614
	17.280000	-0.583177
	17.285000	-0.660538
	17.290000	-0.650868
	17.295000	-0.576730
	17.300000	-0.602517
	17.305000	-0.683101
	17.310000	-0.670208
	17.315000	-0.605741
	17.320000	-0.625081
	17.325000	-0.708888
	17.330000	-0.695995
	17.335000	-0.631528
	17.340000	-0.657314
	17.345000	-0.734675
	17.350000	-0.715335
	17.355000	-0.657314
	17.360000	-0.676655
	17.365000	-0.754015
	17.370000	-0.731452
	17.375000	-0.673431
	17.380000	-0.689548
	17.385000	-0.766909
	17.390000	-0.754015
	17.395000	-0.683101
	17.400000	-0.705665
	17.405000	-0.779802
	17.410000	-0.760462
	17.415000	-0.689548
	17.420000	-0.712112
	17.425000	-0.783025
	17.430000	-0.760462
	17.435000	-0.699218
	17.440000	-0.715335
	17.445000	-0.786249
	17.450000	-0.770132
	17.455000	-0.702441
	17.460000	-0.715335
	17.465000	-0.792696
	17.470000	-0.770132
	17.475000	-0.702441
	17.480000	-0.718558
	17.485000	-0.792696
	17.490000	-0.773355
	17.495000	-0.702441
	17.500000	-0.728228
	17.505000	-0.795919
	17.510000	-0.779802
	17.515000	-0.705665
	17.520000	-0.728228
	17.525000	-0.795919
	17.530000	-0.776579
	17.535000	-0.712112
	17.540000	-0.731452
	17.545000	-0.799142
	17.550000	-0.779802
	17.555000	-0.712112
	17.560000	-0.725005
	17.565000	-0.805589
	17.570000	-0.789472
	17.575000	-0.708888
	17.580000	-0.725005
	17.585000	-0.799142
	17.590000	-0.786249
	17.595000	-0.705665
	17.600000	-0.725005
	17.605000	-0.799142
	17.610000	-0.789472
	17.615000	-0.715335
	17.620000	-0.734675
	17.625000	-0.805589
	17.630000	-0.783025
	17.635000	-0.715335
	17.640000	-0.734675
	17.645000	-0.808812
	17.650000	-0.786249
	17.655000	-0.721782
	17.660000	-0.728228
	17.665000	-0.805589
	17.670000	-0.789472
	17.675000	-0.715335
	17.680000	-0.728228
	17.685000	-0.799142
	17.690000	-0.786249
	17.695000	-0.712112
	17.700000	-0.737898
	17.705000	-0.805589
	17.710000	-0.789472
	17.715000	-0.715335
	17.720000	-0.731452
	17.725000	-0.802366
	17.730000	-0.789472
	17.735000	-0.712112
	17.740000	-0.731452
	17.745000	-0.805589
	17.750000	-0.789472
	17.755000	-0.715335
	17.760000	-0.731452
	17.765000	-0.808812
	17.770000	-0.789472
	17.775000	-0.721782
	17.780000	-0.734675
	17.785000	-0.815259
	17.790000	-0.792696
	17.795000	-0.721782
	17.800000	-0.741122
	17.805000	-0.812036
	17.810000	-0.795919
	17.815000	-0.725005
	17.820000	-0.734675
	17.825000	-0.812036
	17.830000	-0.792696
	17.835000	-0.728228
	17.840000	-0.737898
	17.845000	-0.812036
	17.850000	-0.795919
	17.855000	-0.725005
	17.860000	-0.737898
	17.865000	-0.815259
	17.870000	-0.795919
	17.875000	-0.725005
	17.880000	-0.741122
	17.885000	-0.812036
	17.890000	-0.799142
	17.895000	-0.718558
	17.900000	-0.737898
	17.905000	-0.821706
	17.910000	-0.789472
	17.915000	-0.715335
	17.920000	-0.734675
	17.925000	-0.818482
	17.930000	-0.789472
	17.935000	-0.718558
	17.940000	-0.731452
	17.945000	-0.805589
	17.950000	-0.789472
	17.955000	-0.708888
	17.960000	-0.731452
	17.965000	-0.802366
	17.970000	-0.783025
	17.975000	-0.718558
	17.980000	-0.728228
	17.985000	-0.802366
	17.990000	-0.789472
	17.995000	-0.712112
	18.000000	-0.725005
	18.005000	-0.799142
	18.010000	-0.786249
	18.015000	-0.708888
	18.020000	-0.721782
	18.025000	-0.789472
	18.030000	-0.776579
	18.035000	-0.705665
	18.040000	-0.721782
	18.045000	-0.792696
	18.050000	-0.773355
	18.055000	-0.699218
	18.060000	-0.715335
	18.065000	-0.783025
	18.070000	-0.776579
	18.075000	-0.699218
	18.080000	-0.712112
	18.085000	-0.789472
	18.090000	-0.776579
	18.095000	-0.699218
	18.100000	-0.708888
	18.105000	-0.789472
	18.110000	-0.770132
	18.115000	-0.695995
	18.120000	-0.702441
	18.125000	-0.779802
	18.130000	-0.763685
	18.135000	-0.692771
	18.140000	-0.705665
	18.145000	-0.776579
	18.150000	-0.763685
	18.155000	-0.686325
	18.160000	-0.689548
	18.165000	-0.773355
	18.170000	-0.763685
	18.175000	-0.683101
	18.180000	-0.692771
	18.185000	-0.773355
	18.190000	-0.757239
	18.195000	-0.679878
	18.200000	-0.689548
	18.205000	-0.766909
	18.210000	-0.763685
	18.215000	-0.683101
	18.220000	-0.695995
	18.225000	-0.766909
	18.230000	-0.757239
	18.235000	-0.676655
	18.240000	-0.692771
	18.245000	-0.766909
	18.250000	-0.760462
	18.255000	-0.676655
	18.260000	-0.689548
	18.265000	-0.770132
	18.270000	-0.750792
	18.275000	-0.670208
	18.280000	-0.695995
	18.285000	-0.766909
	18.290000	-0.750792
	18.295000	-0.673431
	18.300000	-0.683101
	18.305000	-0.766909
	18.310000	-0.750792
	18.315000	-0.676655
	18.320000	-0.683101
	18.325000	-0.760462
	18.330000	-0.747569
	18.335000	-0.676655
	18.340000	-0.679878
	18.345000	-0.760462
	18.350000	-0.747569
	18.355000	-0.666985
	18.360000	-0.686325
	18.365000	-0.760462
	18.370000	-0.747569
	18.375000	-0.670208
	18.380000	-0.686325
	18.385000	-0.757239
	18.390000	-0.744345
	18.395000	-0.673431
	18.400000	-0.676655
	18.405000	-0.760462
	18.410000	-0.747569
	18.415000	-0.663761
	18.420000	-0.676655
	18.425000	-0.750792
	18.430000	-0.747569
	18.435000	-0.663761
	18.440000	-0.670208
	18.445000	-0.757239
	18.450000	-0.744345
	18.455000	-0.663761
	18.460000	-0.673431
	18.465000	-0.754015
	18.470000	-0.744345
	18.475000	-0.663761
	18.480000	-0.673431
	18.485000	-0.754015
	18.490000	-0.737898
	18.495000	-0.670208
	18.500000	-0.673431
	18.505000	-0.750792
	18.510000	-0.744345
	18.515000	-0.666985
	18.520000	-0.673431
	18.525000	-0.747569
	18.530000	-0.747569
	18.535000	-0.663761
	18.540000	-0.666985
	18.545000	-0.744345
	18.550000	-0.734675
	18.555000	-0.660538
	18.560000	-0.670208
	18.565000	-0.747569
	18.570000	-0.734675
	18.575000	-0.660538
	18.580000	-0.663761
	18.585000	-0.741122
	18.590000	-0.731452
	18.595000	-0.650868
	18.600000	-0.670208
	18.605000	-0.744345
	18.610000	-0.734675
	18.615000	-0.660538
	18.620000	-0.663761
	18.625000	-0.747569
	18.630000	-0.734675
	18.635000	-0.657314
	18.640000	-0.666985
	18.645000	-0.744345
	18.650000	-0.728228
	18.655000	-0.657314
	18.660000	-0.660538
	18.665000	-0.737898
	18.670000	-0.731452
	18.675000	-0.657314
	18.680000	-0.660538
	18.685000	-0.737898
	18.690000	-0.731452
	18.695000	-0.657314
	18.700000	-0.660538
	18.705000	-0.734675
	18.710000	-0.734675
	18.715000	-0.650868
	18.720000	-0.660538
	18.725000	-0.741122
	18.730000	-0.728228
	18.735000	-0.654091
	18.740000	-0.660538
	18.745000	-0.741122
	18.750000	-0.728228
	18.755000	-0.657314
	18.760000	-0.663761
	18.765000	-0.741122
	18.770000	-0.737898
	18.775000	-0.650868
	18.780000	-0.663761
	18.785000	-0.737898
	18.790000	-0.721782
	18.795000	-0.647644
	18.800000	-0.657314
	18.805000	-0.741122
	18.810000	-0.734675
	18.815000	-0.654091
	18.820000	-0.657314
	18.825000	-0.737898
	18.830000	-0.728228
	18.835000	-0.650868
	18.840000	-0.654091
	18.845000	-0.737898
	18.850000	-0.731452
	18.855000	-0.654091
	18.860000	-0.657314
	18.865000	-0.734675
	18.870000	-0.731452
	18.875000	-0.650868
	18.880000	-0.657314
	18.885000	-0.734675
	18.890000	-0.725005
	18.895000	-0.650868
	18.900000	-0.654091
	18.905000	-0.734675
	18.910000	-0.731452
	18.915000	-0.654091
	18.920000	-0.654091
	18.925000	-0.734675
	18.930000	-0.728228
	18.935000	-0.650868
	18.940000	-0.657314
	18.945000	-0.734675
	18.950000	-0.725005
	18.955000	-0.650868
	18.960000	-0.650868
	18.965000	-0.731452
	18.970000	-0.721782
	18.975000	-0.644421
	18.980000	-0.650868
	18.985000	-0.731452
	18.990000	-0.721782
	18.995000	-0.641198
	19.000000	-0.650868
	19.005000	-0.734675
	19.010000	-0.718558
	19.015000	-0.654091
	19.020000	-0.647644
	19.025000	-0.725005
	19.030000	-0.725005
	19.035000	-0.644421
	19.040000	-0.650868
	19.045000	-0.734675
	19.050000	-0.725005
	19.055000	-0.641198
	19.060000	-0.650868
	19.065000	-0.728228
	19.070000	-0.728228
	19.075000	-0.644421
	19.080000	-0.650868
	19.085000	-0.731452
	19.090000	-0.725005
	19.095000	-0.644421
	19.100000	-0.644421
	19.105000	-0.737898
	19.110000	-0.725005
	19.115000	-0.637974
	19.120000	-0.644421
	19.125000	-0.728228
	19.130000	-0.725005
	19.135000	-0.641198
	19.140000	-0.644421
	19.145000	-0.728228
	19.150000	-0.718558
	19.155000	-0.641198
	19.160000	-0.644421
	19.165000	-0.725005
	19.170000	-0.725005
	19.175000	-0.644421
	19.180000	-0.644421
	19.185000	-0.731452
	19.190000	-0.721782
	19.195000	-0.641198
	19.200000	-0.647644
	19.205000	-0.725005
	19.210000	-0.721782
	19.215000	-0.634751
	19.220000	-0.644421
	19.225000	-0.728228
	19.230000	-0.721782
	19.235000	-0.641198
	19.240000	-0.644421
	19.245000	-0.731452
	19.250000	-0.718558
	19.255000	-0.641198
	19.260000	-0.634751
	19.265000	-0.721782
	19.270000	-0.721782
	19.275000	-0.637974
	19.280000	-0.647644
	19.285000	-0.725005
	19.290000	-0.715335
	19.295000	-0.644421
	19.300000	-0.641198
	19.305000	-0.721782
	19.310000	-0.721782
	19.315000	-0.637974
	19.320000	-0.637974
	19.325000	-0.725005
	19.330000	-0.715335
	19.335000	-0.641198
	19.340000	-0.641198
	19.345000	-0.725005
	19.350000	-0.715335
	19.355000	-0.637974
	19.360000	-0.637974
	19.365000	-0.725005
	19.370000	-0.718558
	19.375000	-0.637974
	19.380000	-0.637974
	19.385000	-0.718558
	19.390000	-0.718558
	19.395000	-0.634751
	19.400000	-0.644421
	19.405000	-0.721782
	19.410000	-0.718558
	19.415000	-0.634751
	19.420000	-0.634751
	19.425000	-0.721782
	19.430000	-0.712112
	19.435000	-0.641198
	19.440000	-0.644421
	19.445000	-0.721782
	19.450000	-0.715335
	19.455000	-0.637974
	19.460000	-0.637974
	19.465000	-0.718558
	19.470000	-0.718558
	19.475000	-0.634751
	19.480000	-0.637974
	19.485000	-0.721782
	19.490000	-0.708888
	19.495000	-0.637974
	19.500000	-0.634751
	19.505000	-0.718558
	19.510000	-0.715335
	19.515000	-0.631528
	19.520000	-0.641198
	19.525000	-0.712112
	19.530000	-0.718558
	19.535000	-0.634751
	19.540000	-0.637974
	19.545000	-0.715335
	19.550000	-0.718558
	19.555000	-0.637974
	19.560000	-0.641198
	19.565000	-0.721782
	19.570000	-0.715335
	19.575000	-0.634751
	19.580000	-0.634751
	19.585000	-0.718558
	19.590000	-0.715335
	19.595000	-0.637974
	19.600000	-0.634751
	19.605000	-0.715335
	19.610000	-0.708888
	19.615000	-0.631528
	19.620000	-0.631528
	19.625000	-0.712112
	19.630000	-0.708888
	19.635000	-0.637974
	19.640000	-0.634751
	19.645000	-0.712112
	19.650000	-0.715335
	19.655000	-0.641198
	19.660000	-0.634751
	19.665000	-0.715335
	19.670000	-0.708888
	19.675000	-0.631528
	19.680000	-0.631528
	19.685000	-0.715335
	19.690000	-0.708888
	19.695000	-0.631528
	19.700000	-0.628304
	19.705000	-0.712112
	19.710000	-0.715335
	19.715000	-0.637974
	19.720000	-0.628304
	19.725000	-0.715335
	19.730000	-0.708888
	19.735000	-0.631528
	19.740000	-0.637974
	19.745000	-0.708888
	19.750000	-0.712112
	19.755000	-0.634751
	19.760000	-0.634751
	19.765000	-0.712112
	19.770000	-0.715335
	19.775000	-0.631528
	19.780000	-0.631528
	19.785000	-0.708888
	19.790000	-0.708888
	19.795000	-0.634751
	19.800000	-0.631528
	19.805000	-0.712112
	19.810000	-0.712112
	19.815000	-0.625081
	19.820000	-0.625081
	19.825000	-0.712112
	19.830000	-0.705665
	19.835000	-0.631528
	19.840000	-0.625081
	19.845000	-0.708888
	19.850000	-0.708888
	19.855000	-0.628304
	19.860000	-0.628304
	19.865000	-0.715335
	19.870000	-0.708888
	19.875000	-0.628304
	19.880000	-0.625081
	19.885000	-0.702441
	19.890000	-0.712112
	19.895000	-0.625081
	19.900000	-0.625081
	19.905000	-0.715335
	19.910000	-0.702441
	19.915000	-0.631528
	19.920000	-0.625081
	19.925000	-0.712112
	19.930000	-0.712112
	19.935000	-0.625081
	19.940000	-0.625081
	19.945000	-0.705665
	19.950000	-0.712112
	19.955000	-0.628304
	19.960000	-0.621858
	19.965000	-0.708888
	19.970000	-0.708888
	19.975000	-0.634751
	19.980000	-0.628304
	19.985000	-0.705665
	19.990000	-0.708888
	19.995000	-0.628304
	20.000000	-0.628304
	20.005000	-0.705665
	20.010000	-0.705665
	20.015000	-0.631528
	20.020000	-0.625081
	20.025000	-0.699218
	20.030000	-0.712112
	20.035000	-0.621858
	20.040000	-0.621858
	20.045000	-0.695995
	20.050000	-0.708888
	20.055000	-0.628304
	20.060000	-0.625081
	20.065000	-0.708888
	20.070000	-0.702441
	20.075000	-0.621858
	20.080000	-0.621858
	20.085000	-0.702441
	20.090000	-0.705665
	20.095000	-0.631528
	20.100000	-0.621858
	20.105000	-0.705665
	20.110000	-0.705665
	20.115000	-0.621858
	20.120000	-0.621858
	20.125000	-0.705665
	20.130000	-0.702441
	20.135000	-0.625081
	20.140000	-0.625081
	20.145000	-0.705665
	20.150000	-0.715335
	20.155000	-0.628304
	20.160000	-0.621858
	20.165000	-0.705665
	20.170000	-0.708888
	20.175000	-0.631528
	20.180000	-0.625081
	20.185000	-0.699218
	20.190000	-0.708888
	20.195000	-0.628304
	20.200000	-0.625081
	20.205000	-0.699218
	20.210000	-0.702441
	20.215000	-0.618634
	20.220000	-0.621858
	20.225000	-0.702441
	20.230000	-0.705665
	20.235000	-0.621858
	20.240000	-0.618634
	20.245000	-0.702441
	20.250000	-0.708888
	20.255000	-0.621858
	20.260000	-0.621858
	20.265000	-0.695995
	20.270000	-0.702441
	20.275000	-0.628304
	20.280000	-0.615411
	20.285000	-0.699218
	20.290000	-0.695995
	20.295000	-0.628304
	20.300000	-0.618634
	20.305000	-0.702441
	20.310000	-0.702441
	20.315000	-0.621858
	20.320000	-0.628304
	20.325000	-0.702441
	20.330000	-0.702441
	20.335000	-0.628304
	20.340000	-0.621858
	20.345000	-0.699218
	20.350000	-0.702441
	20.355000	-0.625081
	20.360000	-0.618634
	20.365000	-0.702441
	20.370000	-0.702441
	20.375000	-0.625081
	20.380000	-0.621858
	20.385000	-0.702441
	20.390000	-0.708888
	20.395000	-0.628304
	20.400000	-0.618634
	20.405000	-0.695995
	20.410000	-0.702441
	20.415000	-0.631528
	20.420000	-0.615411
	20.425000	-0.702441
	20.430000	-0.702441
	20.435000	-0.625081
	20.440000	-0.618634
	20.445000	-0.695995
	20.450000	-0.705665
	20.455000	-0.628304
	20.460000	-0.618634
	20.465000	-0.695995
	20.470000	-0.708888
	20.475000	-0.625081
	20.480000	-0.618634
	20.485000	-0.695995
	20.490000	-0.708888
	20.495000	-0.628304
	20.500000	-0.615411
	20.505000	-0.695995
	20.510000	-0.705665
	20.515000	-0.621858
	20.520000	-0.618634
	20.525000	-0.702441
	20.530000	-0.702441
	20.535000	-0.628304
	20.540000	-0.618634
	20.545000	-0.705665
	20.550000	-0.708888
	20.555000	-0.621858
	20.560000	-0.621858
	20.565000	-0.702441
	20.570000	-0.702441
	20.575000	-0.618634
	20.580000	-0.621858
	20.585000	-0.699218
	20.590000	-0.705665
	20.595000	-0.621858
	20.600000	-0.615411
	20.605000	-0.702441
	20.610000	-0.702441
	20.615000	-0.618634
	20.620000	-0.618634
	20.625000	-0.692771
	20.630000	-0.702441
	20.635000	-0.621858
	20.640000	-0.618634
	20.645000	-0.692771
	20.650000	-0.699218
	20.655000	-0.621858
	20.660000	-0.615411
	20.665000	-0.692771
	20.670000	-0.702441
	20.675000	-0.628304
	20.680000	-0.612187
	20.685000	-0.695995
	20.690000	-0.702441
	20.695000	-0.615411
	20.700000	-0.612187
	20.705000	-0.699218
	20.710000	-0.699218
	20.715000	-0.615411
	20.720000	-0.612187
	20.725000	-0.692771
	20.730000	-0.695995
	20.735000	-0.621858
	20.740000	-0.608964
	20.745000	-0.683101
	20.750000	-0.695995
	20.755000	-0.612187
	20.760000	-0.602517
	20.765000	-0.683101
	20.770000	-0.686325
	20.775000	-0.612187
	20.780000	-0.599294
	20.785000	-0.679878
	20.790000	-0.695995
	20.795000	-0.612187
	20.800000	-0.596071
	20.805000	-0.676655
	20.810000	-0.683101
	20.815000	-0.602517
	20.820000	-0.599294
	20.825000	-0.673431
	20.830000	-0.686325
	20.835000	-0.602517
	20.840000	-0.596071
	20.845000	-0.676655
	20.850000	-0.683101
	20.855000	-0.602517
	20.860000	-0.596071
	20.865000	-0.673431
	20.870000	-0.686325
	20.875000	-0.605741
	20.880000	-0.596071
	20.885000	-0.683101
	20.890000	-0.689548
	20.895000	-0.608964
	20.900000	-0.592847
	20.905000	-0.679878
	20.910000	-0.689548
	20.915000	-0.608964
	20.920000	-0.602517
	20.925000	-0.679878
	20.930000	-0.686325
	20.935000	-0.605741
	20.940000	-0.592847
	20.945000	-0.673431
	20.950000	-0.676655
	20.955000	-0.596071
	20.960000	-0.586401
	20.965000	-0.666985
	20.970000	-0.673431
	20.975000	-0.592847
	20.980000	-0.583177
	20.985000	-0.663761
	20.990000	-0.676655
	20.995000	-0.589624
	21.000000	-0.583177
	21.005000	-0.660538
	21.010000	-0.663761
	21.015000	-0.586401
	21.020000	-0.576730
	21.025000	-0.654091
	21.030000	-0.657314
	21.035000	-0.576730
	21.040000	-0.567060
	21.045000	-0.650868
	21.050000	-0.654091
	21.055000	-0.573507
	21.060000	-0.567060
	21.065000	-0.644421
	21.070000	-0.650868
	21.075000	-0.573507
	21.080000	-0.560614
	21.085000	-0.637974
	21.090000	-0.654091
	21.095000	-0.563837
	21.100000	-0.554167
	21.105000	-0.628304
	21.110000	-0.634751
	21.115000	-0.563837
	21.120000	-0.541274
	21.125000	-0.625081
	21.130000	-0.628304
	21.135000	-0.547720
	21.140000	-0.538050
	21.145000	-0.615411
	21.150000	-0.615411
	21.155000	-0.541274
	21.160000	-0.521933
	21.165000	-0.599294
	21.170000	-0.612187
	21.175000	-0.534827
	21.180000	-0.525157
	21.185000	-0.599294
	21.190000	-0.605741
	21.195000	-0.528380
	21.200000	-0.518710
	21.205000	-0.589624
	21.210000	-0.608964
	21.215000	-0.525157
	21.220000	-0.515487
	21.225000	-0.589624
	21.230000	-0.602517
	21.235000	-0.525157
	21.240000	-0.512263
	21.245000	-0.592847
	21.250000	-0.602517
	21.255000	-0.521933
	21.260000	-0.518710
	21.265000	-0.589624
	21.270000	-0.599294
	21.275000	-0.521933
	21.280000	-0.512263
	21.285000	-0.586401
	21.290000	-0.592847
	21.295000	-0.521933
	21.300000	-0.505817
	21.305000	-0.592847
	21.310000	-0.596071
	21.315000	-0.528380
	21.320000	-0.502593
	21.325000	-0.589624
	21.330000	-0.596071
	21.335000	-0.528380
	21.340000	-0.515487
	21.345000	-0.583177
	21.350000	-0.599294
	21.355000	-0.528380
	21.360000	-0.509040
	21.365000	-0.589624
	21.370000	-0.599294
	21.375000	-0.515487
	21.380000	-0.509040
	21.385000	-0.579954
	21.390000	-0.592847
	21.395000	-0.521933
	21.400000	-0.499370
	21.405000	-0.576730
	21.410000	-0.596071
	21.415000	-0.515487
	21.420000	-0.499370
	21.425000	-0.573507
	21.430000	-0.583177
	21.435000	-0.515487
	21.440000	-0.502593
	21.445000	-0.570284
	21.450000	-0.589624
	21.455000	-0.512263
	21.460000	-0.496147
	21.465000	-0.570284
	21.470000	-0.589624
	21.475000	-0.509040
	21.480000	-0.496147
	21.485000	-0.567060
	21.490000	-0.579954
	21.495000	-0.505817
	21.500000	-0.486476
	21.505000	-0.563837
	21.510000	-0.579954
	21.515000	-0.496147
	21.520000	-0.492923
	21.525000	-0.570284
	21.530000	-0.576730
	21.535000	-0.502593
	21.540000	-0.486476
	21.545000	-0.560614
	21.550000	-0.567060
	21.555000	-0.496147
	21.560000	-0.483253
	21.565000	-0.557390
	21.570000	-0.567060
	21.575000	-0.496147
	21.580000	-0.476806
	21.585000	-0.547720
	21.590000	-0.567060
	21.595000	-0.496147
	21.600000	-0.483253
	21.605000	-0.550944
	21.610000	-0.563837
	21.615000	-0.496147
	21.620000	-0.483253
	21.625000	-0.547720
	21.630000	-0.567060
	21.635000	-0.489700
	21.640000	-0.480030
	21.645000	-0.544497
	21.650000	-0.557390
	21.655000	-0.489700
	21.660000	-0.463913
	21.665000	-0.538050
	21.670000	-0.547720
	21.675000	-0.476806
	21.680000	-0.454243
	21.685000	-0.528380
	21.690000	-0.541274
	21.695000	-0.457466
	21.700000	-0.438126
	21.705000	-0.499370
	21.710000	-0.512263
	21.715000	-0.434903
	21.720000	-0.412339
	21.725000	-0.489700
	21.730000	-0.489700
	21.735000	-0.412339
	21.740000	-0.396222
	21.745000	-0.460690
	21.750000	-0.473583
	21.755000	-0.389776
	21.760000	-0.370436
	21.765000	-0.431679
	21.770000	-0.447796
	21.775000	-0.373659
	21.780000	-0.351095
	21.785000	-0.418786
	21.790000	-0.425233
	21.795000	-0.354319
	21.800000	-0.331755
	21.805000	-0.405892
	21.810000	-0.415563
	21.815000	-0.344649
	21.820000	-0.322085
	21.825000	-0.392999
	21.830000	-0.399446
	21.835000	-0.331755
	21.840000	-0.312415
	21.845000	-0.380106
	21.850000	-0.392999
	21.855000	-0.315638
	21.860000	-0.296298
	21.865000	-0.376882
	21.870000	-0.392999
	21.875000	-0.312415
	21.880000	-0.302745
	21.885000	-0.370436
	21.890000	-0.389776
	21.895000	-0.318862
	21.900000	-0.309192
	21.905000	-0.380106
	21.910000	-0.396222
	21.915000	-0.334979
	21.920000	-0.315638
	21.925000	-0.386552
	21.930000	-0.409116
	21.935000	-0.347872
	21.940000	-0.331755
	21.945000	-0.409116
	21.950000	-0.425233
	21.955000	-0.367212
	21.960000	-0.354319
	21.965000	-0.431679
	21.970000	-0.454243
	21.975000	-0.389776
	21.980000	-0.383329
	21.985000	-0.454243
	21.990000	-0.483253
	21.995000	-0.422009
	22.000000	-0.412339
	22.005000	-0.483253
	22.010000	-0.518710
	22.015000	-0.460690
	22.020000	-0.457466
	22.025000	-0.538050
	22.030000	-0.557390
	22.035000	-0.492923
	22.040000	-0.489700
	22.045000	-0.570284
	22.050000	-0.592847
	22.055000	-0.541274
	22.060000	-0.525157
	22.065000	-0.615411
	22.070000	-0.631528
	22.075000	-0.576730
	22.080000	-0.573507
	22.085000	-0.670208
	22.090000	-0.692771
	22.095000	-0.654091
	22.100000	-0.657314
	22.105000	-0.754015
	22.110000	-0.802366
	22.115000	-0.747569
	22.120000	-0.741122
	22.125000	-0.815259
	22.130000	-0.837823
	22.135000	-0.770132
	22.140000	-0.750792
	22.145000	-0.805589
	22.150000	-0.818482
	22.155000	-0.744345
	22.160000	-0.708888
	22.165000	-0.757239
	22.170000	-0.750792
	22.175000	-0.654091
	22.180000	-0.605741
	22.185000	-0.654091
	22.190000	-0.631528
	22.195000	-0.528380
	22.200000	-0.476806
	22.205000	-0.512263
	22.210000	-0.502593
	22.215000	-0.405892
	22.220000	-0.360765
	22.225000	-0.402669
	22.230000	-0.396222
	22.235000	-0.309192
	22.240000	-0.276958
	22.245000	-0.331755
	22.250000	-0.334979
	22.255000	-0.254395
	22.260000	-0.235054
	22.265000	-0.302745
	22.270000	-0.312415
	22.275000	-0.241501
	22.280000	-0.225384
	22.285000	-0.293075
	22.290000	-0.309192
	22.295000	-0.244725
	22.300000	-0.235054
	22.305000	-0.309192
	22.310000	-0.325308
	22.315000	-0.260841
	22.320000	-0.254395
	22.325000	-0.328532
	22.330000	-0.344649
	22.335000	-0.289852
	22.340000	-0.280181
	22.345000	-0.354319
	22.350000	-0.373659
	22.355000	-0.312415
	22.360000	-0.305968
	22.365000	-0.373659
	22.370000	-0.402669
	22.375000	-0.344649
	22.380000	-0.325308
	22.385000	-0.402669
	22.390000	-0.422009
	22.395000	-0.363989
	22.400000	-0.338202
	22.405000	-0.418786
	22.410000	-0.438126
	22.415000	-0.380106
	22.420000	-0.370436
	22.425000	-0.431679
	22.430000	-0.460690
	22.435000	-0.389776
	22.440000	-0.380106
	22.445000	-0.454243
	22.450000	-0.476806
	22.455000	-0.409116
	22.460000	-0.392999
	22.465000	-0.470360
	22.470000	-0.489700
	22.475000	-0.425233
	22.480000	-0.415563
	22.485000	-0.492923
	22.490000	-0.515487
	22.495000	-0.444573
	22.500000	-0.431679
	22.505000	-0.502593
	22.510000	-0.525157
	22.515000	-0.463913
	22.520000	-0.451019
	22.525000	-0.525157
	22.530000	-0.550944
	22.535000	-0.489700
	22.540000	-0.476806
	22.545000	-0.547720
	22.550000	-0.576730
	22.555000	-0.518710
	22.560000	-0.502593
	22.565000	-0.576730
	22.570000	-0.602517
	22.575000	-0.531603
	22.580000	-0.521933
	22.585000	-0.596071
	22.590000	-0.618634
	22.595000	-0.554167
	22.600000	-0.544497
	22.605000	-0.618634
	22.610000	-0.631528
	22.615000	-0.576730
	22.620000	-0.560614
	22.625000	-0.631528
	22.630000	-0.650868
	22.635000	-0.586401
	22.640000	-0.570284
	22.645000	-0.644421
	22.650000	-0.663761
	22.655000	-0.599294
	22.660000	-0.579954
	22.665000	-0.657314
	22.670000	-0.679878
	22.675000	-0.605741
	22.680000	-0.592847
	22.685000	-0.657314
	22.690000	-0.683101
	22.695000	-0.618634
	22.700000	-0.602517
	22.705000	-0.663761
	22.710000	-0.689548
	22.715000	-0.615411
	22.720000	-0.592847
	22.725000	-0.663761
	22.730000	-0.692771
	22.735000	-0.625081
	22.740000	-0.599294
	22.745000	-0.670208
	22.750000	-0.695995
	22.755000	-0.621858
	22.760000	-0.605741
	22.765000	-0.676655
	22.770000	-0.699218
	22.775000	-0.631528
	22.780000	-0.608964
	22.785000	-0.676655
	22.790000	-0.708888
	22.795000	-0.637974
	22.800000	-0.612187
	22.805000	-0.683101
	22.810000	-0.699218
	22.815000	-0.644421
	22.820000	-0.615411
	22.825000	-0.699218
	22.830000	-0.708888
	22.835000	-0.637974
	22.840000	-0.618634
	22.845000	-0.689548
	22.850000	-0.712112
	22.855000	-0.644421
	22.860000	-0.621858
	22.865000	-0.695995
	22.870000	-0.715335
	22.875000	-0.641198
	22.880000	-0.634751
	22.885000	-0.695995
	22.890000	-0.721782
	22.895000	-0.647644
	22.900000	-0.631528
	22.905000	-0.705665
	22.910000	-0.725005
	22.915000	-0.650868
	22.920000	-0.625081
	22.925000	-0.705665
	22.930000	-0.725005
	22.935000	-0.654091
	22.940000	-0.634751
	22.945000	-0.708888
	22.950000	-0.725005
	22.955000	-0.654091
	22.960000	-0.634751
	22.965000	-0.712112
	22.970000	-0.737898
	22.975000	-0.660538
	22.980000	-0.641198
	22.985000	-0.715335
	22.990000	-0.737898
	22.995000	-0.666985
	23.000000	-0.637974
	23.005000	-0.712112
	23.010000	-0.737898
	23.015000	-0.663761
	23.020000	-0.647644
	23.025000	-0.715335
	23.030000	-0.741122
	23.035000	-0.660538
	23.040000	-0.644421
	23.045000	-0.715335
	23.050000	-0.734675
	23.055000	-0.673431
	23.060000	-0.647644
	23.065000	-0.721782
	23.070000	-0.747569
	23.075000	-0.683101
	23.080000	-0.647644
	23.085000	-0.721782
	23.090000	-0.744345
	23.095000	-0.673431
	23.100000	-0.647644
	23.105000	-0.725005
	23.110000	-0.744345
	23.115000	-0.683101
	23.120000	-0.650868
	23.125000	-0.731452
	23.130000	-0.744345
	23.135000	-0.666985
	23.140000	-0.650868
	23.145000	-0.718558
	23.150000	-0.741122
	23.155000	-0.670208
	23.160000	-0.644421
	23.165000	-0.712112
	23.170000	-0.741122
	23.175000	-0.670208
	23.180000	-0.650868
	23.185000	-0.721782
	23.190000	-0.737898
	23.195000	-0.666985
	23.200000	-0.644421
	23.205000	-0.715335
	23.210000	-0.734675
	23.215000	-0.673431
	23.220000	-0.637974
	23.225000	-0.715335
	23.230000	-0.734675
	23.235000	-0.670208
	23.240000	-0.641198
	23.245000	-0.718558
	23.250000	-0.737898
	23.255000	-0.660538
	23.260000	-0.637974
	23.265000	-0.708888
	23.270000	-0.734675
	23.275000	-0.666985
	23.280000	-0.637974
	23.285000	-0.715335
	23.290000	-0.737898
	23.295000	-0.660538
	23.300000	-0.634751
	23.305000	-0.705665
	23.310000	-0.737898
	23.315000	-0.663761
	23.320000	-0.637974
	23.325000	-0.708888
	23.330000	-0.731452
	23.335000	-0.657314
	23.340000	-0.631528
	23.345000	-0.708888
	23.350000	-0.731452
	23.355000	-0.666985
	23.360000	-0.637974
	23.365000	-0.708888
	23.370000	-0.731452
	23.375000	-0.654091
	23.380000	-0.634751
	23.385000	-0.708888
	23.390000	-0.728228
	23.395000	-0.660538
	23.400000	-0.631528
	23.405000	-0.705665
	23.410000	-0.731452
	23.415000	-0.663761
	23.420000	-0.634751
	23.425000	-0.695995
	23.430000	-0.725005
	23.435000	-0.660538
	23.440000	-0.631528
	23.445000	-0.705665
	23.450000	-0.734675
	23.455000	-0.660538
	23.460000	-0.625081
	23.465000	-0.699218
	23.470000	-0.721782
	23.475000	-0.657314
	23.480000	-0.625081
	23.485000	-0.702441
	23.490000	-0.728228
	23.495000	-0.650868
	23.500000	-0.631528
	23.505000	-0.699218
	23.510000	-0.718558
	23.515000	-0.657314
	23.520000	-0.628304
	23.525000	-0.695995
	23.530000	-0.725005
	23.535000	-0.654091
	23.540000	-0.631528
	23.545000	-0.699218
	23.550000	-0.725005
	23.555000	-0.650868
	23.560000	-0.625081
	23.565000	-0.692771
	23.570000	-0.728228
	23.575000	-0.657314
	23.580000	-0.621858
	23.585000	-0.699218
	23.590000	-0.721782
	23.595000	-0.647644
	23.600000	-0.625081
	23.605000	-0.695995
	23.610000	-0.715335
	23.615000	-0.647644
	23.620000	-0.625081
	23.625000	-0.689548
	23.630000	-0.725005
	23.635000	-0.647644
	23.640000	-0.625081
	23.645000	-0.692771
	23.650000	-0.721782
	23.655000	-0.650868
	23.660000	-0.625081
	23.665000	-0.699218
	23.670000	-0.721782
	23.675000	-0.650868
	23.680000	-0.625081
	23.685000	-0.695995
	23.690000	-0.725005
	23.695000	-0.650868
	23.700000	-0.625081
	23.705000	-0.689548
	23.710000	-0.715335
	23.715000	-0.644421
	23.720000	-0.618634
	23.725000	-0.695995
	23.730000	-0.718558
	23.735000	-0.647644
	23.740000	-0.621858
	23.745000	-0.686325
	23.750000	-0.712112
	23.755000	-0.641198
	23.760000	-0.628304
	23.765000	-0.689548
	23.770000	-0.718558
	23.775000	-0.644421
	23.780000	-0.618634
	23.785000	-0.686325
	23.790000	-0.718558
	23.795000	-0.654091
	23.800000	-0.618634
	23.805000	-0.692771
	23.810000	-0.721782
	23.815000	-0.647644
	23.820000	-0.621858
	23.825000	-0.692771
	23.830000	-0.718558
	23.835000	-0.647644
	23.840000	-0.618634
	23.845000	-0.686325
	23.850000	-0.718558
	23.855000	-0.650868
	23.860000	-0.618634
	23.865000	-0.686325
	23.870000	-0.715335
	23.875000	-0.644421
	23.880000	-0.615411
	23.885000	-0.683101
	23.890000	-0.718558
	23.895000	-0.641198
	23.900000	-0.618634
	23.905000	-0.686325
	23.910000	-0.718558
	23.915000	-0.637974
	23.920000	-0.612187
	23.925000	-0.686325
	23.930000	-0.712112
	23.935000	-0.641198
	23.940000	-0.608964
	23.945000	-0.676655
	23.950000	-0.705665
	23.955000	-0.641198
	23.960000	-0.608964
	23.965000	-0.670208
	23.970000	-0.702441
	23.975000	-0.634751
	23.980000	-0.605741
	23.985000	-0.676655
	23.990000	-0.702441
	23.995000	-0.631528
	24.000000	-0.602517
	24.005000	-0.673431
	24.010000	-0.702441
	24.015000	-0.628304
	24.020000	-0.599294
	24.025000	-0.673431
	24.030000	-0.695995
	24.035000	-0.631528
	24.040000	-0.599294
	24.045000	-0.666985
	24.050000	-0.695995
	24.055000	-0.621858
	24.060000	-0.592847
	24.065000	-0.673431
	24.070000	-0.695995
	24.075000	-0.621858
	24.080000	-0.599294
	24.085000	-0.670208
	24.090000	-0.692771
	24.095000	-0.621858
	24.100000	-0.596071
	24.105000	-0.663761
	24.110000	-0.699218
	24.115000	-0.628304
	24.120000	-0.599294
	24.125000	-0.670208
	24.130000	-0.699218
	24.135000	-0.628304
	24.140000	-0.592847
	24.145000	-0.670208
	24.150000	-0.699218
	24.155000	-0.618634
	24.160000	-0.586401
	24.165000	-0.663761
	24.170000	-0.699218
	24.175000	-0.621858
	24.180000	-0.599294
	24.185000	-0.663761
	24.190000	-0.699218
	24.195000	-0.625081
	24.200000	-0.599294
	24.205000	-0.663761
	24.210000	-0.692771
	24.215000	-0.621858
	24.220000	-0.589624
	24.225000	-0.663761
	24.230000	-0.695995
	24.235000	-0.625081
	24.240000	-0.589624
	24.245000	-0.666985
	24.250000	-0.695995
	24.255000	-0.625081
	24.260000	-0.589624
	24.265000	-0.670208
	24.270000	-0.699218
	24.275000	-0.628304
	24.280000	-0.596071
	24.285000	-0.663761
	24.290000	-0.699218
	24.295000	-0.625081
	24.300000	-0.592847
	24.305000	-0.660538
	24.310000	-0.689548
	24.315000	-0.628304
	24.320000	-0.592847
	24.325000	-0.660538
	24.330000	-0.692771
	24.335000	-0.628304
	24.340000	-0.592847
	24.345000	-0.663761
	24.350000	-0.689548
	24.355000	-0.625081
	24.360000	-0.592847
	24.365000	-0.657314
	24.370000	-0.689548
	24.375000	-0.618634
	24.380000	-0.589624
	24.385000	-0.660538
	24.390000	-0.689548
	24.395000	-0.615411
	24.400000	-0.592847
	24.405000	-0.660538
	24.410000	-0.689548
	24.415000	-0.625081
	24.420000	-0.592847
	24.425000	-0.660538
	24.430000	-0.695995
	24.435000	-0.625081
	24.440000	-0.599294
	24.445000	-0.663761
	24.450000	-0.699218
	24.455000	-0.618634
	24.460000	-0.592847
	24.465000	-0.663761
	24.470000	-0.692771
	24.475000	-0.621858
	24.480000	-0.602517
	24.485000	-0.663761
	24.490000	-0.695995
	24.495000	-0.625081
	24.500000	-0.599294
	24.505000	-0.666985
	24.510000	-0.695995
	24.515000	-0.637974
	24.520000	-0.596071
	24.525000	-0.663761
	24.530000	-0.699218
	24.535000	-0.641198
	24.540000	-0.596071
	24.545000	-0.660538
	24.550000	-0.699218
	24.555000	-0.625081
	24.560000	-0.596071
	24.565000	-0.670208
	24.570000	-0.699218
	24.575000	-0.628304
	24.580000	-0.596071
	24.585000	-0.663761
	24.590000	-0.702441
	24.595000	-0.625081
	24.600000	-0.596071
	24.605000	-0.663761
	24.610000	-0.692771
	24.615000	-0.625081
	24.620000	-0.599294
	24.625000	-0.663761
	24.630000	-0.699218
	24.635000	-0.625081
	24.640000	-0.596071
	24.645000	-0.663761
	24.650000	-0.692771
	24.655000	-0.618634
	24.660000	-0.592847
	24.665000	-0.654091
	24.670000	-0.695995
	24.675000	-0.621858
	24.680000	-0.592847
	24.685000	-0.660538
	24.690000	-0.695995
	24.695000	-0.618634
	24.700000	-0.596071
	24.705000	-0.650868
	24.710000	-0.689548
	24.715000	-0.618634
	24.720000	-0.589624
	24.725000	-0.660538
	24.730000	-0.689548
	24.735000	-0.621858
	24.740000	-0.583177
	24.745000	-0.647644
	24.750000	-0.686325
	24.755000	-0.618634
	24.760000	-0.583177
	24.765000	-0.650868
	24.770000	-0.683101
	24.775000	-0.615411
	24.780000	-0.592847
	24.785000	-0.650868
	24.790000	-0.686325
	24.795000	-0.612187
	24.800000	-0.576730
	24.805000	-0.660538
	24.810000	-0.683101
	24.815000	-0.618634
	24.820000	-0.583177
	24.825000	-0.650868
	24.830000	-0.683101
	24.835000	-0.618634
	24.840000	-0.576730
	24.845000	-0.650868
	24.850000	-0.686325
	24.855000	-0.615411
	24.860000	-0.583177
	24.865000	-0.654091
	24.870000	-0.683101
	24.875000	-0.618634
	24.880000	-0.579954
	24.885000	-0.647644
	24.890000	-0.683101
	24.895000	-0.618634
	24.900000	-0.586401
	24.905000	-0.657314
	24.910000	-0.683101
	24.915000	-0.625081
	24.920000	-0.583177
	24.925000	-0.650868
	24.930000	-0.683101
	24.935000	-0.615411
	24.940000	-0.579954
	24.945000	-0.647644
	24.950000	-0.686325
	24.955000	-0.615411
	24.960000	-0.579954
	24.965000	-0.654091
	24.970000	-0.676655
	24.975000	-0.615411
	24.980000	-0.583177
	24.985000	-0.650868
	24.990000	-0.683101
	24.995000	-0.621858
	25.000000	-0.579954
	25.005000	-0.647644
	25.010000	-0.689548
	25.015000	-0.618634
	25.020000	-0.583177
	25.025000	-0.654091
	25.030000	-0.689548
	25.035000	-0.618634
	25.040000	-0.589624
	25.045000	-0.657314
	25.050000	-0.692771
	25.055000	-0.618634
	25.060000	-0.583177
	25.065000	-0.657314
	25.070000	-0.692771
	25.075000	-0.628304
	25.080000	-0.586401
	25.085000	-0.650868
	25.090000	-0.692771
	25.095000	-0.628304
	25.100000	-0.583177
	25.105000	-0.654091
	25.110000	-0.692771
	25.115000	-0.621858
	25.120000	-0.589624
	25.125000	-0.657314
	25.130000	-0.695995
	25.135000	-0.625081
	25.140000	-0.589624
	25.145000	-0.663761
	25.150000	-0.695995
	25.155000	-0.625081
	25.160000	-0.586401
	25.165000	-0.657314
	25.170000	-0.692771
	25.175000	-0.631528
	25.180000	-0.596071
	25.185000	-0.660538
	25.190000	-0.686325
	25.195000	-0.625081
	25.200000	-0.592847
	25.205000	-0.657314
	25.210000	-0.692771
	25.215000	-0.621858
	25.220000	-0.589624
	25.225000	-0.660538
	25.230000	-0.695995
	25.235000	-0.631528
	25.240000	-0.589624
	25.245000	-0.663761
	25.250000	-0.702441
	25.255000	-0.628304
	25.260000	-0.596071
	25.265000	-0.663761
	25.270000	-0.695995
	25.275000	-0.625081
	25.280000	-0.592847
	25.285000	-0.657314
	25.290000	-0.695995
	25.295000	-0.625081
	25.300000	-0.589624
	25.305000	-0.657314
	25.310000	-0.692771
	25.315000	-0.625081
	25.320000	-0.583177
	25.325000	-0.654091
	25.330000	-0.695995
	25.335000	-0.628304
	25.340000	-0.589624
	25.345000	-0.657314
	25.350000	-0.695995
	25.355000	-0.628304
	25.360000	-0.596071
	25.365000	-0.654091
	25.370000	-0.695995
	25.375000	-0.625081
	25.380000	-0.586401
	25.385000	-0.654091
	25.390000	-0.695995
	25.395000	-0.628304
	25.400000	-0.592847
	25.405000	-0.663761
	25.410000	-0.695995
	25.415000	-0.621858
	25.420000	-0.592847
	25.425000	-0.654091
	25.430000	-0.689548
	25.435000	-0.625081
	25.440000	-0.592847
	25.445000	-0.660538
	25.450000	-0.699218
	25.455000	-0.621858
	25.460000	-0.592847
	25.465000	-0.654091
	25.470000	-0.695995
	25.475000	-0.621858
	25.480000	-0.586401
	25.485000	-0.657314
	25.490000	-0.689548
	25.495000	-0.631528
	25.500000	-0.583177
	25.505000	-0.650868
	25.510000	-0.692771
	25.515000	-0.625081
	25.520000	-0.592847
	25.525000	-0.654091
	25.530000	-0.692771
	25.535000	-0.618634
	25.540000	-0.589624
	25.545000	-0.657314
	25.550000	-0.695995
	25.555000	-0.625081
	25.560000	-0.583177
	25.565000	-0.650868
	25.570000	-0.692771
	25.575000	-0.621858
	25.580000	-0.589624
	25.585000	-0.650868
	25.590000	-0.683101
	25.595000	-0.618634
	25.600000	-0.579954
	25.605000	-0.654091
	25.610000	-0.699218
	25.615000	-0.618634
	25.620000	-0.586401
	25.625000	-0.650868
	25.630000	-0.692771
	25.635000	-0.625081
	25.640000	-0.586401
	25.645000	-0.650868
	25.650000	-0.692771
	25.655000	-0.628304
	25.660000	-0.586401
	25.665000	-0.654091
	25.670000	-0.695995
	25.675000	-0.625081
	25.680000	-0.579954
	25.685000	-0.654091
	25.690000	-0.692771
	25.695000	-0.625081
	25.700000	-0.589624
	25.705000	-0.657314
	25.710000	-0.689548
	25.715000	-0.625081
	25.720000	-0.586401
	25.725000	-0.657314
	25.730000	-0.689548
	25.735000	-0.634751
	25.740000	-0.589624
	25.745000	-0.657314
	25.750000	-0.692771
	25.755000	-0.615411
	25.760000	-0.586401
	25.765000	-0.660538
	25.770000	-0.692771
	25.775000	-0.631528
	25.780000	-0.586401
	25.785000	-0.657314
	25.790000	-0.689548
	25.795000	-0.625081
	25.800000	-0.592847
	25.805000	-0.657314
	25.810000	-0.695995
	25.815000	-0.625081
	25.820000	-0.589624
	25.825000	-0.657314
	25.830000	-0.692771
	25.835000	-0.631528
	25.840000	-0.589624
	25.845000	-0.663761
	25.850000	-0.695995
	25.855000	-0.628304
	25.860000	-0.589624
	25.865000	-0.654091
	25.870000	-0.689548
	25.875000	-0.625081
	25.880000	-0.586401
	25.885000	-0.657314
	25.890000	-0.695995
	25.895000	-0.625081
	25.900000	-0.579954
	25.905000	-0.647644
	25.910000	-0.692771
	25.915000	-0.621858
	25.920000	-0.583177
	25.925000	-0.650868
	25.930000	-0.695995
	25.935000	-0.625081
	25.940000	-0.583177
	25.945000	-0.654091
	25.950000	-0.692771
	25.955000	-0.631528
	25.960000	-0.586401
	25.965000	-0.654091
	25.970000	-0.692771
	25.975000	-0.628304
	25.980000	-0.592847
	25.985000	-0.650868
	25.990000	-0.689548
	25.995000	-0.625081
	26.000000	-0.589624
	26.005000	-0.654091
	26.010000	-0.695995
	26.015000	-0.631528
	26.020000	-0.586401
	26.025000	-0.663761
	26.030000	-0.695995
	26.035000	-0.628304
	26.040000	-0.586401
	26.045000	-0.654091
	26.050000	-0.695995
	26.055000	-0.631528
	26.060000	-0.589624
	26.065000	-0.657314
	26.070000	-0.699218
	26.075000	-0.625081
	26.080000	-0.589624
	26.085000	-0.654091
	26.090000	-0.702441
	26.095000	-0.628304
	26.100000	-0.599294
	26.105000	-0.660538
	26.110000	-0.705665
	26.115000	-0.631528
	26.120000	-0.589624
	26.125000	-0.660538
	26.130000	-0.702441
	26.135000	-0.625081
	26.140000	-0.599294
	26.145000	-0.660538
	26.150000	-0.695995
	26.155000	-0.628304
	26.160000	-0.592847
	26.165000	-0.660538
	26.170000	-0.699218
	26.175000	-0.637974
	26.180000	-0.592847
	26.185000	-0.663761
	26.190000	-0.699218
	26.195000	-0.634751
	26.200000	-0.592847
	26.205000	-0.657314
	26.210000	-0.695995
	26.215000	-0.628304
	26.220000	-0.583177
	26.225000	-0.654091
	26.230000	-0.692771
	26.235000	-0.621858
	26.240000	-0.586401
	26.245000	-0.647644
	26.250000	-0.695995
	26.255000	-0.628304
	26.260000	-0.583177
	26.265000	-0.650868
	26.270000	-0.692771
	26.275000	-0.621858
	26.280000	-0.576730
	26.285000	-0.650868
	26.290000	-0.689548
	26.295000	-0.618634
	26.300000	-0.576730
	26.305000	-0.647644
	26.310000	-0.692771
	26.315000	-0.615411
	26.320000	-0.576730
	26.325000	-0.637974
	26.330000	-0.676655
	26.335000	-0.618634
	26.340000	-0.576730
	26.345000	-0.634751
	26.350000	-0.686325
	26.355000	-0.621858
	26.360000	-0.576730
	26.365000	-0.641198
	26.370000	-0.676655
	26.375000	-0.612187
	26.380000	-0.570284
	26.385000	-0.637974
	26.390000	-0.676655
	26.395000	-0.612187
	26.400000	-0.570284
	26.405000	-0.637974
	26.410000	-0.673431
	26.415000	-0.608964
	26.420000	-0.560614
	26.425000	-0.634751
	26.430000	-0.679878
	26.435000	-0.602517
	26.440000	-0.567060
	26.445000	-0.634751
	26.450000	-0.673431
	26.455000	-0.605741
	26.460000	-0.570284
	26.465000	-0.625081
	26.470000	-0.676655
	26.475000	-0.602517
	26.480000	-0.563837
	26.485000	-0.631528
	26.490000	-0.673431
	26.495000	-0.602517
	26.500000	-0.567060
	26.505000	-0.628304
	26.510000	-0.666985
	26.515000	-0.602517
	26.520000	-0.560614
	26.525000	-0.628304
	26.530000	-0.666985
	26.535000	-0.605741
	26.540000	-0.557390
	26.545000	-0.628304
	26.550000	-0.670208
	26.555000	-0.599294
	26.560000	-0.554167
	26.565000	-0.621858
	26.570000	-0.663761
	26.575000	-0.596071
	26.580000	-0.554167
	26.585000	-0.628304
	26.590000	-0.660538
	26.595000	-0.596071
	26.600000	-0.554167
	26.605000	-0.618634
	26.610000	-0.663761
	26.615000	-0.596071
	26.620000	-0.557390
	26.625000	-0.618634
	26.630000	-0.663761
	26.635000	-0.599294
	26.640000	-0.554167
	26.645000	-0.612187
	26.650000	-0.660538
	26.655000	-0.592847
	26.660000	-0.554167
	26.665000	-0.621858
	26.670000	-0.660538
	26.675000	-0.592847
	26.680000	-0.550944
	26.685000	-0.615411
	26.690000	-0.654091
	26.695000	-0.592847
	26.700000	-0.544497
	26.705000	-0.605741
	26.710000	-0.644421
	26.715000	-0.592847
	26.720000	-0.547720
	26.725000	-0.615411
	26.730000	-0.647644
	26.735000	-0.579954
	26.740000	-0.541274
	26.745000	-0.608964
	26.750000	-0.650868
	26.755000	-0.583177
	26.760000	-0.538050
	26.765000	-0.605741
	26.770000	-0.647644
	26.775000	-0.579954
	26.780000	-0.541274
	26.785000	-0.605741
	26.790000	-0.647644
	26.795000	-0.579954
	26.800000	-0.538050
	26.805000	-0.599294
	26.810000	-0.641198
	26.815000	-0.573507
	26.820000	-0.528380
	26.825000	-0.596071
	26.830000	-0.641198
	26.835000	-0.570284
	26.840000	-0.534827
	26.845000	-0.592847
	26.850000	-0.631528
	26.855000	-0.563837
	26.860000	-0.521933
	26.865000	-0.589624
	26.870000	-0.621858
	26.875000	-0.557390
	26.880000	-0.515487
	26.885000	-0.570284
	26.890000	-0.615411
	26.895000	-0.550944
	26.900000	-0.505817
	26.905000	-0.573507
	26.910000	-0.618634
	26.915000	-0.547720
	26.920000	-0.502593
	26.925000	-0.567060
	26.930000	-0.602517
	26.935000	-0.544497
	26.940000	-0.496147
	26.945000	-0.560614
	26.950000	-0.605741
	26.955000	-0.538050
	26.960000	-0.496147
	26.965000	-0.557390
	26.970000	-0.599294
	26.975000	-0.538050
	26.980000	-0.492923
	26.985000	-0.554167
	26.990000	-0.592847
	26.995000	-0.531603
	27.000000	-0.492923
	27.005000	-0.557390
	27.010000	-0.599294
	27.015000	-0.528380
	27.020000	-0.496147
	27.025000	-0.550944
	27.030000	-0.592847
	27.035000	-0.528380
	27.040000	-0.480030
	27.045000	-0.538050
	27.050000	-0.573507
	27.055000	-0.509040
	27.060000	-0.447796
	27.065000	-0.502593
	27.070000	-0.534827
	27.075000	-0.463913
	27.080000	-0.409116
	27.085000	-0.460690
	27.090000	-0.489700
	27.095000	-0.415563
	27.100000	-0.354319
	27.105000	-0.412339
	27.110000	-0.434903
	27.115000	-0.367212
	27.120000	-0.312415
	27.125000	-0.367212
	27.130000	-0.405892
	27.135000	-0.328532
	27.140000	-0.276958
	27.145000	-0.338202
	27.150000	-0.370436
	27.155000	-0.309192
	27.160000	-0.260841
	27.165000	-0.309192
	27.170000	-0.347872
	27.175000	-0.286628
	27.180000	-0.247948
	27.185000	-0.305968
	27.190000	-0.344649
	27.195000	-0.296298
	27.200000	-0.247948
	27.205000	-0.315638
	27.210000	-0.363989
	27.215000	-0.309192
	27.220000	-0.267288
	27.225000	-0.341425
	27.230000	-0.389776
	27.235000	-0.334979
	27.240000	-0.299522
	27.245000	-0.367212
	27.250000	-0.412339
	27.255000	-0.354319
	27.260000	-0.315638
	27.265000	-0.380106
	27.270000	-0.422009
	27.275000	-0.363989
	27.280000	-0.312415
	27.285000	-0.370436
	27.290000	-0.412339
	27.295000	-0.354319
	27.300000	-0.309192
	27.305000	-0.373659
	27.310000	-0.412339
	27.315000	-0.341425
	27.320000	-0.302745
	27.325000	-0.351095
	27.330000	-0.399446
	27.335000	-0.338202
	27.340000	-0.286628
	27.345000	-0.344649
	27.350000	-0.383329
	27.355000	-0.325308
	27.360000	-0.280181
	27.365000	-0.334979
	27.370000	-0.376882
	27.375000	-0.315638
	27.380000	-0.276958
	27.385000	-0.341425
	27.390000	-0.386552
	27.395000	-0.331755
	27.400000	-0.289852
	27.405000	-0.360765
	27.410000	-0.409116
	27.415000	-0.351095
	27.420000	-0.325308
	27.425000	-0.383329
	27.430000	-0.434903
	27.435000	-0.376882
	27.440000	-0.341425
	27.445000	-0.409116
	27.450000	-0.457466
	27.455000	-0.396222
	27.460000	-0.370436
	27.465000	-0.431679
	27.470000	-0.476806
	27.475000	-0.418786
	27.480000	-0.380106
	27.485000	-0.444573
	27.490000	-0.492923
	27.495000	-0.441349
	27.500000	-0.392999
	27.505000	-0.460690
	27.510000	-0.505817
	27.515000	-0.441349
	27.520000	-0.412339
	27.525000	-0.467136
	27.530000	-0.525157
	27.535000	-0.451019
	27.540000	-0.412339
	27.545000	-0.480030
	27.550000	-0.518710
	27.555000	-0.467136
	27.560000	-0.425233
	27.565000	-0.489700
	27.570000	-0.531603
	27.575000	-0.476806
	27.580000	-0.434903
	27.585000	-0.496147
	27.590000	-0.547720
	27.595000	-0.489700
	27.600000	-0.454243
	27.605000	-0.515487
	27.610000	-0.567060
	27.615000	-0.505817
	27.620000	-0.470360
	27.625000	-0.534827
	27.630000	-0.573507
	27.635000	-0.525157
	27.640000	-0.496147
	27.645000	-0.557390
	27.650000	-0.608964
	27.655000	-0.554167
	27.660000	-0.512263
	27.665000	-0.579954
	27.670000	-0.637974
	27.675000	-0.579954
	27.680000	-0.541274
	27.685000	-0.602517
	27.690000	-0.657314
	27.695000	-0.615411
	27.700000	-0.570284
	27.705000	-0.641198
	27.710000	-0.692771
	27.715000	-0.634751
	27.720000	-0.602517
	27.725000	-0.666985
	27.730000	-0.718558
	27.735000	-0.666985
	27.740000	-0.628304
	27.745000	-0.695995
	27.750000	-0.747569
	27.755000	-0.683101
	27.760000	-0.647644
	27.765000	-0.708888
	27.770000	-0.757239
	27.775000	-0.702441
	27.780000	-0.660538
	27.785000	-0.715335
	27.790000	-0.766909
	27.795000	-0.705665
	27.800000	-0.670208
	27.805000	-0.728228
	27.810000	-0.773355
	27.815000	-0.715335
	27.820000	-0.670208
	27.825000	-0.731452
	27.830000	-0.773355
	27.835000	-0.718558
	27.840000	-0.676655
	27.845000	-0.731452
	27.850000	-0.779802
	27.855000	-0.721782
	27.860000	-0.666985
	27.865000	-0.728228
	27.870000	-0.779802
	27.875000	-0.715335
	27.880000	-0.673431
	27.885000	-0.731452
	27.890000	-0.776579
	27.895000	-0.712112
	27.900000	-0.666985
	27.905000	-0.734675
	27.910000	-0.773355
	27.915000	-0.721782
	27.920000	-0.673431
	27.925000	-0.725005
	27.930000	-0.773355
	27.935000	-0.712112
	27.940000	-0.666985
	27.945000	-0.725005
	27.950000	-0.766909
	27.955000	-0.708888
	27.960000	-0.663761
	27.965000	-0.718558
	27.970000	-0.773355
	27.975000	-0.705665
	27.980000	-0.663761
	27.985000	-0.725005
	27.990000	-0.770132
	27.995000	-0.705665
	28.000000	-0.663761
	28.005000	-0.725005
	28.010000	-0.766909
	28.015000	-0.708888
	28.020000	-0.657314
	28.025000	-0.718558
	28.030000	-0.770132
	28.035000	-0.705665
	28.040000	-0.657314
	28.045000	-0.715335
	28.050000	-0.766909
	28.055000	-0.699218
	28.060000	-0.657314
	28.065000	-0.718558
	28.070000	-0.766909
	28.075000	-0.702441
	28.080000	-0.654091
	28.085000	-0.721782
	28.090000	-0.763685
	28.095000	-0.699218
	28.100000	-0.654091
	28.105000	-0.715335
	28.110000	-0.760462
	28.115000	-0.708888
	28.120000	-0.650868
	28.125000	-0.718558
	28.130000	-0.763685
	28.135000	-0.695995
	28.140000	-0.647644
	28.145000	-0.712112
	28.150000	-0.763685
	28.155000	-0.695995
	28.160000	-0.644421
	28.165000	-0.715335
	28.170000	-0.760462
	28.175000	-0.695995
	28.180000	-0.647644
	28.185000	-0.705665
	28.190000	-0.757239
	28.195000	-0.692771
	28.200000	-0.647644
	28.205000	-0.708888
	28.210000	-0.754015
	28.215000	-0.695995
	28.220000	-0.637974
	28.225000	-0.695995
	28.230000	-0.750792
	28.235000	-0.683101
	28.240000	-0.641198
	28.245000	-0.702441
	28.250000	-0.744345
	28.255000	-0.692771
	28.260000	-0.644421
	28.265000	-0.699218
	28.270000	-0.747569
	28.275000	-0.683101
	28.280000	-0.634751
	28.285000	-0.699218
	28.290000	-0.744345
	28.295000	-0.683101
	28.300000	-0.634751
	28.305000	-0.695995
	28.310000	-0.747569
	28.315000	-0.683101
	28.320000	-0.631528
	28.325000	-0.689548
	28.330000	-0.741122
	28.335000	-0.676655
	28.340000	-0.631528
	28.345000	-0.692771
	28.350000	-0.741122
	28.355000	-0.673431
	28.360000	-0.628304
	28.365000	-0.686325
	28.370000	-0.734675
	28.375000	-0.676655
	28.380000	-0.628304
	28.385000	-0.692771
	28.390000	-0.741122
	28.395000	-0.676655
	28.400000	-0.625081
	28.405000	-0.686325
	28.410000	-0.734675
	28.415000	-0.666985
	28.420000	-0.621858
	28.425000	-0.686325
	28.430000	-0.734675
	28.435000	-0.670208
	28.440000	-0.621858
	28.445000	-0.686325
	28.450000	-0.731452
	28.455000	-0.673431
	28.460000	-0.621858
	28.465000	-0.686325
	28.470000	-0.734675
	28.475000	-0.673431
	28.480000	-0.621858
	28.485000	-0.679878
	28.490000	-0.731452
	28.495000	-0.670208
	28.500000	-0.621858
	28.505000	-0.679878
	28.510000	-0.721782
	28.515000	-0.666985
	28.520000	-0.612187
	28.525000	-0.673431
	28.530000	-0.728228
	28.535000	-0.657314
	28.540000	-0.608964
	28.545000	-0.673431
	28.550000	-0.718558
	28.555000	-0.666985
	28.560000	-0.605741
	28.565000	-0.666985
	28.570000	-0.718558
	28.575000	-0.657314
	28.580000	-0.612187
	28.585000	-0.670208
	28.590000	-0.718558
	28.595000	-0.654091
	28.600000	-0.605741
	28.605000	-0.660538
	28.610000	-0.718558
	28.615000	-0.660538
	28.620000	-0.605741
	28.625000	-0.670208
	28.630000	-0.718558
	28.635000	-0.654091
	28.640000	-0.602517
	28.645000	-0.663761
	28.650000	-0.715335
	28.655000	-0.654091
	28.660000	-0.602517
	28.665000	-0.666985
	28.670000	-0.708888
	28.675000	-0.657314
	28.680000	-0.605741
	28.685000	-0.657314
	28.690000	-0.715335
	28.695000	-0.647644
	28.700000	-0.605741
	28.705000	-0.666985
	28.710000	-0.712112
	28.715000	-0.650868
	28.720000	-0.605741
	28.725000	-0.657314
	28.730000	-0.715335
	28.735000	-0.657314
	28.740000	-0.599294
	28.745000	-0.657314
	28.750000	-0.705665
	28.755000	-0.647644
	28.760000	-0.599294
	28.765000	-0.657314
	28.770000	-0.708888
	28.775000	-0.644421
	28.780000	-0.605741
	28.785000	-0.650868
	28.790000	-0.705665
	28.795000	-0.644421
	28.800000	-0.596071
	28.805000	-0.654091
	28.810000	-0.708888
	28.815000	-0.641198
	28.820000	-0.596071
	28.825000	-0.654091
	28.830000	-0.705665
	28.835000	-0.641198
	28.840000	-0.596071
	28.845000	-0.654091
	28.850000	-0.708888
	28.855000	-0.650868
	28.860000	-0.592847
	28.865000	-0.663761
	28.870000	-0.705665
	28.875000	-0.641198
	28.880000	-0.596071
	28.885000	-0.647644
	28.890000	-0.705665
	28.895000	-0.644421
	28.900000	-0.592847
	28.905000	-0.650868
	28.910000	-0.702441
	28.915000	-0.650868
	28.920000	-0.596071
	28.925000	-0.650868
	28.930000	-0.705665
	28.935000	-0.641198
	28.940000	-0.589624
	28.945000	-0.654091
	28.950000	-0.702441
	28.955000	-0.641198
	28.960000	-0.589624
	28.965000	-0.641198
	28.970000	-0.702441
	28.975000	-0.647644
	28.980000	-0.586401
	28.985000	-0.647644
	28.990000	-0.695995
	28.995000	-0.637974
	29.000000	-0.589624
	29.005000	-0.637974
	29.010000	-0.702441
	29.015000	-0.641198
	29.020000	-0.592847
	29.025000	-0.654091
	29.030000	-0.699218
	29.035000	-0.641198
	29.040000	-0.589624
	29.045000	-0.650868
	29.050000	-0.702441
	29.055000	-0.644421
	29.060000	-0.586401
	29.065000	-0.650868
	29.070000	-0.689548
	29.075000	-0.644421
	29.080000	-0.583177
	29.085000	-0.644421
	29.090000	-0.699218
	29.095000	-0.644421
	29.100000	-0.586401
	29.105000	-0.644421
	29.110000	-0.695995
	29.115000	-0.641198
	29.120000	-0.586401
	29.125000	-0.654091
	29.130000	-0.689548
	29.135000	-0.637974
	29.140000	-0.579954
	29.145000	-0.644421
	29.150000	-0.702441
	29.155000	-0.634751
	29.160000	-0.589624
	29.165000	-0.644421
	29.170000	-0.699218
	29.175000	-0.637974
	29.180000	-0.583177
	29.185000	-0.644421
	29.190000	-0.702441
	29.195000	-0.631528
	29.200000	-0.583177
	29.205000	-0.637974
	29.210000	-0.695995
	29.215000	-0.637974
	29.220000	-0.579954
	29.225000	-0.641198
	29.230000	-0.692771
	29.235000	-0.634751
	29.240000	-0.576730
	29.245000	-0.637974
	29.250000	-0.695995
	29.255000	-0.637974
	29.260000	-0.583177
	29.265000	-0.637974
	29.270000	-0.686325
	29.275000	-0.631528
	29.280000	-0.586401
	29.285000	-0.637974
	29.290000	-0.695995
	29.295000	-0.634751
	29.300000	-0.579954
	29.305000	-0.641198
	29.310000	-0.692771
	29.315000	-0.628304
	29.320000	-0.579954
	29.325000	-0.641198
	29.330000	-0.689548
	29.335000	-0.634751
	29.340000	-0.583177
	29.345000	-0.634751
	29.350000	-0.686325
	29.355000	-0.634751
	29.360000	-0.576730
	29.365000	-0.637974
	29.370000	-0.686325
	29.375000	-0.628304
	29.380000	-0.573507
	29.385000	-0.634751
	29.390000	-0.686325
	29.395000	-0.621858
	29.400000	-0.576730
	29.405000	-0.634751
	29.410000	-0.692771
	29.415000	-0.634751
	29.420000	-0.573507
	29.425000	-0.641198
	29.430000	-0.689548
	29.435000	-0.628304
	29.440000	-0.573507
	29.445000	-0.631528
	29.450000	-0.689548
	29.455000	-0.625081
	29.460000	-0.573507
	29.465000	-0.637974
	29.470000	-0.686325
	29.475000	-0.628304
	29.480000	-0.576730
	29.485000	-0.634751
	29.490000	-0.692771
	29.495000	-0.631528
	29.500000	-0.579954
	29.505000	-0.628304
	29.510000	-0.686325
	29.515000	-0.631528
	29.520000	-0.579954
	29.525000	-0.631528
	29.530000	-0.686325
	29.535000	-0.634751
	29.540000	-0.576730
	29.545000	-0.634751
	29.550000	-0.689548
	29.555000	-0.631528
	29.560000	-0.576730
	29.565000	-0.634751
	29.570000	-0.692771
	29.575000	-0.628304
	29.580000	-0.576730
	29.585000	-0.634751
	29.590000	-0.692771
	29.595000	-0.631528
	29.600000	-0.579954
	29.605000	-0.634751
	29.610000	-0.689548
	29.615000	-0.631528
	29.620000	-0.579954
	29.625000	-0.634751
	29.630000	-0.692771
	29.635000	-0.634751
	29.640000	-0.576730
	29.645000	-0.634751
	29.650000	-0.686325
	29.655000	-0.631528
	29.660000	-0.576730
	29.665000	-0.637974
	29.670000	-0.689548
	29.675000	-0.634751
	29.680000	-0.576730
	29.685000	-0.641198
	29.690000	-0.692771
	29.695000	-0.631528
	29.700000	-0.576730
	29.705000	-0.631528
	29.710000	-0.686325
	29.715000	-0.637974
	29.720000	-0.579954
	29.725000	-0.631528
	29.730000	-0.686325
	29.735000	-0.631528
	29.740000	-0.579954
	29.745000	-0.631528
	29.750000	-0.695995
	29.755000	-0.634751
	29.760000	-0.576730
	29.765000	-0.634751
	29.770000	-0.692771
	29.775000	-0.631528
	29.780000	-0.583177
	29.785000	-0.631528
	29.790000	-0.692771
	29.795000	-0.631528
	29.800000	-0.579954
	29.805000	-0.637974
	29.810000	-0.695995
	29.815000	-0.634751
	29.820000	-0.579954
	29.825000	-0.634751
	29.830000	-0.689548
	29.835000	-0.631528
	29.840000	-0.576730
	29.845000	-0.631528
	29.850000	-0.689548
	29.855000	-0.634751
	29.860000	-0.576730
	29.865000	-0.637974
	29.870000	-0.702441
	29.875000	-0.634751
	29.880000	-0.576730
	29.885000	-0.634751
	29.890000	-0.695995
	29.895000	-0.637974
	29.900000	-0.579954
	29.905000	-0.634751
	29.910000	-0.695995
	29.915000	-0.631528
	29.920000	-0.586401
	29.925000	-0.637974
	29.930000	-0.692771
	29.935000	-0.637974
	29.940000	-0.583177
	29.945000	-0.634751
	29.950000	-0.692771
	29.955000	-0.634751
	29.960000	-0.576730
	29.965000	-0.634751
	29.970000	-0.689548
	29.975000	-0.634751
	29.980000	-0.579954
	29.985000	-0.641198
	29.990000	-0.695995
	29.995000	-0.634751
	30.000000	-0.586401
	30.005000	-0.634751
	30.010000	-0.686325
	30.015000	-0.631528
	30.020000	-0.576730
	30.025000	-0.631528
	30.030000	-0.689548
	30.035000	-0.631528
	30.040000	-0.573507
	30.045000	-0.637974
	30.050000	-0.692771
	30.055000	-0.621858
	30.060000	-0.576730
	30.065000	-0.631528
	30.070000	-0.689548
	30.075000	-0.634751
	30.080000	-0.579954
	30.085000	-0.631528
	30.090000	-0.686325
	30.095000	-0.634751
	30.100000	-0.579954
	30.105000	-0.628304
	30.110000	-0.686325
	30.115000	-0.625081
	30.120000	-0.576730
	30.125000	-0.634751
	30.130000	-0.686325
	30.135000	-0.628304
	30.140000	-0.576730
	30.145000	-0.628304
	30.150000	-0.683101
	30.155000	-0.631528
	30.160000	-0.570284
	30.165000	-0.625081
	30.170000	-0.686325
	30.175000	-0.631528
	30.180000	-0.579954
	30.185000	-0.628304
	30.190000	-0.686325
	30.195000	-0.628304
	30.200000	-0.579954
	30.205000	-0.631528
	30.210000	-0.683101
	30.215000	-0.634751
	30.220000	-0.573507
	30.225000	-0.637974
	30.230000	-0.686325
	30.235000	-0.631528
	30.240000	-0.579954
	30.245000	-0.641198
	30.250000	-0.689548
	30.255000	-0.631528
	30.260000	-0.576730
	30.265000	-0.631528
	30.270000	-0.692771
	30.275000	-0.634751
	30.280000	-0.576730
	30.285000	-0.634751
	30.290000	-0.689548
	30.295000	-0.631528
	30.300000	-0.576730
	30.305000	-0.634751
	30.310000	-0.689548
	30.315000	-0.631528
	30.320000	-0.579954
	30.325000	-0.634751
	30.330000	-0.689548
	30.335000	-0.637974
	30.340000	-0.573507
	30.345000	-0.631528
	30.350000	-0.692771
	30.355000	-0.637974
	30.360000	-0.576730
	30.365000	-0.641198
	30.370000	-0.695995
	30.375000	-0.641198
	30.380000	-0.576730
	30.385000	-0.631528
	30.390000	-0.692771
	30.395000	-0.634751
	30.400000	-0.583177
	30.405000	-0.641198
	30.410000	-0.689548
	30.415000	-0.637974
	30.420000	-0.576730
	30.425000	-0.637974
	30.430000	-0.695995
	30.435000	-0.634751
	30.440000	-0.579954
	30.445000	-0.634751
	30.450000	-0.692771
	30.455000	-0.637974
	30.460000	-0.579954
	30.465000	-0.631528
	30.470000	-0.692771
	30.475000	-0.644421
	30.480000	-0.579954
	30.485000	-0.628304
	30.490000	-0.692771
	30.495000	-0.637974
	30.500000	-0.579954
	30.505000	-0.628304
	30.510000	-0.695995
	30.515000	-0.631528
	30.520000	-0.576730
	30.525000	-0.634751
	30.530000	-0.692771
	30.535000	-0.634751
	30.540000	-0.579954
	30.545000	-0.628304
	30.550000	-0.686325
	30.555000	-0.634751
	30.560000	-0.573507
	30.565000	-0.631528
	30.570000	-0.692771
	30.575000	-0.631528
	30.580000	-0.576730
	30.585000	-0.631528
	30.590000	-0.689548
	30.595000	-0.631528
	30.600000	-0.576730
	30.605000	-0.631528
	30.610000	-0.689548
	30.615000	-0.628304
	30.620000	-0.570284
	30.625000	-0.637974
	30.630000	-0.692771
	30.635000	-0.634751
	30.640000	-0.579954
	30.645000	-0.628304
	30.650000	-0.683101
	30.655000	-0.637974
	30.660000	-0.576730
	30.665000	-0.634751
	30.670000	-0.692771
	30.675000	-0.628304
	30.680000	-0.573507
	30.685000	-0.625081
	30.690000	-0.683101
	30.695000	-0.631528
	30.700000	-0.573507
	30.705000	-0.628304
	30.710000	-0.683101
	30.715000	-0.634751
	30.720000	-0.573507
	30.725000	-0.625081
	30.730000	-0.683101
	30.735000	-0.634751
	30.740000	-0.573507
	30.745000	-0.621858
	30.750000	-0.683101
	30.755000	-0.634751
	30.760000	-0.573507
	30.765000	-0.634751
	30.770000	-0.689548
	30.775000	-0.634751
	30.780000	-0.576730
	30.785000	-0.634751
	30.790000	-0.686325
	30.795000	-0.628304
	30.800000	-0.573507
	30.805000	-0.628304
	30.810000	-0.686325
	30.815000	-0.628304
	30.820000	-0.567060
	30.825000	-0.625081
	30.830000	-0.683101
	30.835000	-0.621858
	30.840000	-0.567060
	30.845000	-0.621858
	30.850000	-0.683101
	30.855000	-0.625081
	30.860000	-0.567060
	30.865000	-0.618634
	30.870000	-0.683101
	30.875000	-0.631528
	30.880000	-0.576730
	30.885000	-0.621858
	30.890000	-0.679878
	30.895000	-0.631528
	30.900000	-0.573507
	30.905000	-0.621858
	30.910000	-0.679878
	30.915000	-0.621858
	30.920000	-0.563837
	30.925000	-0.621858
	30.930000	-0.679878
	30.935000	-0.625081
	30.940000	-0.573507
	30.945000	-0.618634
	30.950000	-0.673431
	30.955000	-0.628304
	30.960000	-0.573507
	30.965000	-0.625081
	30.970000	-0.679878
	30.975000	-0.628304
	30.980000	-0.573507
	30.985000	-0.615411
	30.990000	-0.679878
	30.995000	-0.618634
	31.000000	-0.563837
	31.005000	-0.625081
	31.010000	-0.679878
	31.015000	-0.618634
	31.020000	-0.563837
	31.025000	-0.621858
	31.030000	-0.673431
	31.035000	-0.621858
	31.040000	-0.570284
	31.045000	-0.625081
	31.050000	-0.676655
	31.055000	-0.625081
	31.060000	-0.573507
	31.065000	-0.618634
	31.070000	-0.676655
	31.075000	-0.621858
	31.080000	-0.567060
	31.085000	-0.618634
	31.090000	-0.683101
	31.095000	-0.625081
	31.100000	-0.573507
	31.105000	-0.621858
	31.110000	-0.679878
	31.115000	-0.631528
	31.120000	-0.573507
	31.125000	-0.621858
	31.130000	-0.683101
	31.135000	-0.628304
	31.140000	-0.570284
	31.145000	-0.628304
	31.150000	-0.683101
	31.155000	-0.625081
	31.160000	-0.573507
	31.165000	-0.621858
	31.170000	-0.683101
	31.175000	-0.628304
	31.180000	-0.567060
	31.185000	-0.625081
	31.190000	-0.686325
	31.195000	-0.625081
	31.200000	-0.573507
	31.205000	-0.628304
	31.210000	-0.683101
	31.215000	-0.628304
	31.220000	-0.567060
	31.225000	-0.625081
	31.230000	-0.686325
	31.235000	-0.628304
	31.240000	-0.573507
	31.245000	-0.631528
	31.250000	-0.689548
	31.255000	-0.637974
	31.260000	-0.576730
	31.265000	-0.628304
	31.270000	-0.683101
	31.275000	-0.637974
	31.280000	-0.579954
	31.285000	-0.631528
	31.290000	-0.689548
	31.295000	-0.631528
	31.300000	-0.573507
	31.305000	-0.621858
	31.310000	-0.689548
	31.315000	-0.634751
	31.320000	-0.576730
	31.325000	-0.628304
	31.330000	-0.692771
	31.335000	-0.637974
	31.340000	-0.579954
	31.345000	-0.634751
	31.350000	-0.692771
	31.355000	-0.641198
	31.360000	-0.576730
	31.365000	-0.625081
	31.370000	-0.692771
	31.375000	-0.634751
	31.380000	-0.579954
	31.385000	-0.628304
	31.390000	-0.689548
	31.395000	-0.637974
	31.400000	-0.583177
	31.405000	-0.634751
	31.410000	-0.686325
	31.415000	-0.641198
	31.420000	-0.576730
	31.425000	-0.631528
	31.430000	-0.686325
	31.435000	-0.637974
	31.440000	-0.579954
	31.445000	-0.631528
	31.450000	-0.692771
	31.455000	-0.637974
	31.460000	-0.576730
	31.465000	-0.637974
	31.470000	-0.689548
	31.475000	-0.628304
	31.480000	-0.573507
	31.485000	-0.631528
	31.490000	-0.689548
	31.495000	-0.641198
	31.500000	-0.573507
	31.505000	-0.631528
	31.510000	-0.692771
	31.515000	-0.631528
	31.520000	-0.570284
	31.525000	-0.618634
	31.530000	-0.679878
	31.535000	-0.634751
	31.540000	-0.576730
	31.545000	-0.625081
	31.550000	-0.683101
	31.555000	-0.631528
	31.560000	-0.570284
	31.565000	-0.625081
	31.570000	-0.676655
	31.575000	-0.631528
	31.580000	-0.567060
	31.585000	-0.625081
	31.590000	-0.683101
	31.595000	-0.625081
	31.600000	-0.567060
	31.605000	-0.615411
	31.610000	-0.676655
	31.615000	-0.628304
	31.620000	-0.567060
	31.625000	-0.618634
	31.630000	-0.683101
	31.635000	-0.625081
	31.640000	-0.567060
	31.645000	-0.618634
	31.650000	-0.676655
	31.655000	-0.625081
	31.660000	-0.567060
	31.665000	-0.618634
	31.670000	-0.673431
	31.675000	-0.618634
	31.680000	-0.557390
	31.685000	-0.605741
	31.690000	-0.663761
	31.695000	-0.612187
	31.700000	-0.557390
	31.705000	-0.605741
	31.710000	-0.660538
	31.715000	-0.608964
	31.720000	-0.550944
	31.725000	-0.602517
	31.730000	-0.660538
	31.735000	-0.608964
	31.740000	-0.547720
	31.745000	-0.596071
	31.750000	-0.657314
	31.755000	-0.602517
	31.760000	-0.541274
	31.765000	-0.602517
	31.770000	-0.657314
	31.775000	-0.602517
	31.780000	-0.544497
	31.785000	-0.586401
	31.790000	-0.650868
	31.795000	-0.602517
	31.800000	-0.534827
	31.805000	-0.589624
	31.810000	-0.647644
	31.815000	-0.596071
	31.820000	-0.541274
	31.825000	-0.589624
	31.830000	-0.644421
	31.835000	-0.599294
	31.840000	-0.538050
	31.845000	-0.583177
	31.850000	-0.637974
	31.855000	-0.592847
	31.860000	-0.531603
	31.865000	-0.579954
	31.870000	-0.644421
	31.875000	-0.586401
	31.880000	-0.528380
	31.885000	-0.579954
	31.890000	-0.644421
	31.895000	-0.586401
	31.900000	-0.525157
	31.905000	-0.579954
	31.910000	-0.641198
	31.915000	-0.586401
	31.920000	-0.521933
	31.925000	-0.579954
	31.930000	-0.637974
	31.935000	-0.592847
	31.940000	-0.525157
	31.945000	-0.567060
	31.950000	-0.637974
	31.955000	-0.589624
	31.960000	-0.515487
	31.965000	-0.576730
	31.970000	-0.631528
	31.975000	-0.579954
	31.980000	-0.521933
	31.985000	-0.573507
	31.990000	-0.634751
	31.995000	-0.583177
	32.000000	-0.515487
	32.005000	-0.570284
	32.010000	-0.625081
	32.015000	-0.576730
	32.020000	-0.512263
	32.025000	-0.563837
	32.030000	-0.618634
	32.035000	-0.570284
	32.040000	-0.499370
	32.045000	-0.554167
	32.050000	-0.612187
	32.055000	-0.563837
	32.060000	-0.499370
	32.065000	-0.547720
	32.070000	-0.608964
	32.075000	-0.557390
	32.080000	-0.496147
	32.085000	-0.550944
	32.090000	-0.608964
	32.095000	-0.554167
	32.100000	-0.499370
	32.105000	-0.554167
	32.110000	-0.602517
	32.115000	-0.554167
	32.120000	-0.492923
	32.125000	-0.538050
	32.130000	-0.599294
	32.135000	-0.547720
	32.140000	-0.489700
	32.145000	-0.541274
	32.150000	-0.599294
	32.155000	-0.554167
	32.160000	-0.483253
	32.165000	-0.538050
	32.170000	-0.596071
	32.175000	-0.544497
	32.180000	-0.489700
	32.185000	-0.531603
	32.190000	-0.592847
	32.195000	-0.547720
	32.200000	-0.486476
	32.205000	-0.541274
	32.210000	-0.596071
	32.215000	-0.538050
	32.220000	-0.486476
	32.225000	-0.541274
	32.230000	-0.605741
	32.235000	-0.547720
	32.240000	-0.502593
	32.245000	-0.544497
	32.250000	-0.605741
	32.255000	-0.554167
	32.260000	-0.496147
	32.265000	-0.541274
	32.270000	-0.605741
	32.275000	-0.550944
	32.280000	-0.486476
	32.285000	-0.528380
	32.290000	-0.583177
	32.295000	-0.528380
	32.300000	-0.463913
	32.305000	-0.512263
	32.310000	-0.563837
	32.315000	-0.512263
	32.320000	-0.447796
	32.325000	-0.486476
	32.330000	-0.528380
	32.335000	-0.476806
	32.340000	-0.412339
	32.345000	-0.454243
	32.350000	-0.505817
	32.355000	-0.444573
	32.360000	-0.380106
	32.365000	-0.425233
	32.370000	-0.473583
	32.375000	-0.418786
	32.380000	-0.354319
	32.385000	-0.389776
	32.390000	-0.441349
	32.395000	-0.386552
	32.400000	-0.325308
	32.405000	-0.373659
	32.410000	-0.422009
	32.415000	-0.367212
	32.420000	-0.309192
	32.425000	-0.354319
	32.430000	-0.405892
	32.435000	-0.357542
	32.440000	-0.289852
	32.445000	-0.334979
	32.450000	-0.392999
	32.455000	-0.344649
	32.460000	-0.280181
	32.465000	-0.322085
	32.470000	-0.376882
	32.475000	-0.328532
	32.480000	-0.267288
	32.485000	-0.318862
	32.490000	-0.367212
	32.495000	-0.322085
	32.500000	-0.264065
	32.505000	-0.318862
	32.510000	-0.376882
	32.515000	-0.331755
	32.520000	-0.276958
	32.525000	-0.322085
	32.530000	-0.389776
	32.535000	-0.341425
	32.540000	-0.289852
	32.545000	-0.338202
	32.550000	-0.399446
	32.555000	-0.363989
	32.560000	-0.315638
	32.565000	-0.367212
	32.570000	-0.428456
	32.575000	-0.386552
	32.580000	-0.331755
	32.585000	-0.380106
	32.590000	-0.444573
	32.595000	-0.399446
	32.600000	-0.341425
	32.605000	-0.383329
	32.610000	-0.451019
	32.615000	-0.399446
	32.620000	-0.338202
	32.625000	-0.383329
	32.630000	-0.451019
	32.635000	-0.396222
	32.640000	-0.341425
	32.645000	-0.383329
	32.650000	-0.434903
	32.655000	-0.380106
	32.660000	-0.322085
	32.665000	-0.357542
	32.670000	-0.402669
	32.675000	-0.347872
	32.680000	-0.293075
	32.685000	-0.318862
	32.690000	-0.363989
	32.695000	-0.318862
	32.700000	-0.247948
	32.705000	-0.296298
	32.710000	-0.341425
	32.715000	-0.293075
	32.720000	-0.235054
	32.725000	-0.276958
	32.730000	-0.351095
	32.735000	-0.305968
	32.740000	-0.247948
	32.745000	-0.302745
	32.750000	-0.360765
	32.755000	-0.328532
	32.760000	-0.267288
	32.765000	-0.325308
	32.770000	-0.389776
	32.775000	-0.347872
	32.780000	-0.296298
	32.785000	-0.347872
	32.790000	-0.412339
	32.795000	-0.370436
	32.800000	-0.322085
	32.805000	-0.376882
	32.810000	-0.438126
	32.815000	-0.392999
	32.820000	-0.338202
	32.825000	-0.386552
	32.830000	-0.451019
	32.835000	-0.402669
	32.840000	-0.351095
	32.845000	-0.396222
	32.850000	-0.460690
	32.855000	-0.418786
	32.860000	-0.360765
	32.865000	-0.412339
	32.870000	-0.467136
	32.875000	-0.422009
	32.880000	-0.370436
	32.885000	-0.415563
	32.890000	-0.476806
	32.895000	-0.431679
	32.900000	-0.386552
	32.905000	-0.428456
	32.910000	-0.489700
	32.915000	-0.451019
	32.920000	-0.402669
	32.925000	-0.447796
	32.930000	-0.509040
	32.935000	-0.467136
	32.940000	-0.409116
	32.945000	-0.460690
	32.950000	-0.521933
	32.955000	-0.486476
	32.960000	-0.425233
	32.965000	-0.483253
	32.970000	-0.547720
	32.975000	-0.515487
	32.980000	-0.460690
	32.985000	-0.499370
	32.990000	-0.573507
	32.995000	-0.534827
	33.000000	-0.486476
	33.005000	-0.538050
	33.010000	-0.605741
	33.015000	-0.570284
	33.020000	-0.509040
	33.025000	-0.560614
	33.030000	-0.634751
	33.035000	-0.589624
	33.040000	-0.544497
	33.045000	-0.596071
	33.050000	-0.666985
	33.055000	-0.634751
	33.060000	-0.579954
	33.065000	-0.634751
	33.070000	-0.695995
	33.075000	-0.657314
	33.080000	-0.602517
	33.085000	-0.654091
	33.090000	-0.718558
	33.095000	-0.660538
	33.100000	-0.618634
	33.105000	-0.666985
	33.110000	-0.737898
	33.115000	-0.689548
	33.120000	-0.628304
	33.125000	-0.683101
	33.130000	-0.747569
	33.135000	-0.699218
	33.140000	-0.644421
	33.145000	-0.692771
	33.150000	-0.750792
	33.155000	-0.705665
	33.160000	-0.644421
	33.165000	-0.692771
	33.170000	-0.754015
	33.175000	-0.708888
	33.180000	-0.647644
	33.185000	-0.692771
	33.190000	-0.757239
	33.195000	-0.708888
	33.200000	-0.650868
	33.205000	-0.699218
	33.210000	-0.760462
	33.215000	-0.712112
	33.220000	-0.654091
	33.225000	-0.705665
	33.230000	-0.763685
	33.235000	-0.712112
	33.240000	-0.654091
	33.245000	-0.702441
	33.250000	-0.766909
	33.255000	-0.721782
	33.260000	-0.660538
	33.265000	-0.705665
	33.270000	-0.766909
	33.275000	-0.718558
	33.280000	-0.660538
	33.285000	-0.708888
	33.290000	-0.766909
	33.295000	-0.721782
	33.300000	-0.660538
	33.305000	-0.702441
	33.310000	-0.760462
	33.315000	-0.721782
	33.320000	-0.654091
	33.325000	-0.708888
	33.330000	-0.763685
	33.335000	-0.715335
	33.340000	-0.660538
	33.345000	-0.705665
	33.350000	-0.757239
	33.355000	-0.725005
	33.360000	-0.660538
	33.365000	-0.705665
	33.370000	-0.760462
	33.375000	-0.715335
	33.380000	-0.654091
	33.385000	-0.699218
	33.390000	-0.763685
	33.395000	-0.718558
	33.400000	-0.650868
	33.405000	-0.695995
	33.410000	-0.760462
	33.415000	-0.712112
	33.420000	-0.650868
	33.425000	-0.695995
	33.430000	-0.760462
	33.435000	-0.708888
	33.440000	-0.644421
	33.445000	-0.689548
	33.450000	-0.754015
	33.455000	-0.705665
	33.460000	-0.644421
	33.465000	-0.689548
	33.470000	-0.747569
	33.475000	-0.705665
	33.480000	-0.644421
	33.485000	-0.683101
	33.490000	-0.750792
	33.495000	-0.705665
	33.500000	-0.641198
	33.505000	-0.686325
	33.510000	-0.744345
	33.515000	-0.695995
	33.520000	-0.637974
	33.525000	-0.679878
	33.530000	-0.744345
	33.535000	-0.695995
	33.540000	-0.631528
	33.545000	-0.673431
	33.550000	-0.741122
	33.555000	-0.692771
	33.560000	-0.625081
	33.565000	-0.673431
	33.570000	-0.731452
	33.575000	-0.686325
	33.580000	-0.628304
	33.585000	-0.673431
	33.590000	-0.731452
	33.595000	-0.686325
	33.600000	-0.618634
	33.605000	-0.676655
	33.610000	-0.728228
	33.615000	-0.683101
	33.620000	-0.621858
	33.625000	-0.660538
	33.630000	-0.728228
	33.635000	-0.683101
	33.640000	-0.615411
	33.645000	-0.666985
	33.650000	-0.731452
	33.655000	-0.679878
	33.660000	-0.612187
	33.665000	-0.663761
	33.670000	-0.721782
	33.675000	-0.679878
	33.680000	-0.618634
	33.685000	-0.660538
	33.690000	-0.721782
	33.695000	-0.676655
	33.700000	-0.615411
	33.705000	-0.663761
	33.710000	-0.721782
	33.715000	-0.670208
	33.720000	-0.605741
	33.725000	-0.654091
	33.730000	-0.718558
	33.735000	-0.666985
	33.740000	-0.612187
	33.745000	-0.654091
	33.750000	-0.718558
	33.755000	-0.663761
	33.760000	-0.605741
	33.765000	-0.654091
	33.770000	-0.712112
	33.775000	-0.663761
	33.780000	-0.599294
	33.785000	-0.650868
	33.790000	-0.712112
	33.795000	-0.660538
	33.800000	-0.599294
	33.805000	-0.644421
	33.810000	-0.708888
	33.815000	-0.663761
	33.820000	-0.599294
	33.825000	-0.647644
	33.830000	-0.705665
	33.835000	-0.663761
	33.840000	-0.605741
	33.845000	-0.647644
	33.850000	-0.705665
	33.855000	-0.660538
	33.860000	-0.599294
	33.865000	-0.644421
	33.870000	-0.708888
	33.875000	-0.650868
	33.880000	-0.599294
	33.885000	-0.644421
	33.890000	-0.705665
	33.895000	-0.654091
	33.900000	-0.596071
	33.905000	-0.644421
	33.910000	-0.699218
	33.915000	-0.657314
	33.920000	-0.592847
	33.925000	-0.641198
	33.930000	-0.705665
	33.935000	-0.657314
	33.940000	-0.592847
	33.945000	-0.641198
	33.950000	-0.702441
	33.955000	-0.657314
	33.960000	-0.596071
	33.965000	-0.641198
	33.970000	-0.702441
	33.975000	-0.657314
	33.980000	-0.589624
	33.985000	-0.641198
	33.990000	-0.708888
	33.995000	-0.660538
	34.000000	-0.592847
	34.005000	-0.641198
	34.010000	-0.702441
	34.015000	-0.660538
	34.020000	-0.599294
	34.025000	-0.641198
	34.030000	-0.702441
	34.035000	-0.660538
	34.040000	-0.596071
	34.045000	-0.641198
	34.050000	-0.702441
	34.055000	-0.663761
	34.060000	-0.589624
	34.065000	-0.644421
	34.070000	-0.702441
	34.075000	-0.660538
	34.080000	-0.596071
	34.085000	-0.637974
	34.090000	-0.705665
	34.095000	-0.654091
	34.100000	-0.596071
	34.105000	-0.647644
	34.110000	-0.705665
	34.115000	-0.654091
	34.120000	-0.589624
	34.125000	-0.637974
	34.130000	-0.708888
	34.135000	-0.654091
	34.140000	-0.589624
	34.145000	-0.644421
	34.150000	-0.695995
	34.155000	-0.657314
	34.160000	-0.586401
	34.165000	-0.637974
	34.170000	-0.699218
	34.175000	-0.654091
	34.180000	-0.592847
	34.185000	-0.637974
	34.190000	-0.705665
	34.195000	-0.650868
	34.200000	-0.592847
	34.205000	-0.631528
	34.210000	-0.699218
	34.215000	-0.650868
	34.220000	-0.589624
	34.225000	-0.634751
	34.230000	-0.702441
	34.235000	-0.650868
	34.240000	-0.592847
	34.245000	-0.631528
	34.250000	-0.699218
	34.255000	-0.650868
	34.260000	-0.586401
	34.265000	-0.634751
	34.270000	-0.689548
	34.275000	-0.654091
	34.280000	-0.592847
	34.285000	-0.631528
	34.290000	-0.699218
	34.295000	-0.654091
	34.300000	-0.583177
	34.305000	-0.631528
	34.310000	-0.699218
	34.315000	-0.650868
	34.320000	-0.586401
	34.325000	-0.625081
	34.330000	-0.695995
	34.335000	-0.654091
	34.340000	-0.579954
	34.345000	-0.628304
	34.350000	-0.695995
	34.355000	-0.647644
	34.360000	-0.586401
	34.365000	-0.631528
	34.370000	-0.695995
	34.375000	-0.650868
	34.380000	-0.583177
	34.385000	-0.621858
	34.390000	-0.695995
	34.395000	-0.644421
	34.400000	-0.579954
	34.405000	-0.625081
	34.410000	-0.692771
	34.415000	-0.650868
	34.420000	-0.583177
	34.425000	-0.625081
	34.430000	-0.692771
	34.435000	-0.650868
	34.440000	-0.579954
	34.445000	-0.628304
	34.450000	-0.695995
	34.455000	-0.641198
	34.460000	-0.573507
	34.465000	-0.621858
	34.470000	-0.689548
	34.475000	-0.647644
	34.480000	-0.583177
	34.485000	-0.621858
	34.490000	-0.689548
	34.495000	-0.644421
	34.500000	-0.579954
	34.505000	-0.621858
	34.510000	-0.683101
	34.515000	-0.650868
	34.520000	-0.570284
	34.525000	-0.621858
	34.530000	-0.689548
	34.535000	-0.644421
	34.540000	-0.579954
	34.545000	-0.621858
	34.550000	-0.692771
	34.555000	-0.641198
	34.560000	-0.570284
	34.565000	-0.625081
	34.570000	-0.679878
	34.575000	-0.641198
	34.580000	-0.576730
	34.585000	-0.621858
	34.590000	-0.683101
	34.595000	-0.641198
	34.600000	-0.567060
	34.605000	-0.618634
	34.610000	-0.683101
	34.615000	-0.634751
	34.620000	-0.576730
	34.625000	-0.618634
	34.630000	-0.683101
	34.635000	-0.634751
	34.640000	-0.576730
	34.645000	-0.615411
	34.650000	-0.683101
	34.655000	-0.637974
	34.660000	-0.573507
	34.665000	-0.615411
	34.670000	-0.683101
	34.675000	-0.637974
	34.680000	-0.570284
	34.685000	-0.615411
	34.690000	-0.686325
	34.695000	-0.641198
	34.700000	-0.570284
	34.705000	-0.618634
	34.710000	-0.683101
	34.715000	-0.637974
	34.720000	-0.579954
	34.725000	-0.615411
	34.730000	-0.686325
	34.735000	-0.637974
	34.740000	-0.576730
	34.745000	-0.625081
	34.750000	-0.683101
	34.755000	-0.637974
	34.760000	-0.573507
	34.765000	-0.625081
	34.770000	-0.679878
	34.775000	-0.637974
	34.780000	-0.573507
	34.785000	-0.615411
	34.790000	-0.679878
	34.795000	-0.644421
	34.800000	-0.567060
	34.805000	-0.615411
	34.810000	-0.683101
	34.815000	-0.647644
	34.820000	-0.570284
	34.825000	-0.615411
	34.830000	-0.676655
	34.835000	-0.637974
	34.840000	-0.573507
	34.845000	-0.621858
	34.850000	-0.686325
	34.855000	-0.637974
	34.860000	-0.573507
	34.865000	-0.615411
	34.870000	-0.686325
	34.875000	-0.641198
	34.880000	-0.570284
	34.885000	-0.612187
	34.890000	-0.679878
	34.895000	-0.631528
	34.900000	-0.563837
	34.905000	-0.602517
	34.910000	-0.683101
	34.915000	-0.637974
	34.920000	-0.570284
	34.925000	-0.605741
	34.930000	-0.683101
	34.935000	-0.634751
	34.940000	-0.567060
	34.945000	-0.615411
	34.950000	-0.679878
	34.955000	-0.631528
	34.960000	-0.570284
	34.965000	-0.612187
	34.970000	-0.676655
	34.975000	-0.641198
	34.980000	-0.567060
	34.985000	-0.608964
	34.990000	-0.686325
	34.995000	-0.634751
	35.000000	-0.570284
	35.005000	-0.605741
	35.010000	-0.670208
	35.015000	-0.631528
	35.020000	-0.560614
	35.025000	-0.608964
	35.030000	-0.673431
	35.035000	-0.631528
	35.040000	-0.567060
	35.045000	-0.618634
	35.050000	-0.676655
	35.055000	-0.631528
	35.060000	-0.567060
	35.065000	-0.612187
	35.070000	-0.676655
	35.075000	-0.634751
	35.080000	-0.567060
	35.085000	-0.608964
	35.090000	-0.676655
	35.095000	-0.625081
	35.100000	-0.570284
	35.105000	-0.612187
	35.110000	-0.676655
	35.115000	-0.628304
	35.120000	-0.570284
	35.125000	-0.612187
	35.130000	-0.676655
	35.135000	-0.631528
	35.140000	-0.563837
	35.145000	-0.602517
	35.150000	-0.676655
	35.155000	-0.631528
	35.160000	-0.563837
	35.165000	-0.602517
	35.170000	-0.670208
	35.175000	-0.628304
	35.180000	-0.563837
	35.185000	-0.605741
	35.190000	-0.670208
	35.195000	-0.621858
	35.200000	-0.563837
	35.205000	-0.602517
	35.210000	-0.673431
	35.215000	-0.631528
	35.220000	-0.563837
	35.225000	-0.605741
	35.230000	-0.673431
	35.235000	-0.631528
	35.240000	-0.567060
	35.245000	-0.608964
	35.250000	-0.673431
	35.255000	-0.628304
	35.260000	-0.563837
	35.265000	-0.608964
	35.270000	-0.673431
	35.275000	-0.631528
	35.280000	-0.567060
	35.285000	-0.602517
	35.290000	-0.673431
	35.295000	-0.631528
	35.300000	-0.563837
	35.305000	-0.608964
	35.310000	-0.673431
	35.315000	-0.631528
	35.320000	-0.563837
	35.325000	-0.605741
	35.330000	-0.676655
	35.335000	-0.628304
	35.340000	-0.563837
	35.345000	-0.605741
	35.350000	-0.679878
	35.355000	-0.631528
	35.360000	-0.573507
	35.365000	-0.608964
	35.370000	-0.676655
	35.375000	-0.631528
	35.380000	-0.563837
	35.385000	-0.605741
	35.390000	-0.679878
	35.395000	-0.631528
	35.400000	-0.567060
	35.405000	-0.608964
	35.410000	-0.679878
	35.415000	-0.637974
	35.420000	-0.567060
	35.425000	-0.608964
	35.430000	-0.676655
	35.435000	-0.631528
	35.440000	-0.567060
	35.445000	-0.612187
	35.450000	-0.683101
	35.455000	-0.628304
	35.460000	-0.567060
	35.465000	-0.612187
	35.470000	-0.679878
	35.475000	-0.634751
	35.480000	-0.570284
	35.485000	-0.612187
	35.490000	-0.679878
	35.495000	-0.641198
	35.500000	-0.570284
	35.505000	-0.608964
	35.510000	-0.679878
	35.515000	-0.634751
	35.520000	-0.570284
	35.525000	-0.615411
	35.530000	-0.676655
	35.535000	-0.637974
	35.540000	-0.567060
	35.545000	-0.605741
	35.550000	-0.683101
	35.555000	-0.637974
	35.560000	-0.570284
	35.565000	-0.612187
	35.570000	-0.679878
	35.575000	-0.641198
	35.580000	-0.573507
	35.585000	-0.615411
	35.590000	-0.683101
	35.595000	-0.641198
	35.600000	-0.573507
	35.605000	-0.612187
	35.610000	-0.689548
	35.615000	-0.641198
	35.620000	-0.570284
	35.625000	-0.618634
	35.630000	-0.679878
	35.635000	-0.641198
	35.640000	-0.570284
	35.645000	-0.612187
	35.650000	-0.686325
	35.655000	-0.644421
	35.660000	-0.579954
	35.665000	-0.618634
	35.670000	-0.686325
	35.675000	-0.641198
	35.680000	-0.573507
	35.685000	-0.615411
	35.690000	-0.683101
	35.695000	-0.631528
	35.700000	-0.570284
	35.705000	-0.618634
	35.710000	-0.686325
	35.715000	-0.644421
	35.720000	-0.567060
	35.725000	-0.615411
	35.730000	-0.676655
	35.735000	-0.641198
	35.740000	-0.573507
	35.745000	-0.608964
	35.750000	-0.686325
	35.755000	-0.641198
	35.760000	-0.570284
	35.765000	-0.615411
	35.770000	-0.686325
	35.775000	-0.637974
	35.780000	-0.576730
	35.785000	-0.608964
	35.790000	-0.679878
	35.795000	-0.634751
	35.800000	-0.573507
	35.805000	-0.605741
	35.810000	-0.683101
	35.815000	-0.631528
	35.820000	-0.570284
	35.825000	-0.612187
	35.830000	-0.683101
	35.835000	-0.634751
	35.840000	-0.573507
	35.845000	-0.608964
	35.850000	-0.683101
	35.855000	-0.634751
	35.860000	-0.570284
	35.865000	-0.612187
	35.870000	-0.686325
	35.875000	-0.637974
	35.880000	-0.570284
	35.885000	-0.605741
	35.890000	-0.679878
	35.895000	-0.637974
	35.900000	-0.570284
	35.905000	-0.615411
	35.910000	-0.683101
	35.915000	-0.637974
	35.920000	-0.560614
	35.925000	-0.615411
	35.930000	-0.676655
	35.935000	-0.634751
	35.940000	-0.570284
	35.945000	-0.612187
	35.950000	-0.676655
	35.955000	-0.637974
	35.960000	-0.567060
	35.965000	-0.612187
	35.970000	-0.676655
	35.975000	-0.634751
	35.980000	-0.573507
	35.985000	-0.605741
	35.990000	-0.683101
	35.995000	-0.631528
	36.000000	-0.570284
	36.005000	-0.605741
	36.010000	-0.679878
	36.015000	-0.641198
	36.020000	-0.567060
	36.025000	-0.608964
	36.030000	-0.679878
	36.035000	-0.637974
	36.040000	-0.570284
	36.045000	-0.612187
	36.050000	-0.679878
	36.055000	-0.637974
	36.060000	-0.570284
	36.065000	-0.618634
	36.070000	-0.679878
	36.075000	-0.641198
	36.080000	-0.573507
	36.085000	-0.612187
	36.090000	-0.683101
	36.095000	-0.634751
	36.100000	-0.576730
	36.105000	-0.618634
	36.110000	-0.686325
	36.115000	-0.634751
	36.120000	-0.576730
	36.125000	-0.618634
	36.130000	-0.689548
	36.135000	-0.641198
	36.140000	-0.576730
	36.145000	-0.615411
	36.150000	-0.686325
	36.155000	-0.644421
	36.160000	-0.576730
	36.165000	-0.618634
	36.170000	-0.686325
	36.175000	-0.650868
	36.180000	-0.579954
	36.185000	-0.615411
	36.190000	-0.686325
	36.195000	-0.644421
	36.200000	-0.579954
	36.205000	-0.615411
	36.210000	-0.683101
	36.215000	-0.644421
	36.220000	-0.579954
	36.225000	-0.618634
	36.230000	-0.683101
	36.235000	-0.644421
	36.240000	-0.576730
	36.245000	-0.618634
	36.250000	-0.686325
	36.255000	-0.641198
	36.260000	-0.579954
	36.265000	-0.621858
	36.270000	-0.683101
	36.275000	-0.647644
	36.280000	-0.576730
	36.285000	-0.625081
	36.290000	-0.689548
	36.295000	-0.647644
	36.300000	-0.576730
	36.305000	-0.621858
	36.310000	-0.689548
	36.315000	-0.650868
	36.320000	-0.576730
	36.325000	-0.625081
	36.330000	-0.692771
	36.335000	-0.650868
	36.340000	-0.579954
	36.345000	-0.621858
	36.350000	-0.692771
	36.355000	-0.657314
	36.360000	-0.583177
	36.365000	-0.621858
	36.370000	-0.695995
	36.375000	-0.647644
	36.380000	-0.583177
	36.385000	-0.628304
	36.390000	-0.695995
	36.395000	-0.650868
	36.400000	-0.583177
	36.405000	-0.625081
	36.410000	-0.689548
	36.415000	-0.654091
	36.420000	-0.583177
	36.425000	-0.631528
	36.430000	-0.692771
	36.435000	-0.663761
	36.440000	-0.583177
	36.445000	-0.625081
	36.450000	-0.699218
	36.455000	-0.657314
	36.460000	-0.579954
	36.465000	-0.628304
	36.470000	-0.695995
	36.475000	-0.657314
	36.480000	-0.583177
	36.485000	-0.625081
	36.490000	-0.695995
	36.495000	-0.650868
	36.500000	-0.586401
	36.505000	-0.625081
	36.510000	-0.695995
	36.515000	-0.654091
	36.520000	-0.583177
	36.525000	-0.625081
	36.530000	-0.692771
	36.535000	-0.654091
	36.540000	-0.589624
	36.545000	-0.628304
	36.550000	-0.689548
	36.555000	-0.654091
	36.560000	-0.583177
	36.565000	-0.621858
	36.570000	-0.699218
	36.575000	-0.650868
	36.580000	-0.583177
	36.585000	-0.621858
	36.590000	-0.689548
	36.595000	-0.654091
	36.600000	-0.583177
	36.605000	-0.628304
	36.610000	-0.692771
	36.615000	-0.650868
	36.620000	-0.579954
	36.625000	-0.618634
	36.630000	-0.695995
	36.635000	-0.654091
	36.640000	-0.576730
	36.645000	-0.625081
	36.650000	-0.692771
	36.655000	-0.650868
	36.660000	-0.583177
	36.665000	-0.615411
	36.670000	-0.686325
	36.675000	-0.650868
	36.680000	-0.579954
	36.685000	-0.621858
	36.690000	-0.686325
	36.695000	-0.647644
	36.700000	-0.579954
	36.705000	-0.612187
	36.710000	-0.689548
	36.715000	-0.647644
	36.720000	-0.573507
	36.725000	-0.618634
	36.730000	-0.683101
	36.735000	-0.644421
	36.740000	-0.576730
	36.745000	-0.618634
	36.750000	-0.686325
	36.755000	-0.650868
	36.760000	-0.570284
	36.765000	-0.612187
	36.770000	-0.686325
	36.775000	-0.641198
	36.780000	-0.576730
	36.785000	-0.612187
	36.790000	-0.695995
	36.795000	-0.637974
	36.800000	-0.579954
	36.805000	-0.612187
	36.810000	-0.689548
	36.815000	-0.637974
	36.820000	-0.573507
	36.825000	-0.612187
	36.830000	-0.679878
	36.835000	-0.641198
	36.840000	-0.573507
	36.845000	-0.612187
	36.850000	-0.689548
	36.855000	-0.644421
	36.860000	-0.570284
	36.865000	-0.615411
	36.870000	-0.689548
	36.875000	-0.654091
	36.880000	-0.570284
	36.885000	-0.615411
	36.890000	-0.692771
	36.895000	-0.641198
	36.900000	-0.570284
	36.905000	-0.615411
	36.910000	-0.689548
	36.915000	-0.641198
	36.920000	-0.570284
	36.925000	-0.618634
	36.930000	-0.689548
	36.935000	-0.637974
	36.940000	-0.576730
	36.945000	-0.605741
	36.950000	-0.679878
	36.955000	-0.637974
	36.960000	-0.573507
	36.965000	-0.612187
	36.970000	-0.676655
	36.975000	-0.637974
	36.980000	-0.570284
	36.985000	-0.608964
	36.990000	-0.676655
	36.995000	-0.634751
	37.000000	-0.567060
	37.005000	-0.608964
	37.010000	-0.683101
	37.015000	-0.637974
	37.020000	-0.573507
	37.025000	-0.608964
	37.030000	-0.670208
	37.035000	-0.634751
	37.040000	-0.570284
	37.045000	-0.608964
	37.050000	-0.683101
	37.055000	-0.631528
	37.060000	-0.567060
	37.065000	-0.608964
	37.070000	-0.683101
	37.075000	-0.634751
	37.080000	-0.573507
	37.085000	-0.605741
	37.090000	-0.679878
	37.095000	-0.634751
	37.100000	-0.570284
	37.105000	-0.605741
	37.110000	-0.676655
	37.115000	-0.634751
	37.120000	-0.563837
	37.125000	-0.605741
	37.130000	-0.676655
	37.135000	-0.628304
	37.140000	-0.560614
	37.145000	-0.605741
	37.150000	-0.683101
	37.155000	-0.641198
	37.160000	-0.567060
	37.165000	-0.608964
	37.170000	-0.670208
	37.175000	-0.634751
	37.180000	-0.567060
	37.185000	-0.602517
	37.190000	-0.679878
	37.195000	-0.631528
	37.200000	-0.570284
	37.205000	-0.608964
	37.210000	-0.683101
	37.215000	-0.637974
	37.220000	-0.567060
	37.225000	-0.605741
	37.230000	-0.673431
	37.235000	-0.628304
	37.240000	-0.560614
	37.245000	-0.612187
	37.250000	-0.673431
	37.255000	-0.634751
	37.260000	-0.560614
	37.265000	-0.605741
	37.270000	-0.676655
	37.275000	-0.631528
	37.280000	-0.563837
	37.285000	-0.602517
	37.290000	-0.670208
	37.295000	-0.618634
	37.300000	-0.557390
	37.305000	-0.592847
	37.310000	-0.670208
	37.315000	-0.615411
	37.320000	-0.554167
	37.325000	-0.589624
	37.330000	-0.660538
	37.335000	-0.615411
	37.340000	-0.550944
	37.345000	-0.583177
	37.350000	-0.650868
	37.355000	-0.605741
	37.360000	-0.531603
	37.365000	-0.563837
	37.370000	-0.634751
	37.375000	-0.589624
	37.380000	-0.521933
	37.385000	-0.554167
	37.390000	-0.625081
	37.395000	-0.576730
	37.400000	-0.509040
	37.405000	-0.538050
	37.410000	-0.608964
	37.415000	-0.567060
	37.420000	-0.492923
	37.425000	-0.525157
	37.430000	-0.596071
	37.435000	-0.550944
	37.440000	-0.483253
	37.445000	-0.518710
	37.450000	-0.583177
	37.455000	-0.547720
	37.460000	-0.473583
	37.465000	-0.502593
	37.470000	-0.570284
	37.475000	-0.531603
	37.480000	-0.470360
	37.485000	-0.505817
	37.490000	-0.567060
	37.495000	-0.528380
	37.500000	-0.460690
	37.505000	-0.502593
	37.510000	-0.560614
	37.515000	-0.518710
	37.520000	-0.447796
	37.525000	-0.486476
	37.530000	-0.550944
	37.535000	-0.509040
	37.540000	-0.441349
	37.545000	-0.470360
	37.550000	-0.550944
	37.555000	-0.502593
	37.560000	-0.431679
	37.565000	-0.476806
	37.570000	-0.538050
	37.575000	-0.496147
	37.580000	-0.425233
	37.585000	-0.467136
	37.590000	-0.531603
	37.595000	-0.489700
	37.600000	-0.425233
	37.605000	-0.463913
	37.610000	-0.528380
	37.615000	-0.483253
	37.620000	-0.418786
	37.625000	-0.457466
	37.630000	-0.528380
	37.635000	-0.489700
	37.640000	-0.425233
	37.645000	-0.457466
	37.650000	-0.518710
	37.655000	-0.486476
	37.660000	-0.422009
	37.665000	-0.451019
	37.670000	-0.518710
	37.675000	-0.483253
	37.680000	-0.418786
	37.685000	-0.457466
	37.690000	-0.528380
	37.695000	-0.489700
	37.700000	-0.428456
	37.705000	-0.460690
	37.710000	-0.531603
	37.715000	-0.492923
	37.720000	-0.434903
	37.725000	-0.467136
	37.730000	-0.538050
	37.735000	-0.499370
	37.740000	-0.441349
	37.745000	-0.476806
	37.750000	-0.550944
	37.755000	-0.509040
	37.760000	-0.447796
	37.765000	-0.486476
	37.770000	-0.554167
	37.775000	-0.528380
	37.780000	-0.457466
	37.785000	-0.502593
	37.790000	-0.560614
	37.795000	-0.534827
	37.800000	-0.467136
	37.805000	-0.502593
	37.810000	-0.573507
	37.815000	-0.538050
	37.820000	-0.476806
	37.825000	-0.509040
	37.830000	-0.586401
	37.835000	-0.547720
	37.840000	-0.476806
	37.845000	-0.515487
	37.850000	-0.586401
	37.855000	-0.547720
	37.860000	-0.483253
	37.865000	-0.521933
	37.870000	-0.583177
	37.875000	-0.550944
	37.880000	-0.483253
	37.885000	-0.515487
	37.890000	-0.583177
	37.895000	-0.550944
	37.900000	-0.480030
	37.905000	-0.518710
	37.910000	-0.586401
	37.915000	-0.547720
	37.920000	-0.480030
	37.925000	-0.528380
	37.930000	-0.586401
	37.935000	-0.544497
	37.940000	-0.483253
	37.945000	-0.525157
	37.950000	-0.592847
	37.955000	-0.550944
	37.960000	-0.486476
	37.965000	-0.521933
	37.970000	-0.592847
	37.975000	-0.554167
	37.980000	-0.480030
	37.985000	-0.512263
	37.990000	-0.586401
	37.995000	-0.550944
	38.000000	-0.486476
	38.005000	-0.528380
	38.010000	-0.583177
	38.015000	-0.554167
	38.020000	-0.492923
	38.025000	-0.528380
	38.030000	-0.592847
	38.035000	-0.557390
	38.040000	-0.489700
	38.045000	-0.534827
	38.050000	-0.596071
	38.055000	-0.563837
	38.060000	-0.496147
	38.065000	-0.531603
	38.070000	-0.599294
	38.075000	-0.563837
	38.080000	-0.499370
	38.085000	-0.544497
	38.090000	-0.612187
	38.095000	-0.579954
	38.100000	-0.518710
	38.105000	-0.560614
	38.110000	-0.631528
	38.115000	-0.599294
	38.120000	-0.534827
	38.125000	-0.570284
	38.130000	-0.644421
	38.135000	-0.599294
	38.140000	-0.538050
	38.145000	-0.583177
	38.150000	-0.644421
	38.155000	-0.605741
	38.160000	-0.534827
	38.165000	-0.570284
	38.170000	-0.637974
	38.175000	-0.589624
	38.180000	-0.525157
	38.185000	-0.554167
	38.190000	-0.618634
	38.195000	-0.570284
	38.200000	-0.489700
	38.205000	-0.521933
	38.210000	-0.583177
	38.215000	-0.534827
	38.220000	-0.454243
	38.225000	-0.486476
	38.230000	-0.541274
	38.235000	-0.489700
	38.240000	-0.412339
	38.245000	-0.441349
	38.250000	-0.492923
	38.255000	-0.444573
	38.260000	-0.367212
	38.265000	-0.389776
	38.270000	-0.454243
	38.275000	-0.396222
	38.280000	-0.318862
	38.285000	-0.351095
	38.290000	-0.405892
	38.295000	-0.357542
	38.300000	-0.276958
	38.305000	-0.309192
	38.310000	-0.373659
	38.315000	-0.331755
	38.320000	-0.276958
	38.325000	-0.325308
	38.330000	-0.405892
	38.335000	-0.363989
	38.340000	-0.312415
	38.345000	-0.357542
	38.350000	-0.431679
	38.355000	-0.392999
	38.360000	-0.341425
	38.365000	-0.392999
	38.370000	-0.467136
	38.375000	-0.438126
	38.380000	-0.392999
	38.385000	-0.434903
	38.390000	-0.512263
	38.395000	-0.489700
	38.400000	-0.425233
	38.405000	-0.470360
	38.410000	-0.547720
	38.415000	-0.505817
	38.420000	-0.454243
	38.425000	-0.480030
	38.430000	-0.547720
	38.435000	-0.505817
	38.440000	-0.441349
	38.445000	-0.467136
	38.450000	-0.528380
	38.455000	-0.483253
	38.460000	-0.412339
	38.465000	-0.434903
	38.470000	-0.483253
	38.475000	-0.431679
	38.480000	-0.344649
	38.485000	-0.367212
	38.490000	-0.415563
	38.495000	-0.367212
	38.500000	-0.283405
	38.505000	-0.299522
	38.510000	-0.344649
	38.515000	-0.289852
	38.520000	-0.209268
	38.525000	-0.235054
	38.530000	-0.283405
	38.535000	-0.238278
	38.540000	-0.170587
	38.545000	-0.196374
	38.550000	-0.257618
	38.555000	-0.222161
	38.560000	-0.160917
	38.565000	-0.199597
	38.570000	-0.264065
	38.575000	-0.231831
	38.580000	-0.170587
	38.585000	-0.215714
	38.590000	-0.286628
	38.595000	-0.257618
	38.600000	-0.193151
	38.605000	-0.247948
	38.610000	-0.318862
	38.615000	-0.296298
	38.620000	-0.231831
	38.625000	-0.280181
	38.630000	-0.354319
	38.635000	-0.322085
	38.640000	-0.260841
	38.645000	-0.305968
	38.650000	-0.376882
	38.655000	-0.347872
	38.660000	-0.283405
	38.665000	-0.315638
	38.670000	-0.386552
	38.675000	-0.347872
	38.680000	-0.293075
	38.685000	-0.318862
	38.690000	-0.386552
	38.695000	-0.357542
	38.700000	-0.289852
	38.705000	-0.331755
	38.710000	-0.386552
	38.715000	-0.354319
	38.720000	-0.296298
	38.725000	-0.331755
	38.730000	-0.396222
	38.735000	-0.357542
	38.740000	-0.296298
	38.745000	-0.334979
	38.750000	-0.399446
	38.755000	-0.363989
	38.760000	-0.305968
	38.765000	-0.338202
	38.770000	-0.405892
	38.775000	-0.373659
	38.780000	-0.315638
	38.785000	-0.354319
	38.790000	-0.425233
	38.795000	-0.399446
	38.800000	-0.334979
	38.805000	-0.380106
	38.810000	-0.447796
	38.815000	-0.415563
	38.820000	-0.363989
	38.825000	-0.399446
	38.830000	-0.463913
	38.835000	-0.438126
	38.840000	-0.373659
	38.845000	-0.422009
	38.850000	-0.492923
	38.855000	-0.457466
	38.860000	-0.402669
	38.865000	-0.434903
	38.870000	-0.509040
	38.875000	-0.467136
	38.880000	-0.415563
	38.885000	-0.454243
	38.890000	-0.521933
	38.895000	-0.489700
	38.900000	-0.425233
	38.905000	-0.473583
	38.910000	-0.534827
	38.915000	-0.505817
	38.920000	-0.441349
	38.925000	-0.483253
	38.930000	-0.554167
	38.935000	-0.515487
	38.940000	-0.457466
	38.945000	-0.499370
	38.950000	-0.563837
	38.955000	-0.531603
	38.960000	-0.463913
	38.965000	-0.505817
	38.970000	-0.573507
	38.975000	-0.538050
	38.980000	-0.476806
	38.985000	-0.518710
	38.990000	-0.589624
	38.995000	-0.550944
	39.000000	-0.492923
	39.005000	-0.534827
	39.010000	-0.599294
	39.015000	-0.557390
	39.020000	-0.499370
	39.025000	-0.541274
	39.030000	-0.608964
	39.035000	-0.576730
	39.040000	-0.505817
	39.045000	-0.547720
	39.050000	-0.615411
	39.055000	-0.576730
	39.060000	-0.515487
	39.065000	-0.554167
	39.070000	-0.615411
	39.075000	-0.579954
	39.080000	-0.515487
	39.085000	-0.547720
	39.090000	-0.625081
	39.095000	-0.586401
	39.100000	-0.515487
	39.105000	-0.547720
	39.110000	-0.615411
	39.115000	-0.579954
	39.120000	-0.515487
	39.125000	-0.547720
	39.130000	-0.608964
	39.135000	-0.573507
	39.140000	-0.509040
	39.145000	-0.541274
	39.150000	-0.602517
	39.155000	-0.563837
	39.160000	-0.502593
	39.165000	-0.531603
	39.170000	-0.589624
	39.175000	-0.554167
	39.180000	-0.483253
	39.185000	-0.521933
	39.190000	-0.583177
	39.195000	-0.547720
	39.200000	-0.470360
	39.205000	-0.515487
	39.210000	-0.573507
	39.215000	-0.531603
	39.220000	-0.467136
	39.225000	-0.499370
	39.230000	-0.567060
	39.235000	-0.525157
	39.240000	-0.460690
	39.245000	-0.499370
	39.250000	-0.567060
	39.255000	-0.521933
	39.260000	-0.463913
	39.265000	-0.489700
	39.270000	-0.557390
	39.275000	-0.512263
	39.280000	-0.457466
	39.285000	-0.489700
	39.290000	-0.557390
	39.295000	-0.518710
	39.300000	-0.454243
	39.305000	-0.489700
	39.310000	-0.554167
	39.315000	-0.521933
	39.320000	-0.451019
	39.325000	-0.489700
	39.330000	-0.550944
	39.335000	-0.518710
	39.340000	-0.447796
	39.345000	-0.489700
	39.350000	-0.550944
	39.355000	-0.521933
	39.360000	-0.454243
	39.365000	-0.492923
	39.370000	-0.557390
	39.375000	-0.515487
	39.380000	-0.454243
	39.385000	-0.492923
	39.390000	-0.563837
	39.395000	-0.528380
	39.400000	-0.460690
	39.405000	-0.489700
	39.410000	-0.560614
	39.415000	-0.528380
	39.420000	-0.463913
	39.425000	-0.499370
	39.430000	-0.560614
	39.435000	-0.528380
	39.440000	-0.460690
	39.445000	-0.496147
	39.450000	-0.567060
	39.455000	-0.528380
	39.460000	-0.467136
	39.465000	-0.502593
	39.470000	-0.570284
	39.475000	-0.534827
	39.480000	-0.473583
	39.485000	-0.509040
	39.490000	-0.573507
	39.495000	-0.534827
	39.500000	-0.470360
	39.505000	-0.509040
	39.510000	-0.570284
	39.515000	-0.534827
	39.520000	-0.476806
	39.525000	-0.505817
	39.530000	-0.573507
	39.535000	-0.528380
	39.540000	-0.463913
	39.545000	-0.505817
	39.550000	-0.567060
	39.555000	-0.525157
	39.560000	-0.463913
	39.565000	-0.499370
	39.570000	-0.560614
	39.575000	-0.521933
	39.580000	-0.460690
	39.585000	-0.486476
	39.590000	-0.547720
	39.595000	-0.521933
	39.600000	-0.454243
	39.605000	-0.489700
	39.610000	-0.547720
	39.615000	-0.509040
	39.620000	-0.431679
	39.625000	-0.473583
	39.630000	-0.541274
	39.635000	-0.502593
	39.640000	-0.438126
	39.645000	-0.463913
	39.650000	-0.525157
	39.655000	-0.492923
	39.660000	-0.422009
	39.665000	-0.457466
	39.670000	-0.518710
	39.675000	-0.476806
	39.680000	-0.412339
	39.685000	-0.451019
	39.690000	-0.512263
	39.695000	-0.473583
	39.700000	-0.405892
	39.705000	-0.444573
	39.710000	-0.509040
	39.715000	-0.467136
	39.720000	-0.402669
	39.725000	-0.438126
	39.730000	-0.502593
	39.735000	-0.463913
	39.740000	-0.402669
	39.745000	-0.431679
	39.750000	-0.496147
	39.755000	-0.457466
	39.760000	-0.399446
	39.765000	-0.441349
	39.770000	-0.502593
	39.775000	-0.463913
	39.780000	-0.402669
	39.785000	-0.434903
	39.790000	-0.502593
	39.795000	-0.470360
	39.800000	-0.405892
	39.805000	-0.447796
	39.810000	-0.505817
	39.815000	-0.470360
	39.820000	-0.405892
	39.825000	-0.444573
	39.830000	-0.512263
	39.835000	-0.473583
	39.840000	-0.412339
	39.845000	-0.454243
	39.850000	-0.512263
	39.855000	-0.480030
	39.860000	-0.418786
	39.865000	-0.460690
	39.870000	-0.521933
	39.875000	-0.483253
	39.880000	-0.425233
	39.885000	-0.463913
	39.890000	-0.521933
	39.895000	-0.486476
	39.900000	-0.425233
	39.905000	-0.467136
	39.910000	-0.525157
	39.915000	-0.499370
	39.920000	-0.431679
	39.925000	-0.470360
	39.930000	-0.538050
	39.935000	-0.499370
	39.940000	-0.441349
	39.945000	-0.480030
	39.950000	-0.534827
	39.955000	-0.505817
	39.960000	-0.447796
	39.965000	-0.483253
	39.970000	-0.541274
	39.975000	-0.509040
	39.980000	-0.441349
	39.985000	-0.486476
	39.990000	-0.544497
	39.995000	-0.505817
	40.000000	-0.451019
	40.005000	-0.489700
	40.010000	-0.547720
	40.015000	-0.515487
	40.020000	-0.454243
	40.025000	-0.483253
	40.030000	-0.544497
	40.035000	-0.512263
	40.040000	-0.451019
	40.045000	-0.489700
	40.050000	-0.550944
	40.055000	-0.509040
	40.060000	-0.451019
	40.065000	-0.486476
	40.070000	-0.550944
	40.075000	-0.512263
	40.080000	-0.454243
	40.085000	-0.486476
	40.090000	-0.544497
	40.095000	-0.512263
	40.100000	-0.447796
	40.105000	-0.480030
	40.110000	-0.538050
	40.115000	-0.496147
	40.120000	-0.425233
	40.125000	-0.454243
	40.130000	-0.518710
	40.135000	-0.470360
	40.140000	-0.405892
	40.145000	-0.438126
	40.150000	-0.492923
	40.155000	-0.451019
	40.160000	-0.386552
	40.165000	-0.412339
	40.170000	-0.473583
	40.175000	-0.434903
	40.180000	-0.370436
	40.185000	-0.405892
	40.190000	-0.463913
	40.195000	-0.425233
	40.200000	-0.360765
	40.205000	-0.392999
	40.210000	-0.457466
	40.215000	-0.415563
	40.220000	-0.360765
	40.225000	-0.399446
	40.230000	-0.457466
	40.235000	-0.425233
	40.240000	-0.363989
	40.245000	-0.399446
	40.250000	-0.457466
	40.255000	-0.425233
	40.260000	-0.373659
	40.265000	-0.409116
	40.270000	-0.467136
	40.275000	-0.434903
	40.280000	-0.376882
	40.285000	-0.422009
	40.290000	-0.480030
	40.295000	-0.444573
	40.300000	-0.389776
	40.305000	-0.422009
	40.310000	-0.476806
	40.315000	-0.451019
	40.320000	-0.389776
	40.325000	-0.428456
	40.330000	-0.492923
	40.335000	-0.460690
	40.340000	-0.402669
	40.345000	-0.441349
	40.350000	-0.499370
	40.355000	-0.460690
	40.360000	-0.412339
	40.365000	-0.447796
	40.370000	-0.502593
	40.375000	-0.476806
	40.380000	-0.415563
	40.385000	-0.454243
	40.390000	-0.515487
	40.395000	-0.476806
	40.400000	-0.425233
	40.405000	-0.454243
	40.410000	-0.518710
	40.415000	-0.486476
	40.420000	-0.428456
	40.425000	-0.457466
	40.430000	-0.521933
	40.435000	-0.492923
	40.440000	-0.425233
	40.445000	-0.470360
	40.450000	-0.528380
	40.455000	-0.492923
	40.460000	-0.428456
	40.465000	-0.467136
	40.470000	-0.525157
	40.475000	-0.499370
	40.480000	-0.431679
	40.485000	-0.480030
	40.490000	-0.531603
	40.495000	-0.499370
	40.500000	-0.438126
	40.505000	-0.473583
	40.510000	-0.534827
	40.515000	-0.499370
	40.520000	-0.438126
	40.525000	-0.480030
	40.530000	-0.544497
	40.535000	-0.502593
	40.540000	-0.438126
	40.545000	-0.486476
	40.550000	-0.541274
	40.555000	-0.499370
	40.560000	-0.451019
	40.565000	-0.480030
	40.570000	-0.544497
	40.575000	-0.505817
	40.580000	-0.447796
	40.585000	-0.489700
	40.590000	-0.544497
	40.595000	-0.505817
	40.600000	-0.457466
	40.605000	-0.486476
	40.610000	-0.544497
	40.615000	-0.515487
	40.620000	-0.454243
	40.625000	-0.489700
	40.630000	-0.550944
	40.635000	-0.515487
	40.640000	-0.451019
	40.645000	-0.492923
	40.650000	-0.547720
	40.655000	-0.515487
	40.660000	-0.457466
	40.665000	-0.486476
	40.670000	-0.550944
	40.675000	-0.515487
	40.680000	-0.457466
	40.685000	-0.489700
	40.690000	-0.550944
	40.695000	-0.515487
	40.700000	-0.457466
	40.705000	-0.492923
	40.710000	-0.550944
	40.715000	-0.515487
	40.720000	-0.457466
	40.725000	-0.496147
	40.730000	-0.560614
	40.735000	-0.518710
	40.740000	-0.460690
	40.745000	-0.492923
	40.750000	-0.557390
	40.755000	-0.518710
	40.760000	-0.463913
	40.765000	-0.492923
	40.770000	-0.557390
	40.775000	-0.525157
	40.780000	-0.463913
	40.785000	-0.496147
	40.790000	-0.560614
	40.795000	-0.525157
	40.800000	-0.460690
	40.805000	-0.502593
	40.810000	-0.557390
	40.815000	-0.521933
	40.820000	-0.470360
	40.825000	-0.496147
	40.830000	-0.563837
	40.835000	-0.528380
	40.840000	-0.467136
	40.845000	-0.505817
	40.850000	-0.567060
	40.855000	-0.528380
	40.860000	-0.470360
	40.865000	-0.512263
	40.870000	-0.563837
	40.875000	-0.534827
	40.880000	-0.467136
	40.885000	-0.512263
	40.890000	-0.563837
	40.895000	-0.531603
	40.900000	-0.470360
	40.905000	-0.509040
	40.910000	-0.567060
	40.915000	-0.538050
	40.920000	-0.476806
	40.925000	-0.505817
	40.930000	-0.567060
	40.935000	-0.534827
	40.940000	-0.476806
	40.945000	-0.509040
	40.950000	-0.570284
	40.955000	-0.528380
	40.960000	-0.476806
	40.965000	-0.509040
	40.970000	-0.573507
	40.975000	-0.534827
	40.980000	-0.480030
	40.985000	-0.509040
	40.990000	-0.576730
	40.995000	-0.528380
	41.000000	-0.470360
	41.005000	-0.512263
	41.010000	-0.573507
	41.015000	-0.528380
	41.020000	-0.473583
	41.025000	-0.505817
	41.030000	-0.570284
	41.035000	-0.528380
	41.040000	-0.473583
	41.045000	-0.512263
	41.050000	-0.570284
	41.055000	-0.531603
	41.060000	-0.480030
	41.065000	-0.502593
	41.070000	-0.570284
	41.075000	-0.528380
	41.080000	-0.463913
	41.085000	-0.515487
	41.090000	-0.573507
	41.095000	-0.528380
	41.100000	-0.473583
	41.105000	-0.509040
	41.110000	-0.573507
	41.115000	-0.531603
	41.120000	-0.467136
	41.125000	-0.515487
	41.130000	-0.570284
	41.135000	-0.534827
	41.140000	-0.473583
	41.145000	-0.509040
	41.150000	-0.573507
	41.155000	-0.528380
	41.160000	-0.473583
	41.165000	-0.518710
	41.170000	-0.576730
	41.175000	-0.528380
	41.180000	-0.473583
	41.185000	-0.505817
	41.190000	-0.570284
	41.195000	-0.528380
	41.200000	-0.467136
	41.205000	-0.512263
	41.210000	-0.576730
	41.215000	-0.531603
	41.220000	-0.470360
	41.225000	-0.512263
	41.230000	-0.570284
	41.235000	-0.538050
	41.240000	-0.473583
	41.245000	-0.515487
	41.250000	-0.573507
	41.255000	-0.541274
	41.260000	-0.476806
	41.265000	-0.512263
	41.270000	-0.567060
	41.275000	-0.534827
	41.280000	-0.473583
	41.285000	-0.509040
	41.290000	-0.570284
	41.295000	-0.534827
	41.300000	-0.473583
	41.305000	-0.509040
	41.310000	-0.567060
	41.315000	-0.528380
	41.320000	-0.476806
	41.325000	-0.509040
	41.330000	-0.563837
	41.335000	-0.531603
	41.340000	-0.473583
	41.345000	-0.512263
	41.350000	-0.567060
	41.355000	-0.531603
	41.360000	-0.473583
	41.365000	-0.515487
	41.370000	-0.567060
	41.375000	-0.531603
	41.380000	-0.470360
	41.385000	-0.515487
	41.390000	-0.563837
	41.395000	-0.531603
	41.400000	-0.470360
	41.405000	-0.509040
	41.410000	-0.567060
	41.415000	-0.525157
	41.420000	-0.467136
	41.425000	-0.505817
	41.430000	-0.563837
	41.435000	-0.525157
	41.440000	-0.470360
	41.445000	-0.515487
	41.450000	-0.573507
	41.455000	-0.531603
	41.460000	-0.470360
	41.465000	-0.512263
	41.470000	-0.570284
	41.475000	-0.531603
	41.480000	-0.480030
	41.485000	-0.509040
	41.490000	-0.567060
	41.495000	-0.528380
	41.500000	-0.473583
	41.505000	-0.512263
	41.510000	-0.570284
	41.515000	-0.534827
	41.520000	-0.473583
	41.525000	-0.515487
	41.530000	-0.570284
	41.535000	-0.538050
	41.540000	-0.476806
	41.545000	-0.509040
	41.550000	-0.570284
	41.555000	-0.531603
	41.560000	-0.476806
	41.565000	-0.515487
	41.570000	-0.576730
	41.575000	-0.534827
	41.580000	-0.473583
	41.585000	-0.515487
	41.590000	-0.570284
	41.595000	-0.531603
	41.600000	-0.476806
	41.605000	-0.515487
	41.610000	-0.567060
	41.615000	-0.521933
	41.620000	-0.470360
	41.625000	-0.509040
	41.630000	-0.570284
	41.635000	-0.531603
	41.640000	-0.476806
	41.645000	-0.515487
	41.650000	-0.570284
	41.655000	-0.531603
	41.660000	-0.463913
	41.665000	-0.512263
	41.670000	-0.563837
	41.675000	-0.528380
	41.680000	-0.473583
	41.685000	-0.505817
	41.690000	-0.563837
	41.695000	-0.528380
	41.700000	-0.467136
	41.705000	-0.505817
	41.710000	-0.560614
	41.715000	-0.521933
	41.720000	-0.467136
	41.725000	-0.509040
	41.730000	-0.567060
	41.735000	-0.518710
	41.740000	-0.463913
	41.745000	-0.499370
	41.750000	-0.563837
	41.755000	-0.525157
	41.760000	-0.467136
	41.765000	-0.512263
	41.770000	-0.560614
	41.775000	-0.521933
	41.780000	-0.463913
	41.785000	-0.496147
	41.790000	-0.557390
	41.795000	-0.518710
	41.800000	-0.457466
	41.805000	-0.502593
	41.810000	-0.557390
	41.815000	-0.518710
	41.820000	-0.463913
	41.825000	-0.505817
	41.830000	-0.557390
	41.835000	-0.521933
	41.840000	-0.460690
	41.845000	-0.496147
	41.850000	-0.560614
	41.855000	-0.521933
	41.860000	-0.463913
	41.865000	-0.502593
	41.870000	-0.560614
	41.875000	-0.521933
	41.880000	-0.460690
	41.885000	-0.502593
	41.890000	-0.563837
	41.895000	-0.521933
	41.900000	-0.457466
	41.905000	-0.512263
	41.910000	-0.567060
	41.915000	-0.525157
	41.920000	-0.467136
	41.925000	-0.505817
	41.930000	-0.567060
	41.935000	-0.528380
	41.940000	-0.463913
	41.945000	-0.505817
	41.950000	-0.573507
	41.955000	-0.528380
	41.960000	-0.467136
	41.965000	-0.518710
	41.970000	-0.570284
	41.975000	-0.534827
	41.980000	-0.463913
	41.985000	-0.515487
	41.990000	-0.579954
	41.995000	-0.531603
	42.000000	-0.473583
	42.005000	-0.518710
	42.010000	-0.567060
	42.015000	-0.531603
	42.020000	-0.476806
	42.025000	-0.512263
	42.030000	-0.579954
	42.035000	-0.534827
	42.040000	-0.480030
	42.045000	-0.521933
	42.050000	-0.576730
	42.055000	-0.541274
	42.060000	-0.473583
	42.065000	-0.518710
	42.070000	-0.576730
	42.075000	-0.538050
	42.080000	-0.473583
	42.085000	-0.515487
	42.090000	-0.579954
	42.095000	-0.538050
	42.100000	-0.473583
	42.105000	-0.521933
	42.110000	-0.573507
	42.115000	-0.534827
	42.120000	-0.473583
	42.125000	-0.512263
	42.130000	-0.576730
	42.135000	-0.541274
	42.140000	-0.476806
	42.145000	-0.521933
	42.150000	-0.576730
	42.155000	-0.534827
	42.160000	-0.476806
	42.165000	-0.525157
	42.170000	-0.579954
	42.175000	-0.541274
	42.180000	-0.492923
	42.185000	-0.528380
	42.190000	-0.586401
	42.195000	-0.550944
	42.200000	-0.489700
	42.205000	-0.538050
	42.210000	-0.602517
	42.215000	-0.557390
	42.220000	-0.509040
	42.225000	-0.544497
	42.230000	-0.615411
	42.235000	-0.573507
	42.240000	-0.518710
	42.245000	-0.557390
	42.250000	-0.618634
	42.255000	-0.583177
	42.260000	-0.528380
	42.265000	-0.573507
	42.270000	-0.625081
	42.275000	-0.596071
	42.280000	-0.525157
	42.285000	-0.573507
	42.290000	-0.628304
	42.295000	-0.596071
	42.300000	-0.528380
	42.305000	-0.570284
	42.310000	-0.631528
	42.315000	-0.589624
	42.320000	-0.534827
	42.325000	-0.573507
	42.330000	-0.631528
	42.335000	-0.592847
	42.340000	-0.534827
	42.345000	-0.573507
	42.350000	-0.634751
	42.355000	-0.596071
	42.360000	-0.531603
	42.365000	-0.573507
	42.370000	-0.634751
	42.375000	-0.596071
	42.380000	-0.534827
	42.385000	-0.573507
	42.390000	-0.637974
	42.395000	-0.592847
	42.400000	-0.534827
	42.405000	-0.576730
	42.410000	-0.631528
	42.415000	-0.589624
	42.420000	-0.538050
	42.425000	-0.576730
	42.430000	-0.631528
	42.435000	-0.596071
	42.440000	-0.528380
	42.445000	-0.576730
	42.450000	-0.634751
	42.455000	-0.596071
	42.460000	-0.531603
	42.465000	-0.576730
	42.470000	-0.625081
	42.475000	-0.586401
	42.480000	-0.531603
	42.485000	-0.573507
	42.490000	-0.625081
	42.495000	-0.583177
	42.500000	-0.531603
	42.505000	-0.567060
	42.510000	-0.628304
	42.515000	-0.589624
	42.520000	-0.521933
	42.525000	-0.567060
	42.530000	-0.625081
	42.535000	-0.576730
	42.540000	-0.521933
	42.545000	-0.557390
	42.550000	-0.625081
	42.555000	-0.573507
	42.560000	-0.515487
	42.565000	-0.557390
	42.570000	-0.618634
	42.575000	-0.570284
	42.580000	-0.512263
	42.585000	-0.557390
	42.590000	-0.618634
	42.595000	-0.567060
	42.600000	-0.509040
	42.605000	-0.554167
	42.610000	-0.625081
	42.615000	-0.576730
	42.620000	-0.515487
	42.625000	-0.560614
	42.630000	-0.615411
	42.635000	-0.567060
	42.640000	-0.512263
	42.645000	-0.554167
	42.650000	-0.615411
	42.655000	-0.567060
	42.660000	-0.509040
	42.665000	-0.557390
	42.670000	-0.612187
	42.675000	-0.567060
	42.680000	-0.512263
	42.685000	-0.557390
	42.690000	-0.608964
	42.695000	-0.570284
	42.700000	-0.512263
	42.705000	-0.557390
	42.710000	-0.615411
	42.715000	-0.567060
	42.720000	-0.515487
	42.725000	-0.554167
	42.730000	-0.615411
	42.735000	-0.567060
	42.740000	-0.512263
	42.745000	-0.560614
	42.750000	-0.612187
	42.755000	-0.570284
	42.760000	-0.509040
	42.765000	-0.554167
	42.770000	-0.608964
	42.775000	-0.567060
	42.780000	-0.505817
	42.785000	-0.547720
	42.790000	-0.612187
	42.795000	-0.563837
	42.800000	-0.502593
	42.805000	-0.550944
	42.810000	-0.608964
	42.815000	-0.560614
	42.820000	-0.509040
	42.825000	-0.547720
	42.830000	-0.612187
	42.835000	-0.560614
	42.840000	-0.505817
	42.845000	-0.550944
	42.850000	-0.608964
	42.855000	-0.557390
	42.860000	-0.502593
	42.865000	-0.554167
	42.870000	-0.599294
	42.875000	-0.557390
	42.880000	-0.505817
	42.885000	-0.547720
	42.890000	-0.602517
	42.895000	-0.554167
	42.900000	-0.505817
	42.905000	-0.547720
	42.910000	-0.602517
	42.915000	-0.567060
	42.920000	-0.502593
	42.925000	-0.547720
	42.930000	-0.608964
	42.935000	-0.554167
	42.940000	-0.496147
	42.945000	-0.550944
	42.950000	-0.602517
	42.955000	-0.554167
	42.960000	-0.502593
	42.965000	-0.550944
	42.970000	-0.602517
	42.975000	-0.563837
	42.980000	-0.496147
	42.985000	-0.547720
	42.990000	-0.602517
	42.995000	-0.557390
	43.000000	-0.502593
	43.005000	-0.544497
	43.010000	-0.599294
	43.015000	-0.560614
	43.020000	-0.502593
	43.025000	-0.544497
	43.030000	-0.599294
	43.035000	-0.560614
	43.040000	-0.502593
	43.045000	-0.547720
	43.050000	-0.605741
	43.055000	-0.557390
	43.060000	-0.502593
	43.065000	-0.541274
	43.070000	-0.605741
	43.075000	-0.554167
	43.080000	-0.505817
	43.085000	-0.544497
	43.090000	-0.599294
	43.095000	-0.557390
	43.100000	-0.502593
	43.105000	-0.547720
	43.110000	-0.599294
	43.115000	-0.560614
	43.120000	-0.502593
	43.125000	-0.547720
	43.130000	-0.599294
	43.135000	-0.560614
	43.140000	-0.505817
	43.145000	-0.550944
	43.150000	-0.602517
	43.155000	-0.557390
	43.160000	-0.505817
	43.165000	-0.547720
	43.170000	-0.605741
	43.175000	-0.567060
	43.180000	-0.496147
	43.185000	-0.550944
	43.190000	-0.605741
	43.195000	-0.557390
	43.200000	-0.502593
	43.205000	-0.547720
	43.210000	-0.612187
	43.215000	-0.560614
	43.220000	-0.502593
	43.225000	-0.557390
	43.230000	-0.605741
	43.235000	-0.557390
	43.240000	-0.499370
	43.245000	-0.547720
	43.250000	-0.596071
	43.255000	-0.554167
	43.260000	-0.496147
	43.265000	-0.538050
	43.270000	-0.599294
	43.275000	-0.547720
	43.280000	-0.496147
	43.285000	-0.547720
	43.290000	-0.602517
	43.295000	-0.557390
	43.300000	-0.492923
	43.305000	-0.538050
	43.310000	-0.592847
	43.315000	-0.550944
	43.320000	-0.502593
	43.325000	-0.547720
	43.330000	-0.602517
	43.335000	-0.554167
	43.340000	-0.499370
	43.345000	-0.544497
	43.350000	-0.599294
	43.355000	-0.557390
	43.360000	-0.496147
	43.365000	-0.541274
	43.370000	-0.599294
	43.375000	-0.554167
	43.380000	-0.499370
	43.385000	-0.544497
	43.390000	-0.605741
	43.395000	-0.557390
	43.400000	-0.492923
	43.405000	-0.544497
	43.410000	-0.605741
	43.415000	-0.557390
	43.420000	-0.502593
	43.425000	-0.554167
	43.430000	-0.602517
	43.435000	-0.567060
	43.440000	-0.505817
	43.445000	-0.547720
	43.450000	-0.605741
	43.455000	-0.557390
	43.460000	-0.496147
	43.465000	-0.547720
	43.470000	-0.605741
	43.475000	-0.550944
	43.480000	-0.499370
	43.485000	-0.541274
	43.490000	-0.605741
	43.495000	-0.557390
	43.500000	-0.499370
	43.505000	-0.554167
	43.510000	-0.599294
	43.515000	-0.554167
	43.520000	-0.505817
	43.525000	-0.547720
	43.530000	-0.602517
	43.535000	-0.554167
	43.540000	-0.502593
	43.545000	-0.541274
	43.550000	-0.605741
	43.555000	-0.560614
	43.560000	-0.499370
	43.565000	-0.550944
	43.570000	-0.608964
	43.575000	-0.563837
	43.580000	-0.496147
	43.585000	-0.547720
	43.590000	-0.605741
	43.595000	-0.560614
	43.600000	-0.509040
	43.605000	-0.554167
	43.610000	-0.608964
	43.615000	-0.560614
	43.620000	-0.505817
	43.625000	-0.550944
	43.630000	-0.605741
	43.635000	-0.557390
	43.640000	-0.509040
	43.645000	-0.554167
	43.650000	-0.608964
	43.655000	-0.567060
	43.660000	-0.505817
	43.665000	-0.554167
	43.670000	-0.612187
	43.675000	-0.563837
	43.680000	-0.502593
	43.685000	-0.554167
	43.690000	-0.608964
	43.695000	-0.567060
	43.700000	-0.509040
	43.705000	-0.550944
	43.710000	-0.615411
	43.715000	-0.560614
	43.720000	-0.505817
	43.725000	-0.550944
	43.730000	-0.615411
	43.735000	-0.560614
	43.740000	-0.502593
	43.745000	-0.554167
	43.750000	-0.612187
	43.755000	-0.560614
	43.760000	-0.502593
	43.765000	-0.544497
	43.770000	-0.612187
	43.775000	-0.560614
	43.780000	-0.505817
	43.785000	-0.550944
	43.790000	-0.612187
	43.795000	-0.557390
	43.800000	-0.509040
	43.805000	-0.554167
	43.810000	-0.608964
	43.815000	-0.563837
	43.820000	-0.505817
	43.825000	-0.560614
	43.830000	-0.612187
	43.835000	-0.567060
	43.840000	-0.509040
	43.845000	-0.557390
	43.850000	-0.621858
	43.855000	-0.567060
	43.860000	-0.518710
	43.865000	-0.567060
	43.870000	-0.625081
	43.875000	-0.573507
	43.880000	-0.521933
	43.885000	-0.570284
	43.890000	-0.634751
	43.895000	-0.583177
	43.900000	-0.531603
	43.905000	-0.573507
	43.910000	-0.637974
	43.915000	-0.583177
	43.920000	-0.538050
	43.925000	-0.583177
	43.930000	-0.644421
	43.935000	-0.596071
	43.940000	-0.544497
	43.945000	-0.589624
	43.950000	-0.647644
	43.955000	-0.602517
	43.960000	-0.541274
	43.965000	-0.592847
	43.970000	-0.654091
	43.975000	-0.602517
	43.980000	-0.547720
	43.985000	-0.602517
	43.990000	-0.657314
	43.995000	-0.602517
	44.000000	-0.554167
	44.005000	-0.599294
	44.010000	-0.660538
	44.015000	-0.605741
	44.020000	-0.560614
