2024/7/10 	 20:39:32 
 This file comes from Vt only measurement 	 1.000000E-1 
 Voltage Sensitivity 	 0.000000E+0 
 Sampling rate 	 200 
 Number of samples per channel 	 -1 
 No filter from Labview 	 	 	 
 	 
 ***End_of_Header*** 
 	 Time 	  Voltage 	 Filtered Voltage 	 
	0.000000	-2.862092
	0.005000	-2.884655
	0.010000	-2.707371
	0.015000	-2.691254
	0.020000	-2.862092
	0.025000	-2.884655
	0.030000	-2.713817
	0.035000	-2.697701
	0.040000	-2.878209
	0.045000	-2.891102
	0.050000	-2.726711
	0.055000	-2.700924
	0.060000	-2.871762
	0.065000	-2.894326
	0.070000	-2.729934
	0.075000	-2.720264
	0.080000	-2.887879
	0.085000	-2.910442
	0.090000	-2.733158
	0.095000	-2.720264
	0.100000	-2.891102
	0.105000	-2.900772
	0.110000	-2.736381
	0.115000	-2.723488
	0.120000	-2.891102
	0.125000	-2.907219
	0.130000	-2.736381
	0.135000	-2.726711
	0.140000	-2.891102
	0.145000	-2.910442
	0.150000	-2.742828
	0.155000	-2.726711
	0.160000	-2.894326
	0.165000	-2.913666
	0.170000	-2.742828
	0.175000	-2.726711
	0.180000	-2.897549
	0.185000	-2.903996
	0.190000	-2.733158
	0.195000	-2.720264
	0.200000	-2.894326
	0.205000	-2.897549
	0.210000	-2.729934
	0.215000	-2.720264
	0.220000	-2.891102
	0.225000	-2.900772
	0.230000	-2.729934
	0.235000	-2.713817
	0.240000	-2.884655
	0.245000	-2.900772
	0.250000	-2.729934
	0.255000	-2.713817
	0.260000	-2.881432
	0.265000	-2.891102
	0.270000	-2.726711
	0.275000	-2.707371
	0.280000	-2.884655
	0.285000	-2.894326
	0.290000	-2.720264
	0.295000	-2.707371
	0.300000	-2.874985
	0.305000	-2.881432
	0.310000	-2.710594
	0.315000	-2.700924
	0.320000	-2.868539
	0.325000	-2.887879
	0.330000	-2.713817
	0.335000	-2.700924
	0.340000	-2.868539
	0.345000	-2.868539
	0.350000	-2.704147
	0.355000	-2.691254
	0.360000	-2.871762
	0.365000	-2.878209
	0.370000	-2.697701
	0.375000	-2.704147
	0.380000	-2.865315
	0.385000	-2.865315
	0.390000	-2.697701
	0.395000	-2.697701
	0.400000	-2.865315
	0.405000	-2.871762
	0.410000	-2.694477
	0.415000	-2.691254
	0.420000	-2.858869
	0.425000	-2.874985
	0.430000	-2.694477
	0.435000	-2.684807
	0.440000	-2.862092
	0.445000	-2.865315
	0.450000	-2.697701
	0.455000	-2.688031
	0.460000	-2.858869
	0.465000	-2.865315
	0.470000	-2.691254
	0.475000	-2.684807
	0.480000	-2.858869
	0.485000	-2.862092
	0.490000	-2.691254
	0.495000	-2.691254
	0.500000	-2.862092
	0.505000	-2.852422
	0.510000	-2.694477
	0.515000	-2.688031
	0.520000	-2.858869
	0.525000	-2.855645
	0.530000	-2.684807
	0.535000	-2.681584
	0.540000	-2.852422
	0.545000	-2.855645
	0.550000	-2.681584
	0.555000	-2.688031
	0.560000	-2.852422
	0.565000	-2.852422
	0.570000	-2.681584
	0.575000	-2.684807
	0.580000	-2.842752
	0.585000	-2.849199
	0.590000	-2.675137
	0.595000	-2.668690
	0.600000	-2.839528
	0.605000	-2.845975
	0.610000	-2.662244
	0.615000	-2.668690
	0.620000	-2.842752
	0.625000	-2.836305
	0.630000	-2.659020
	0.635000	-2.668690
	0.640000	-2.842752
	0.645000	-2.836305
	0.650000	-2.668690
	0.655000	-2.668690
	0.660000	-2.836305
	0.665000	-2.836305
	0.670000	-2.665467
	0.675000	-2.668690
	0.680000	-2.836305
	0.685000	-2.829858
	0.690000	-2.662244
	0.695000	-2.668690
	0.700000	-2.836305
	0.705000	-2.829858
	0.710000	-2.662244
	0.715000	-2.668690
	0.720000	-2.836305
	0.725000	-2.829858
	0.730000	-2.655797
	0.735000	-2.662244
	0.740000	-2.829858
	0.745000	-2.829858
	0.750000	-2.652574
	0.755000	-2.659020
	0.760000	-2.826635
	0.765000	-2.820188
	0.770000	-2.649350
	0.775000	-2.668690
	0.780000	-2.833082
	0.785000	-2.826635
	0.790000	-2.655797
	0.795000	-2.659020
	0.800000	-2.836305
	0.805000	-2.823412
	0.810000	-2.649350
	0.815000	-2.655797
	0.820000	-2.833082
	0.825000	-2.816965
	0.830000	-2.652574
	0.835000	-2.652574
	0.840000	-2.829858
	0.845000	-2.816965
	0.850000	-2.646127
	0.855000	-2.655797
	0.860000	-2.826635
	0.865000	-2.820188
	0.870000	-2.646127
	0.875000	-2.655797
	0.880000	-2.833082
	0.885000	-2.813742
	0.890000	-2.649350
	0.895000	-2.655797
	0.900000	-2.826635
	0.905000	-2.813742
	0.910000	-2.646127
	0.915000	-2.659020
	0.920000	-2.833082
	0.925000	-2.816965
	0.930000	-2.642904
	0.935000	-2.659020
	0.940000	-2.826635
	0.945000	-2.820188
	0.950000	-2.646127
	0.955000	-2.652574
	0.960000	-2.826635
	0.965000	-2.813742
	0.970000	-2.636457
	0.975000	-2.662244
	0.980000	-2.823412
	0.985000	-2.820188
	0.990000	-2.646127
	0.995000	-2.662244
	1.000000	-2.829858
	1.005000	-2.820188
	1.010000	-2.639680
	1.015000	-2.652574
	1.020000	-2.829858
	1.025000	-2.810518
	1.030000	-2.636457
	1.035000	-2.652574
	1.040000	-2.823412
	1.045000	-2.810518
	1.050000	-2.633233
	1.055000	-2.652574
	1.060000	-2.820188
	1.065000	-2.810518
	1.070000	-2.639680
	1.075000	-2.649350
	1.080000	-2.820188
	1.085000	-2.804072
	1.090000	-2.633233
	1.095000	-2.652574
	1.100000	-2.820188
	1.105000	-2.804072
	1.110000	-2.636457
	1.115000	-2.649350
	1.120000	-2.816965
	1.125000	-2.800848
	1.130000	-2.626787
	1.135000	-2.646127
	1.140000	-2.826635
	1.145000	-2.797625
	1.150000	-2.630010
	1.155000	-2.646127
	1.160000	-2.820188
	1.165000	-2.791178
	1.170000	-2.626787
	1.175000	-2.646127
	1.180000	-2.810518
	1.185000	-2.787955
	1.190000	-2.626787
	1.195000	-2.642904
	1.200000	-2.810518
	1.205000	-2.787955
	1.210000	-2.620340
	1.215000	-2.639680
	1.220000	-2.807295
	1.225000	-2.781508
	1.230000	-2.617117
	1.235000	-2.636457
	1.240000	-2.804072
	1.245000	-2.778285
	1.250000	-2.613893
	1.255000	-2.630010
	1.260000	-2.800848
	1.265000	-2.775061
	1.270000	-2.610670
	1.275000	-2.633233
	1.280000	-2.800848
	1.285000	-2.771838
	1.290000	-2.604223
	1.295000	-2.626787
	1.300000	-2.794401
	1.305000	-2.765391
	1.310000	-2.601000
	1.315000	-2.626787
	1.320000	-2.791178
	1.325000	-2.771838
	1.330000	-2.601000
	1.335000	-2.620340
	1.340000	-2.784731
	1.345000	-2.765391
	1.350000	-2.597777
	1.355000	-2.626787
	1.360000	-2.787955
	1.365000	-2.765391
	1.370000	-2.601000
	1.375000	-2.617117
	1.380000	-2.787955
	1.385000	-2.758944
	1.390000	-2.597777
	1.395000	-2.620340
	1.400000	-2.778285
	1.405000	-2.758944
	1.410000	-2.591330
	1.415000	-2.620340
	1.420000	-2.787955
	1.425000	-2.755721
	1.430000	-2.591330
	1.435000	-2.617117
	1.440000	-2.784731
	1.445000	-2.758944
	1.450000	-2.588106
	1.455000	-2.623563
	1.460000	-2.791178
	1.465000	-2.752498
	1.470000	-2.591330
	1.475000	-2.620340
	1.480000	-2.787955
	1.485000	-2.755721
	1.490000	-2.594553
	1.495000	-2.620340
	1.500000	-2.784731
	1.505000	-2.762168
	1.510000	-2.597777
	1.515000	-2.630010
	1.520000	-2.794401
	1.525000	-2.771838
	1.530000	-2.601000
	1.535000	-2.633233
	1.540000	-2.813742
	1.545000	-2.778285
	1.550000	-2.613893
	1.555000	-2.655797
	1.560000	-2.823412
	1.565000	-2.794401
	1.570000	-2.626787
	1.575000	-2.668690
	1.580000	-2.836305
	1.585000	-2.800848
	1.590000	-2.630010
	1.595000	-2.671914
	1.600000	-2.842752
	1.605000	-2.807295
	1.610000	-2.630010
	1.615000	-2.671914
	1.620000	-2.839528
	1.625000	-2.797625
	1.630000	-2.626787
	1.635000	-2.662244
	1.640000	-2.826635
	1.645000	-2.784731
	1.650000	-2.613893
	1.655000	-2.639680
	1.660000	-2.807295
	1.665000	-2.762168
	1.670000	-2.594553
	1.675000	-2.620340
	1.680000	-2.778285
	1.685000	-2.733158
	1.690000	-2.559096
	1.695000	-2.591330
	1.700000	-2.739604
	1.705000	-2.697701
	1.710000	-2.523639
	1.715000	-2.552650
	1.720000	-2.707371
	1.725000	-2.655797
	1.730000	-2.481736
	1.735000	-2.507522
	1.740000	-2.668690
	1.745000	-2.620340
	1.750000	-2.452725
	1.755000	-2.475289
	1.760000	-2.630010
	1.765000	-2.584883
	1.770000	-2.410822
	1.775000	-2.446279
	1.780000	-2.601000
	1.785000	-2.552650
	1.790000	-2.388258
	1.795000	-2.430162
	1.800000	-2.575213
	1.805000	-2.526863
	1.810000	-2.368918
	1.815000	-2.401152
	1.820000	-2.562320
	1.825000	-2.507522
	1.830000	-2.349578
	1.835000	-2.391482
	1.840000	-2.542979
	1.845000	-2.497852
	1.850000	-2.339908
	1.855000	-2.381811
	1.860000	-2.533309
	1.865000	-2.491406
	1.870000	-2.336684
	1.875000	-2.365695
	1.880000	-2.526863
	1.885000	-2.475289
	1.890000	-2.327014
	1.895000	-2.368918
	1.900000	-2.513969
	1.905000	-2.475289
	1.910000	-2.310898
	1.915000	-2.346355
	1.920000	-2.513969
	1.925000	-2.462395
	1.930000	-2.304451
	1.935000	-2.352801
	1.940000	-2.504299
	1.945000	-2.465619
	1.950000	-2.304451
	1.955000	-2.346355
	1.960000	-2.504299
	1.965000	-2.459172
	1.970000	-2.301228
	1.975000	-2.346355
	1.980000	-2.501076
	1.985000	-2.455949
	1.990000	-2.301228
	1.995000	-2.346355
	2.000000	-2.501076
	2.005000	-2.449502
	2.010000	-2.301228
	2.015000	-2.346355
	2.020000	-2.501076
	2.025000	-2.452725
	2.030000	-2.294781
	2.035000	-2.343131
	2.040000	-2.494629
	2.045000	-2.446279
	2.050000	-2.291557
	2.055000	-2.336684
	2.060000	-2.491406
	2.065000	-2.449502
	2.070000	-2.294781
	2.075000	-2.339908
	2.080000	-2.481736
	2.085000	-2.443055
	2.090000	-2.291557
	2.095000	-2.339908
	2.100000	-2.484959
	2.105000	-2.433385
	2.110000	-2.294781
	2.115000	-2.343131
	2.120000	-2.488182
	2.125000	-2.443055
	2.130000	-2.294781
	2.135000	-2.352801
	2.140000	-2.491406
	2.145000	-2.452725
	2.150000	-2.294781
	2.155000	-2.346355
	2.160000	-2.494629
	2.165000	-2.455949
	2.170000	-2.301228
	2.175000	-2.346355
	2.180000	-2.504299
	2.185000	-2.455949
	2.190000	-2.298004
	2.195000	-2.343131
	2.200000	-2.504299
	2.205000	-2.455949
	2.210000	-2.307674
	2.215000	-2.356025
	2.220000	-2.504299
	2.225000	-2.452725
	2.230000	-2.301228
	2.235000	-2.349578
	2.240000	-2.497852
	2.245000	-2.446279
	2.250000	-2.298004
	2.255000	-2.349578
	2.260000	-2.507522
	2.265000	-2.459172
	2.270000	-2.310898
	2.275000	-2.372141
	2.280000	-2.530086
	2.285000	-2.491406
	2.290000	-2.339908
	2.295000	-2.397928
	2.300000	-2.565543
	2.305000	-2.520416
	2.310000	-2.372141
	2.315000	-2.443055
	2.320000	-2.604223
	2.325000	-2.565543
	2.330000	-2.417268
	2.335000	-2.491406
	2.340000	-2.655797
	2.345000	-2.601000
	2.350000	-2.462395
	2.355000	-2.546203
	2.360000	-2.717041
	2.365000	-2.665467
	2.370000	-2.530086
	2.375000	-2.607447
	2.380000	-2.778285
	2.385000	-2.739604
	2.390000	-2.594553
	2.395000	-2.665467
	2.400000	-2.823412
	2.405000	-2.765391
	2.410000	-2.610670
	2.415000	-2.678361
	2.420000	-2.839528
	2.425000	-2.775061
	2.430000	-2.626787
	2.435000	-2.688031
	2.440000	-2.839528
	2.445000	-2.784731
	2.450000	-2.626787
	2.455000	-2.694477
	2.460000	-2.842752
	2.465000	-2.787955
	2.470000	-2.633233
	2.475000	-2.694477
	2.480000	-2.849199
	2.485000	-2.791178
	2.490000	-2.633233
	2.495000	-2.691254
	2.500000	-2.849199
	2.505000	-2.775061
	2.510000	-2.610670
	2.515000	-2.668690
	2.520000	-2.804072
	2.525000	-2.733158
	2.530000	-2.568766
	2.535000	-2.604223
	2.540000	-2.749274
	2.545000	-2.659020
	2.550000	-2.491406
	2.555000	-2.526863
	2.560000	-2.655797
	2.565000	-2.571990
	2.570000	-2.391482
	2.575000	-2.436609
	2.580000	-2.562320
	2.585000	-2.468842
	2.590000	-2.301228
	2.595000	-2.346355
	2.600000	-2.481736
	2.605000	-2.404375
	2.610000	-2.239984
	2.615000	-2.288334
	2.620000	-2.426939
	2.625000	-2.352801
	2.630000	-2.194857
	2.635000	-2.259324
	2.640000	-2.394705
	2.645000	-2.317344
	2.650000	-2.169070
	2.655000	-2.220644
	2.660000	-2.356025
	2.665000	-2.285111
	2.670000	-2.133613
	2.675000	-2.188410
	2.680000	-2.330238
	2.685000	-2.246430
	2.690000	-2.104603
	2.695000	-2.169070
	2.700000	-2.310898
	2.705000	-2.220644
	2.710000	-2.075592
	2.715000	-2.133613
	2.720000	-2.272217
	2.725000	-2.198080
	2.730000	-2.046582
	2.735000	-2.107826
	2.740000	-2.249654
	2.745000	-2.178740
	2.750000	-2.020795
	2.755000	-2.085262
	2.760000	-2.230314
	2.765000	-2.156176
	2.770000	-2.014349
	2.775000	-2.082039
	2.780000	-2.214197
	2.785000	-2.146506
	2.790000	-1.998232
	2.795000	-2.062699
	2.800000	-2.191633
	2.805000	-2.127166
	2.810000	-1.991785
	2.815000	-2.056252
	2.820000	-2.198080
	2.825000	-2.130390
	2.830000	-1.985338
	2.835000	-2.049806
	2.840000	-2.191633
	2.845000	-2.133613
	2.850000	-1.988562
	2.855000	-2.062699
	2.860000	-2.198080
	2.865000	-2.133613
	2.870000	-1.995008
	2.875000	-2.075592
	2.880000	-2.214197
	2.885000	-2.146506
	2.890000	-2.011125
	2.895000	-2.091709
	2.900000	-2.239984
	2.905000	-2.162623
	2.910000	-2.024019
	2.915000	-2.107826
	2.920000	-2.249654
	2.925000	-2.178740
	2.930000	-2.049806
	2.935000	-2.127166
	2.940000	-2.268994
	2.945000	-2.198080
	2.950000	-2.062699
	2.955000	-2.143283
	2.960000	-2.291557
	2.965000	-2.217420
	2.970000	-2.082039
	2.975000	-2.159400
	2.980000	-2.307674
	2.985000	-2.236760
	2.990000	-2.101379
	2.995000	-2.178740
	3.000000	-2.323791
	3.005000	-2.243207
	3.010000	-2.114273
	3.015000	-2.198080
	3.020000	-2.336684
	3.025000	-2.259324
	3.030000	-2.123943
	3.035000	-2.207750
	3.040000	-2.349578
	3.045000	-2.275441
	3.050000	-2.140060
	3.055000	-2.217420
	3.060000	-2.359248
	3.065000	-2.288334
	3.070000	-2.152953
	3.075000	-2.233537
	3.080000	-2.375365
	3.085000	-2.301228
	3.090000	-2.162623
	3.095000	-2.252877
	3.100000	-2.388258
	3.105000	-2.310898
	3.110000	-2.175517
	3.115000	-2.256101
	3.120000	-2.407598
	3.125000	-2.327014
	3.130000	-2.181963
	3.135000	-2.268994
	3.140000	-2.410822
	3.145000	-2.330238
	3.150000	-2.194857
	3.155000	-2.278664
	3.160000	-2.423715
	3.165000	-2.336684
	3.170000	-2.207750
	3.175000	-2.281887
	3.180000	-2.420492
	3.185000	-2.336684
	3.190000	-2.204527
	3.195000	-2.294781
	3.200000	-2.430162
	3.205000	-2.339908
	3.210000	-2.217420
	3.215000	-2.298004
	3.220000	-2.433385
	3.225000	-2.346355
	3.230000	-2.220644
	3.235000	-2.298004
	3.240000	-2.443055
	3.245000	-2.362471
	3.250000	-2.227090
	3.255000	-2.307674
	3.260000	-2.439832
	3.265000	-2.362471
	3.270000	-2.220644
	3.275000	-2.310898
	3.280000	-2.449502
	3.285000	-2.359248
	3.290000	-2.233537
	3.295000	-2.327014
	3.300000	-2.452725
	3.305000	-2.362471
	3.310000	-2.230314
	3.315000	-2.310898
	3.320000	-2.452725
	3.325000	-2.368918
	3.330000	-2.236760
	3.335000	-2.320568
	3.340000	-2.455949
	3.345000	-2.372141
	3.350000	-2.239984
	3.355000	-2.330238
	3.360000	-2.455949
	3.365000	-2.375365
	3.370000	-2.236760
	3.375000	-2.333461
	3.380000	-2.459172
	3.385000	-2.375365
	3.390000	-2.236760
	3.395000	-2.327014
	3.400000	-2.462395
	3.405000	-2.378588
	3.410000	-2.239984
	3.415000	-2.336684
	3.420000	-2.465619
	3.425000	-2.381811
	3.430000	-2.243207
	3.435000	-2.333461
	3.440000	-2.465619
	3.445000	-2.375365
	3.450000	-2.246430
	3.455000	-2.339908
	3.460000	-2.478512
	3.465000	-2.375365
	3.470000	-2.243207
	3.475000	-2.343131
	3.480000	-2.475289
	3.485000	-2.381811
	3.490000	-2.249654
	3.495000	-2.343131
	3.500000	-2.478512
	3.505000	-2.381811
	3.510000	-2.252877
	3.515000	-2.339908
	3.520000	-2.478512
	3.525000	-2.385035
	3.530000	-2.249654
	3.535000	-2.343131
	3.540000	-2.475289
	3.545000	-2.378588
	3.550000	-2.256101
	3.555000	-2.343131
	3.560000	-2.472066
	3.565000	-2.381811
	3.570000	-2.252877
	3.575000	-2.339908
	3.580000	-2.475289
	3.585000	-2.381811
	3.590000	-2.249654
	3.595000	-2.346355
	3.600000	-2.478512
	3.605000	-2.381811
	3.610000	-2.256101
	3.615000	-2.349578
	3.620000	-2.484959
	3.625000	-2.388258
	3.630000	-2.256101
	3.635000	-2.352801
	3.640000	-2.468842
	3.645000	-2.375365
	3.650000	-2.249654
	3.655000	-2.352801
	3.660000	-2.478512
	3.665000	-2.372141
	3.670000	-2.256101
	3.675000	-2.346355
	3.680000	-2.475289
	3.685000	-2.372141
	3.690000	-2.246430
	3.695000	-2.349578
	3.700000	-2.475289
	3.705000	-2.375365
	3.710000	-2.249654
	3.715000	-2.349578
	3.720000	-2.475289
	3.725000	-2.372141
	3.730000	-2.252877
	3.735000	-2.349578
	3.740000	-2.468842
	3.745000	-2.365695
	3.750000	-2.246430
	3.755000	-2.346355
	3.760000	-2.475289
	3.765000	-2.372141
	3.770000	-2.249654
	3.775000	-2.346355
	3.780000	-2.468842
	3.785000	-2.372141
	3.790000	-2.243207
	3.795000	-2.339908
	3.800000	-2.472066
	3.805000	-2.359248
	3.810000	-2.239984
	3.815000	-2.339908
	3.820000	-2.462395
	3.825000	-2.365695
	3.830000	-2.233537
	3.835000	-2.336684
	3.840000	-2.465619
	3.845000	-2.362471
	3.850000	-2.233537
	3.855000	-2.336684
	3.860000	-2.459172
	3.865000	-2.362471
	3.870000	-2.236760
	3.875000	-2.336684
	3.880000	-2.468842
	3.885000	-2.352801
	3.890000	-2.227090
	3.895000	-2.336684
	3.900000	-2.459172
	3.905000	-2.349578
	3.910000	-2.233537
	3.915000	-2.336684
	3.920000	-2.455949
	3.925000	-2.349578
	3.930000	-2.233537
	3.935000	-2.336684
	3.940000	-2.449502
	3.945000	-2.346355
	3.950000	-2.223867
	3.955000	-2.333461
	3.960000	-2.452725
	3.965000	-2.343131
	3.970000	-2.227090
	3.975000	-2.327014
	3.980000	-2.443055
	3.985000	-2.343131
	3.990000	-2.223867
	3.995000	-2.339908
	4.000000	-2.455949
	4.005000	-2.349578
	4.010000	-2.227090
	4.015000	-2.327014
	4.020000	-2.452725
	4.025000	-2.343131
	4.030000	-2.223867
	4.035000	-2.333461
	4.040000	-2.449502
	4.045000	-2.343131
	4.050000	-2.230314
	4.055000	-2.333461
	4.060000	-2.446279
	4.065000	-2.346355
	4.070000	-2.223867
	4.075000	-2.330238
	4.080000	-2.449502
	4.085000	-2.339908
	4.090000	-2.223867
	4.095000	-2.336684
	4.100000	-2.449502
	4.105000	-2.339908
	4.110000	-2.223867
	4.115000	-2.333461
	4.120000	-2.452725
	4.125000	-2.343131
	4.130000	-2.227090
	4.135000	-2.333461
	4.140000	-2.452725
	4.145000	-2.336684
	4.150000	-2.220644
	4.155000	-2.333461
	4.160000	-2.449502
	4.165000	-2.336684
	4.170000	-2.220644
	4.175000	-2.330238
	4.180000	-2.449502
	4.185000	-2.330238
	4.190000	-2.214197
	4.195000	-2.333461
	4.200000	-2.443055
	4.205000	-2.336684
	4.210000	-2.227090
	4.215000	-2.327014
	4.220000	-2.452725
	4.225000	-2.333461
	4.230000	-2.220644
	4.235000	-2.333461
	4.240000	-2.443055
	4.245000	-2.330238
	4.250000	-2.217420
	4.255000	-2.327014
	4.260000	-2.439832
	4.265000	-2.330238
	4.270000	-2.217420
	4.275000	-2.327014
	4.280000	-2.449502
	4.285000	-2.330238
	4.290000	-2.217420
	4.295000	-2.330238
	4.300000	-2.443055
	4.305000	-2.333461
	4.310000	-2.210973
	4.315000	-2.327014
	4.320000	-2.446279
	4.325000	-2.320568
	4.330000	-2.214197
	4.335000	-2.323791
	4.340000	-2.439832
	4.345000	-2.323791
	4.350000	-2.214197
	4.355000	-2.320568
	4.360000	-2.439832
	4.365000	-2.320568
	4.370000	-2.207750
	4.375000	-2.327014
	4.380000	-2.430162
	4.385000	-2.317344
	4.390000	-2.210973
	4.395000	-2.327014
	4.400000	-2.430162
	4.405000	-2.314121
	4.410000	-2.207750
	4.415000	-2.330238
	4.420000	-2.436609
	4.425000	-2.310898
	4.430000	-2.201303
	4.435000	-2.317344
	4.440000	-2.433385
	4.445000	-2.307674
	4.450000	-2.204527
	4.455000	-2.314121
	4.460000	-2.423715
	4.465000	-2.307674
	4.470000	-2.194857
	4.475000	-2.314121
	4.480000	-2.414045
	4.485000	-2.301228
	4.490000	-2.188410
	4.495000	-2.310898
	4.500000	-2.414045
	4.505000	-2.301228
	4.510000	-2.188410
	4.515000	-2.310898
	4.520000	-2.414045
	4.525000	-2.298004
	4.530000	-2.191633
	4.535000	-2.307674
	4.540000	-2.407598
	4.545000	-2.291557
	4.550000	-2.181963
	4.555000	-2.301228
	4.560000	-2.410822
	4.565000	-2.298004
	4.570000	-2.178740
	4.575000	-2.304451
	4.580000	-2.410822
	4.585000	-2.291557
	4.590000	-2.178740
	4.595000	-2.304451
	4.600000	-2.407598
	4.605000	-2.285111
	4.610000	-2.181963
	4.615000	-2.304451
	4.620000	-2.414045
	4.625000	-2.288334
	4.630000	-2.191633
	4.635000	-2.307674
	4.640000	-2.410822
	4.645000	-2.294781
	4.650000	-2.191633
	4.655000	-2.310898
	4.660000	-2.417268
	4.665000	-2.294781
	4.670000	-2.185187
	4.675000	-2.310898
	4.680000	-2.417268
	4.685000	-2.288334
	4.690000	-2.188410
	4.695000	-2.314121
	4.700000	-2.414045
	4.705000	-2.291557
	4.710000	-2.191633
	4.715000	-2.320568
	4.720000	-2.417268
	4.725000	-2.291557
	4.730000	-2.194857
	4.735000	-2.310898
	4.740000	-2.423715
	4.745000	-2.291557
	4.750000	-2.188410
	4.755000	-2.320568
	4.760000	-2.417268
	4.765000	-2.291557
	4.770000	-2.194857
	4.775000	-2.317344
	4.780000	-2.414045
	4.785000	-2.285111
	4.790000	-2.191633
	4.795000	-2.314121
	4.800000	-2.414045
	4.805000	-2.294781
	4.810000	-2.191633
	4.815000	-2.320568
	4.820000	-2.423715
	4.825000	-2.285111
	4.830000	-2.185187
	4.835000	-2.314121
	4.840000	-2.417268
	4.845000	-2.285111
	4.850000	-2.185187
	4.855000	-2.314121
	4.860000	-2.417268
	4.865000	-2.281887
	4.870000	-2.181963
	4.875000	-2.314121
	4.880000	-2.417268
	4.885000	-2.281887
	4.890000	-2.181963
	4.895000	-2.307674
	4.900000	-2.410822
	4.905000	-2.288334
	4.910000	-2.185187
	4.915000	-2.314121
	4.920000	-2.404375
	4.925000	-2.275441
	4.930000	-2.185187
	4.935000	-2.310898
	4.940000	-2.401152
	4.945000	-2.281887
	4.950000	-2.175517
	4.955000	-2.310898
	4.960000	-2.397928
	4.965000	-2.278664
	4.970000	-2.178740
	4.975000	-2.307674
	4.980000	-2.407598
	4.985000	-2.272217
	4.990000	-2.178740
	4.995000	-2.310898
	5.000000	-2.401152
	5.005000	-2.278664
	5.010000	-2.175517
	5.015000	-2.304451
	5.020000	-2.410822
	5.025000	-2.275441
	5.030000	-2.178740
	5.035000	-2.304451
	5.040000	-2.404375
	5.045000	-2.275441
	5.050000	-2.185187
	5.055000	-2.310898
	5.060000	-2.404375
	5.065000	-2.262547
	5.070000	-2.175517
	5.075000	-2.304451
	5.080000	-2.401152
	5.085000	-2.268994
	5.090000	-2.172293
	5.095000	-2.307674
	5.100000	-2.401152
	5.105000	-2.262547
	5.110000	-2.175517
	5.115000	-2.304451
	5.120000	-2.394705
	5.125000	-2.256101
	5.130000	-2.169070
	5.135000	-2.301228
	5.140000	-2.388258
	5.145000	-2.256101
	5.150000	-2.172293
	5.155000	-2.301228
	5.160000	-2.385035
	5.165000	-2.262547
	5.170000	-2.162623
	5.175000	-2.301228
	5.180000	-2.385035
	5.185000	-2.252877
	5.190000	-2.159400
	5.195000	-2.298004
	5.200000	-2.381811
	5.205000	-2.252877
	5.210000	-2.162623
	5.215000	-2.294781
	5.220000	-2.378588
	5.225000	-2.249654
	5.230000	-2.159400
	5.235000	-2.301228
	5.240000	-2.381811
	5.245000	-2.236760
	5.250000	-2.156176
	5.255000	-2.294781
	5.260000	-2.388258
	5.265000	-2.243207
	5.270000	-2.159400
	5.275000	-2.288334
	5.280000	-2.391482
	5.285000	-2.236760
	5.290000	-2.159400
	5.295000	-2.288334
	5.300000	-2.378588
	5.305000	-2.239984
	5.310000	-2.156176
	5.315000	-2.294781
	5.320000	-2.381811
	5.325000	-2.236760
	5.330000	-2.152953
	5.335000	-2.294781
	5.340000	-2.381811
	5.345000	-2.239984
	5.350000	-2.152953
	5.355000	-2.291557
	5.360000	-2.375365
	5.365000	-2.236760
	5.370000	-2.149730
	5.375000	-2.298004
	5.380000	-2.372141
	5.385000	-2.243207
	5.390000	-2.162623
	5.395000	-2.288334
	5.400000	-2.381811
	5.405000	-2.236760
	5.410000	-2.162623
	5.415000	-2.294781
	5.420000	-2.375365
	5.425000	-2.239984
	5.430000	-2.159400
	5.435000	-2.288334
	5.440000	-2.381811
	5.445000	-2.233537
	5.450000	-2.159400
	5.455000	-2.298004
	5.460000	-2.378588
	5.465000	-2.236760
	5.470000	-2.159400
	5.475000	-2.298004
	5.480000	-2.378588
	5.485000	-2.239984
	5.490000	-2.156176
	5.495000	-2.294781
	5.500000	-2.381811
	5.505000	-2.230314
	5.510000	-2.159400
	5.515000	-2.304451
	5.520000	-2.375365
	5.525000	-2.233537
	5.530000	-2.162623
	5.535000	-2.301228
	5.540000	-2.385035
	5.545000	-2.243207
	5.550000	-2.159400
	5.555000	-2.301228
	5.560000	-2.388258
	5.565000	-2.233537
	5.570000	-2.156176
	5.575000	-2.298004
	5.580000	-2.381811
	5.585000	-2.227090
	5.590000	-2.159400
	5.595000	-2.301228
	5.600000	-2.385035
	5.605000	-2.236760
	5.610000	-2.159400
	5.615000	-2.294781
	5.620000	-2.378588
	5.625000	-2.239984
	5.630000	-2.159400
	5.635000	-2.304451
	5.640000	-2.385035
	5.645000	-2.243207
	5.650000	-2.159400
	5.655000	-2.307674
	5.660000	-2.381811
	5.665000	-2.239984
	5.670000	-2.165846
	5.675000	-2.304451
	5.680000	-2.381811
	5.685000	-2.230314
	5.690000	-2.162623
	5.695000	-2.317344
	5.700000	-2.385035
	5.705000	-2.243207
	5.710000	-2.165846
	5.715000	-2.301228
	5.720000	-2.381811
	5.725000	-2.227090
	5.730000	-2.159400
	5.735000	-2.307674
	5.740000	-2.378588
	5.745000	-2.230314
	5.750000	-2.156176
	5.755000	-2.301228
	5.760000	-2.372141
	5.765000	-2.223867
	5.770000	-2.152953
	5.775000	-2.291557
	5.780000	-2.365695
	5.785000	-2.220644
	5.790000	-2.146506
	5.795000	-2.291557
	5.800000	-2.359248
	5.805000	-2.217420
	5.810000	-2.140060
	5.815000	-2.278664
	5.820000	-2.359248
	5.825000	-2.217420
	5.830000	-2.140060
	5.835000	-2.281887
	5.840000	-2.352801
	5.845000	-2.201303
	5.850000	-2.127166
	5.855000	-2.272217
	5.860000	-2.339908
	5.865000	-2.194857
	5.870000	-2.127166
	5.875000	-2.262547
	5.880000	-2.330238
	5.885000	-2.185187
	5.890000	-2.117496
	5.895000	-2.262547
	5.900000	-2.323791
	5.905000	-2.178740
	5.910000	-2.111049
	5.915000	-2.259324
	5.920000	-2.323791
	5.925000	-2.169070
	5.930000	-2.098156
	5.935000	-2.246430
	5.940000	-2.310898
	5.945000	-2.162623
	5.950000	-2.094933
	5.955000	-2.236760
	5.960000	-2.304451
	5.965000	-2.159400
	5.970000	-2.082039
	5.975000	-2.223867
	5.980000	-2.291557
	5.985000	-2.146506
	5.990000	-2.069146
	5.995000	-2.220644
	6.000000	-2.285111
	6.005000	-2.136836
	6.010000	-2.069146
	6.015000	-2.214197
	6.020000	-2.275441
	6.025000	-2.130390
	6.030000	-2.065922
	6.035000	-2.207750
	6.040000	-2.278664
	6.045000	-2.123943
	6.050000	-2.059476
	6.055000	-2.204527
	6.060000	-2.262547
	6.065000	-2.114273
	6.070000	-2.053029
	6.075000	-2.201303
	6.080000	-2.252877
	6.085000	-2.111049
	6.090000	-2.040135
	6.095000	-2.191633
	6.100000	-2.249654
	6.105000	-2.098156
	6.110000	-2.027242
	6.115000	-2.178740
	6.120000	-2.243207
	6.125000	-2.085262
	6.130000	-2.024019
	6.135000	-2.175517
	6.140000	-2.230314
	6.145000	-2.082039
	6.150000	-2.024019
	6.155000	-2.169070
	6.160000	-2.223867
	6.165000	-2.078816
	6.170000	-2.014349
	6.175000	-2.165846
	6.180000	-2.223867
	6.185000	-2.069146
	6.190000	-2.017572
	6.195000	-2.156176
	6.200000	-2.214197
	6.205000	-2.069146
	6.210000	-2.014349
	6.215000	-2.159400
	6.220000	-2.210973
	6.225000	-2.059476
	6.230000	-2.007902
	6.235000	-2.156176
	6.240000	-2.210973
	6.245000	-2.056252
	6.250000	-1.998232
	6.255000	-2.136836
	6.260000	-2.194857
	6.265000	-2.040135
	6.270000	-1.978892
	6.275000	-2.123943
	6.280000	-2.188410
	6.285000	-2.030465
	6.290000	-1.978892
	6.295000	-2.127166
	6.300000	-2.191633
	6.305000	-2.040135
	6.310000	-1.998232
	6.315000	-2.152953
	6.320000	-2.214197
	6.325000	-2.069146
	6.330000	-2.030465
	6.335000	-2.198080
	6.340000	-2.262547
	6.345000	-2.120719
	6.350000	-2.075592
	6.355000	-2.252877
	6.360000	-2.323791
	6.365000	-2.185187
	6.370000	-2.156176
	6.375000	-2.327014
	6.380000	-2.404375
	6.385000	-2.268994
	6.390000	-2.239984
	6.395000	-2.420492
	6.400000	-2.504299
	6.405000	-2.359248
	6.410000	-2.314121
	6.415000	-2.488182
	6.420000	-2.565543
	6.425000	-2.414045
	6.430000	-2.359248
	6.435000	-2.523639
	6.440000	-2.565543
	6.445000	-2.410822
	6.450000	-2.349578
	6.455000	-2.504299
	6.460000	-2.549426
	6.465000	-2.385035
	6.470000	-2.323791
	6.475000	-2.488182
	6.480000	-2.539756
	6.485000	-2.378588
	6.490000	-2.314121
	6.495000	-2.468842
	6.500000	-2.523639
	6.505000	-2.362471
	6.510000	-2.310898
	6.515000	-2.475289
	6.520000	-2.526863
	6.525000	-2.362471
	6.530000	-2.307674
	6.535000	-2.481736
	6.540000	-2.536533
	6.545000	-2.365695
	6.550000	-2.314121
	6.555000	-2.472066
	6.560000	-2.497852
	6.565000	-2.327014
	6.570000	-2.249654
	6.575000	-2.391482
	6.580000	-2.420492
	6.585000	-2.227090
	6.590000	-2.146506
	6.595000	-2.285111
	6.600000	-2.307674
	6.605000	-2.114273
	6.610000	-2.046582
	6.615000	-2.188410
	6.620000	-2.210973
	6.625000	-2.024019
	6.630000	-1.965998
	6.635000	-2.101379
	6.640000	-2.133613
	6.645000	-1.959551
	6.650000	-1.895084
	6.655000	-2.049806
	6.660000	-2.085262
	6.665000	-1.914424
	6.670000	-1.856404
	6.675000	-1.998232
	6.680000	-2.036912
	6.685000	-1.872521
	6.690000	-1.817724
	6.695000	-1.962775
	6.700000	-2.001455
	6.705000	-1.830617
	6.710000	-1.775820
	6.715000	-1.920871
	6.720000	-1.949881
	6.725000	-1.785490
	6.730000	-1.724246
	6.735000	-1.872521
	6.740000	-1.914424
	6.745000	-1.746810
	6.750000	-1.698459
	6.755000	-1.849957
	6.760000	-1.885414
	6.765000	-1.714576
	6.770000	-1.669449
	6.775000	-1.827394
	6.780000	-1.856404
	6.785000	-1.698459
	6.790000	-1.659779
	6.795000	-1.814500
	6.800000	-1.849957
	6.805000	-1.688789
	6.810000	-1.643662
	6.815000	-1.801607
	6.820000	-1.843511
	6.825000	-1.675896
	6.830000	-1.630769
	6.835000	-1.795160
	6.840000	-1.830617
	6.845000	-1.666226
	6.850000	-1.627546
	6.855000	-1.775820
	6.860000	-1.817724
	6.865000	-1.656556
	6.870000	-1.614652
	6.875000	-1.772597
	6.880000	-1.808054
	6.885000	-1.640439
	6.890000	-1.604982
	6.895000	-1.766150
	6.900000	-1.801607
	6.905000	-1.633992
	6.910000	-1.601759
	6.915000	-1.753257
	6.920000	-1.795160
	6.925000	-1.633992
	6.930000	-1.595312
	6.935000	-1.756480
	6.940000	-1.798384
	6.945000	-1.633992
	6.950000	-1.598535
	6.955000	-1.762927
	6.960000	-1.791937
	6.965000	-1.630769
	6.970000	-1.604982
	6.975000	-1.762927
	6.980000	-1.801607
	6.985000	-1.640439
	6.990000	-1.604982
	6.995000	-1.762927
	7.000000	-1.804830
	7.005000	-1.650109
	7.010000	-1.614652
	7.015000	-1.775820
	7.020000	-1.808054
	7.025000	-1.656556
	7.030000	-1.624322
	7.035000	-1.785490
	7.040000	-1.827394
	7.045000	-1.666226
	7.050000	-1.630769
	7.055000	-1.798384
	7.060000	-1.833840
	7.065000	-1.675896
	7.070000	-1.643662
	7.075000	-1.801607
	7.080000	-1.846734
	7.085000	-1.682343
	7.090000	-1.653332
	7.095000	-1.811277
	7.100000	-1.846734
	7.105000	-1.685566
	7.110000	-1.653332
	7.115000	-1.820947
	7.120000	-1.853181
	7.125000	-1.695236
	7.130000	-1.663002
	7.135000	-1.827394
	7.140000	-1.866074
	7.145000	-1.708129
	7.150000	-1.675896
	7.155000	-1.837064
	7.160000	-1.872521
	7.165000	-1.717800
	7.170000	-1.688789
	7.175000	-1.849957
	7.180000	-1.885414
	7.185000	-1.733916
	7.190000	-1.698459
	7.195000	-1.862851
	7.200000	-1.888638
	7.205000	-1.730693
	7.210000	-1.708129
	7.215000	-1.875744
	7.220000	-1.907978
	7.225000	-1.746810
	7.230000	-1.721023
	7.235000	-1.878968
	7.240000	-1.911201
	7.245000	-1.750033
	7.250000	-1.727470
	7.255000	-1.891861
	7.260000	-1.924095
	7.265000	-1.759703
	7.270000	-1.737140
	7.275000	-1.898308
	7.280000	-1.927318
	7.285000	-1.762927
	7.290000	-1.743586
	7.295000	-1.901531
	7.300000	-1.933765
	7.305000	-1.769373
	7.310000	-1.743586
	7.315000	-1.917648
	7.320000	-1.940211
	7.325000	-1.779043
	7.330000	-1.756480
	7.335000	-1.924095
	7.340000	-1.946658
	7.345000	-1.795160
	7.350000	-1.759703
	7.355000	-1.927318
	7.360000	-1.962775
	7.365000	-1.785490
	7.370000	-1.772597
	7.375000	-1.933765
	7.380000	-1.959551
	7.385000	-1.801607
	7.390000	-1.782267
	7.395000	-1.943435
	7.400000	-1.972445
	7.405000	-1.801607
	7.410000	-1.779043
	7.415000	-1.946658
	7.420000	-1.975668
	7.425000	-1.808054
	7.430000	-1.791937
	7.435000	-1.953105
	7.440000	-1.978892
	7.445000	-1.817724
	7.450000	-1.791937
	7.455000	-1.959551
	7.460000	-1.978892
	7.465000	-1.811277
	7.470000	-1.795160
	7.475000	-1.965998
	7.480000	-1.985338
	7.485000	-1.824170
	7.490000	-1.804830
	7.495000	-1.965998
	7.500000	-1.988562
	7.505000	-1.820947
	7.510000	-1.811277
	7.515000	-1.969222
	7.520000	-1.998232
	7.525000	-1.830617
	7.530000	-1.811277
	7.535000	-1.978892
	7.540000	-1.991785
	7.545000	-1.830617
	7.550000	-1.817724
	7.555000	-1.982115
	7.560000	-2.001455
	7.565000	-1.827394
	7.570000	-1.808054
	7.575000	-1.985338
	7.580000	-2.001455
	7.585000	-1.830617
	7.590000	-1.817724
	7.595000	-1.978892
	7.600000	-1.995008
	7.605000	-1.833840
	7.610000	-1.811277
	7.615000	-1.978892
	7.620000	-1.988562
	7.625000	-1.820947
	7.630000	-1.811277
	7.635000	-1.978892
	7.640000	-1.988562
	7.645000	-1.824170
	7.650000	-1.814500
	7.655000	-1.972445
	7.660000	-1.988562
	7.665000	-1.820947
	7.670000	-1.808054
	7.675000	-1.969222
	7.680000	-1.995008
	7.685000	-1.830617
	7.690000	-1.814500
	7.695000	-1.975668
	7.700000	-1.988562
	7.705000	-1.817724
	7.710000	-1.811277
	7.715000	-1.972445
	7.720000	-1.991785
	7.725000	-1.824170
	7.730000	-1.808054
	7.735000	-1.975668
	7.740000	-1.978892
	7.745000	-1.817724
	7.750000	-1.804830
	7.755000	-1.972445
	7.760000	-1.985338
	7.765000	-1.814500
	7.770000	-1.811277
	7.775000	-1.965998
	7.780000	-1.988562
	7.785000	-1.811277
	7.790000	-1.801607
	7.795000	-1.978892
	7.800000	-1.982115
	7.805000	-1.814500
	7.810000	-1.804830
	7.815000	-1.972445
	7.820000	-1.972445
	7.825000	-1.820947
	7.830000	-1.801607
	7.835000	-1.978892
	7.840000	-1.988562
	7.845000	-1.817724
	7.850000	-1.808054
	7.855000	-1.978892
	7.860000	-1.982115
	7.865000	-1.811277
	7.870000	-1.808054
	7.875000	-1.978892
	7.880000	-1.982115
	7.885000	-1.814500
	7.890000	-1.811277
	7.895000	-1.975668
	7.900000	-1.985338
	7.905000	-1.814500
	7.910000	-1.814500
	7.915000	-1.978892
	7.920000	-1.982115
	7.925000	-1.820947
	7.930000	-1.811277
	7.935000	-1.978892
	7.940000	-1.988562
	7.945000	-1.817724
	7.950000	-1.811277
	7.955000	-1.985338
	7.960000	-1.975668
	7.965000	-1.817724
	7.970000	-1.811277
	7.975000	-1.988562
	7.980000	-1.985338
	7.985000	-1.817724
	7.990000	-1.811277
	7.995000	-1.978892
	8.000000	-1.982115
	8.005000	-1.817724
	8.010000	-1.811277
	8.015000	-1.982115
	8.020000	-1.985338
	8.025000	-1.817724
	8.030000	-1.817724
	8.035000	-1.988562
	8.040000	-1.985338
	8.045000	-1.817724
	8.050000	-1.808054
	8.055000	-1.982115
	8.060000	-1.985338
	8.065000	-1.820947
	8.070000	-1.820947
	8.075000	-1.988562
	8.080000	-1.985338
	8.085000	-1.814500
	8.090000	-1.814500
	8.095000	-1.985338
	8.100000	-1.988562
	8.105000	-1.814500
	8.110000	-1.814500
	8.115000	-1.985338
	8.120000	-1.982115
	8.125000	-1.814500
	8.130000	-1.820947
	8.135000	-1.985338
	8.140000	-1.975668
	8.145000	-1.814500
	8.150000	-1.817724
	8.155000	-1.988562
	8.160000	-1.985338
	8.165000	-1.814500
	8.170000	-1.820947
	8.175000	-1.982115
	8.180000	-1.975668
	8.185000	-1.814500
	8.190000	-1.820947
	8.195000	-1.978892
	8.200000	-1.978892
	8.205000	-1.811277
	8.210000	-1.820947
	8.215000	-1.985338
	8.220000	-1.978892
	8.225000	-1.811277
	8.230000	-1.820947
	8.235000	-1.988562
	8.240000	-1.975668
	8.245000	-1.808054
	8.250000	-1.820947
	8.255000	-1.988562
	8.260000	-1.975668
	8.265000	-1.808054
	8.270000	-1.820947
	8.275000	-1.985338
	8.280000	-1.978892
	8.285000	-1.808054
	8.290000	-1.824170
	8.295000	-1.985338
	8.300000	-1.982115
	8.305000	-1.811277
	8.310000	-1.817724
	8.315000	-1.985338
	8.320000	-1.975668
	8.325000	-1.808054
	8.330000	-1.817724
	8.335000	-1.988562
	8.340000	-1.975668
	8.345000	-1.808054
	8.350000	-1.820947
	8.355000	-1.985338
	8.360000	-1.972445
	8.365000	-1.811277
	8.370000	-1.817724
	8.375000	-1.982115
	8.380000	-1.965998
	8.385000	-1.804830
	8.390000	-1.811277
	8.395000	-1.985338
	8.400000	-1.972445
	8.405000	-1.808054
	8.410000	-1.814500
	8.415000	-1.985338
	8.420000	-1.965998
	8.425000	-1.801607
	8.430000	-1.808054
	8.435000	-1.972445
	8.440000	-1.965998
	8.445000	-1.795160
	8.450000	-1.808054
	8.455000	-1.972445
	8.460000	-1.962775
	8.465000	-1.798384
	8.470000	-1.814500
	8.475000	-1.972445
	8.480000	-1.959551
	8.485000	-1.801607
	8.490000	-1.808054
	8.495000	-1.975668
	8.500000	-1.969222
	8.505000	-1.795160
	8.510000	-1.804830
	8.515000	-1.975668
	8.520000	-1.959551
	8.525000	-1.791937
	8.530000	-1.804830
	8.535000	-1.975668
	8.540000	-1.956328
	8.545000	-1.791937
	8.550000	-1.804830
	8.555000	-1.972445
	8.560000	-1.959551
	8.565000	-1.788713
	8.570000	-1.801607
	8.575000	-1.972445
	8.580000	-1.953105
	8.585000	-1.788713
	8.590000	-1.804830
	8.595000	-1.975668
	8.600000	-1.959551
	8.605000	-1.791937
	8.610000	-1.804830
	8.615000	-1.972445
	8.620000	-1.956328
	8.625000	-1.782267
	8.630000	-1.808054
	8.635000	-1.972445
	8.640000	-1.953105
	8.645000	-1.785490
	8.650000	-1.801607
	8.655000	-1.978892
	8.660000	-1.946658
	8.665000	-1.785490
	8.670000	-1.808054
	8.675000	-1.972445
	8.680000	-1.946658
	8.685000	-1.788713
	8.690000	-1.804830
	8.695000	-1.972445
	8.700000	-1.949881
	8.705000	-1.785490
	8.710000	-1.804830
	8.715000	-1.965998
	8.720000	-1.949881
	8.725000	-1.779043
	8.730000	-1.808054
	8.735000	-1.975668
	8.740000	-1.953105
	8.745000	-1.779043
	8.750000	-1.804830
	8.755000	-1.975668
	8.760000	-1.949881
	8.765000	-1.782267
	8.770000	-1.808054
	8.775000	-1.972445
	8.780000	-1.943435
	8.785000	-1.782267
	8.790000	-1.811277
	8.795000	-1.969222
	8.800000	-1.943435
	8.805000	-1.785490
	8.810000	-1.811277
	8.815000	-1.975668
	8.820000	-1.943435
	8.825000	-1.785490
	8.830000	-1.811277
	8.835000	-1.969222
	8.840000	-1.946658
	8.845000	-1.782267
	8.850000	-1.811277
	8.855000	-1.965998
	8.860000	-1.943435
	8.865000	-1.775820
	8.870000	-1.804830
	8.875000	-1.965998
	8.880000	-1.940211
	8.885000	-1.779043
	8.890000	-1.804830
	8.895000	-1.969222
	8.900000	-1.946658
	8.905000	-1.782267
	8.910000	-1.804830
	8.915000	-1.969222
	8.920000	-1.936988
	8.925000	-1.779043
	8.930000	-1.804830
	8.935000	-1.965998
	8.940000	-1.940211
	8.945000	-1.772597
	8.950000	-1.808054
	8.955000	-1.969222
	8.960000	-1.930541
	8.965000	-1.779043
	8.970000	-1.804830
	8.975000	-1.969222
	8.980000	-1.933765
	8.985000	-1.769373
	8.990000	-1.801607
	8.995000	-1.969222
	9.000000	-1.930541
	9.005000	-1.769373
	9.010000	-1.804830
	9.015000	-1.965998
	9.020000	-1.930541
	9.025000	-1.769373
	9.030000	-1.811277
	9.035000	-1.965998
	9.040000	-1.936988
	9.045000	-1.766150
	9.050000	-1.804830
	9.055000	-1.965998
	9.060000	-1.927318
	9.065000	-1.775820
	9.070000	-1.801607
	9.075000	-1.962775
	9.080000	-1.933765
	9.085000	-1.769373
	9.090000	-1.804830
	9.095000	-1.962775
	9.100000	-1.920871
	9.105000	-1.766150
	9.110000	-1.798384
	9.115000	-1.962775
	9.120000	-1.917648
	9.125000	-1.762927
	9.130000	-1.798384
	9.135000	-1.962775
	9.140000	-1.917648
	9.145000	-1.762927
	9.150000	-1.798384
	9.155000	-1.953105
	9.160000	-1.920871
	9.165000	-1.759703
	9.170000	-1.791937
	9.175000	-1.959551
	9.180000	-1.917648
	9.185000	-1.759703
	9.190000	-1.791937
	9.195000	-1.959551
	9.200000	-1.914424
	9.205000	-1.756480
	9.210000	-1.795160
	9.215000	-1.953105
	9.220000	-1.911201
	9.225000	-1.753257
	9.230000	-1.795160
	9.235000	-1.949881
	9.240000	-1.907978
	9.245000	-1.750033
	9.250000	-1.788713
	9.255000	-1.949881
	9.260000	-1.911201
	9.265000	-1.753257
	9.270000	-1.791937
	9.275000	-1.949881
	9.280000	-1.914424
	9.285000	-1.753257
	9.290000	-1.791937
	9.295000	-1.949881
	9.300000	-1.911201
	9.305000	-1.756480
	9.310000	-1.785490
	9.315000	-1.949881
	9.320000	-1.904754
	9.325000	-1.753257
	9.330000	-1.788713
	9.335000	-1.959551
	9.340000	-1.907978
	9.345000	-1.746810
	9.350000	-1.788713
	9.355000	-1.953105
	9.360000	-1.904754
	9.365000	-1.743586
	9.370000	-1.798384
	9.375000	-1.953105
	9.380000	-1.911201
	9.385000	-1.756480
	9.390000	-1.791937
	9.395000	-1.949881
	9.400000	-1.914424
	9.405000	-1.753257
	9.410000	-1.791937
	9.415000	-1.959551
	9.420000	-1.911201
	9.425000	-1.759703
	9.430000	-1.808054
	9.435000	-1.969222
	9.440000	-1.914424
	9.445000	-1.762927
	9.450000	-1.811277
	9.455000	-1.959551
	9.460000	-1.917648
	9.465000	-1.769373
	9.470000	-1.808054
	9.475000	-1.972445
	9.480000	-1.920871
	9.485000	-1.766150
	9.490000	-1.808054
	9.495000	-1.972445
	9.500000	-1.927318
	9.505000	-1.772597
	9.510000	-1.820947
	9.515000	-1.978892
	9.520000	-1.920871
	9.525000	-1.766150
	9.530000	-1.820947
	9.535000	-1.978892
	9.540000	-1.927318
	9.545000	-1.775820
	9.550000	-1.820947
	9.555000	-1.978892
	9.560000	-1.927318
	9.565000	-1.779043
	9.570000	-1.817724
	9.575000	-1.982115
	9.580000	-1.930541
	9.585000	-1.769373
	9.590000	-1.824170
	9.595000	-1.985338
	9.600000	-1.930541
	9.605000	-1.772597
	9.610000	-1.830617
	9.615000	-1.972445
	9.620000	-1.936988
	9.625000	-1.779043
	9.630000	-1.830617
	9.635000	-1.985338
	9.640000	-1.930541
	9.645000	-1.788713
	9.650000	-1.830617
	9.655000	-1.991785
	9.660000	-1.933765
	9.665000	-1.788713
	9.670000	-1.843511
	9.675000	-1.995008
	9.680000	-1.940211
	9.685000	-1.791937
	9.690000	-1.843511
	9.695000	-1.998232
	9.700000	-1.940211
	9.705000	-1.791937
	9.710000	-1.849957
	9.715000	-1.998232
	9.720000	-1.949881
	9.725000	-1.795160
	9.730000	-1.853181
	9.735000	-2.004679
	9.740000	-1.949881
	9.745000	-1.798384
	9.750000	-1.856404
	9.755000	-2.001455
	9.760000	-1.943435
	9.765000	-1.798384
	9.770000	-1.853181
	9.775000	-2.004679
	9.780000	-1.949881
	9.785000	-1.798384
	9.790000	-1.859627
	9.795000	-2.007902
	9.800000	-1.946658
	9.805000	-1.795160
	9.810000	-1.856404
	9.815000	-2.007902
	9.820000	-1.943435
	9.825000	-1.795160
	9.830000	-1.846734
	9.835000	-1.995008
	9.840000	-1.927318
	9.845000	-1.775820
	9.850000	-1.820947
	9.855000	-1.962775
	9.860000	-1.904754
	9.865000	-1.733916
	9.870000	-1.788713
	9.875000	-1.920871
	9.880000	-1.846734
	9.885000	-1.704906
	9.890000	-1.756480
	9.895000	-1.888638
	9.900000	-1.824170
	9.905000	-1.663002
	9.910000	-1.724246
	9.915000	-1.866074
	9.920000	-1.795160
	9.925000	-1.643662
	9.930000	-1.698459
	9.935000	-1.833840
	9.940000	-1.775820
	9.945000	-1.627546
	9.950000	-1.685566
	9.955000	-1.824170
	9.960000	-1.762927
	9.965000	-1.617875
	9.970000	-1.675896
	9.975000	-1.817724
	9.980000	-1.750033
	9.985000	-1.608205
	9.990000	-1.666226
	9.995000	-1.808054
	10.000000	-1.746810
	10.005000	-1.595312
	10.010000	-1.663002
	10.015000	-1.795160
	10.020000	-1.743586
	10.025000	-1.604982
	10.030000	-1.656556
	10.035000	-1.801607
	10.040000	-1.740363
	10.045000	-1.598535
	10.050000	-1.663002
	10.055000	-1.804830
	10.060000	-1.740363
	10.065000	-1.604982
	10.070000	-1.659779
	10.075000	-1.808054
	10.080000	-1.746810
	10.085000	-1.604982
	10.090000	-1.672673
	10.095000	-1.811277
	10.100000	-1.750033
	10.105000	-1.611429
	10.110000	-1.666226
	10.115000	-1.811277
	10.120000	-1.750033
	10.125000	-1.614652
	10.130000	-1.679119
	10.135000	-1.811277
	10.140000	-1.746810
	10.145000	-1.611429
	10.150000	-1.675896
	10.155000	-1.817724
	10.160000	-1.746810
	10.165000	-1.617875
	10.170000	-1.682343
	10.175000	-1.814500
	10.180000	-1.756480
	10.185000	-1.611429
	10.190000	-1.679119
	10.195000	-1.820947
	10.200000	-1.746810
	10.205000	-1.608205
	10.210000	-1.679119
	10.215000	-1.817724
	10.220000	-1.737140
	10.225000	-1.604982
	10.230000	-1.672673
	10.235000	-1.804830
	10.240000	-1.740363
	10.245000	-1.601759
	10.250000	-1.669449
	10.255000	-1.808054
	10.260000	-1.737140
	10.265000	-1.595312
	10.270000	-1.666226
	10.275000	-1.798384
	10.280000	-1.727470
	10.285000	-1.595312
	10.290000	-1.653332
	10.295000	-1.791937
	10.300000	-1.721023
	10.305000	-1.585642
	10.310000	-1.656556
	10.315000	-1.785490
	10.320000	-1.717800
	10.325000	-1.588865
	10.330000	-1.659779
	10.335000	-1.791937
	10.340000	-1.727470
	10.345000	-1.592089
	10.350000	-1.656556
	10.355000	-1.795160
	10.360000	-1.724246
	10.365000	-1.595312
	10.370000	-1.656556
	10.375000	-1.798384
	10.380000	-1.727470
	10.385000	-1.595312
	10.390000	-1.669449
	10.395000	-1.814500
	10.400000	-1.750033
	10.405000	-1.621099
	10.410000	-1.698459
	10.415000	-1.846734
	10.420000	-1.785490
	10.425000	-1.659779
	10.430000	-1.750033
	10.435000	-1.904754
	10.440000	-1.827394
	10.445000	-1.717800
	10.450000	-1.804830
	10.455000	-1.965998
	10.460000	-1.898308
	10.465000	-1.775820
	10.470000	-1.862851
	10.475000	-2.017572
	10.480000	-1.956328
	10.485000	-1.827394
	10.490000	-1.920871
	10.495000	-2.078816
	10.500000	-2.014349
	10.505000	-1.891861
	10.510000	-1.988562
	10.515000	-2.140060
	10.520000	-2.072369
	10.525000	-1.953105
	10.530000	-2.043359
	10.535000	-2.210973
	10.540000	-2.146506
	10.545000	-2.024019
	10.550000	-2.120719
	10.555000	-2.272217
	10.560000	-2.201303
	10.565000	-2.072369
	10.570000	-2.162623
	10.575000	-2.317344
	10.580000	-2.227090
	10.585000	-2.078816
	10.590000	-2.165846
	10.595000	-2.301228
	10.600000	-2.207750
	10.605000	-2.056252
	10.610000	-2.136836
	10.615000	-2.275441
	10.620000	-2.178740
	10.625000	-2.036912
	10.630000	-2.114273
	10.635000	-2.243207
	10.640000	-2.159400
	10.645000	-2.014349
	10.650000	-2.091709
	10.655000	-2.236760
	10.660000	-2.149730
	10.665000	-2.017572
	10.670000	-2.094933
	10.675000	-2.230314
	10.680000	-2.152953
	10.685000	-2.004679
	10.690000	-2.094933
	10.695000	-2.230314
	10.700000	-2.136836
	10.705000	-1.985338
	10.710000	-2.049806
	10.715000	-2.172293
	10.720000	-2.059476
	10.725000	-1.904754
	10.730000	-1.965998
	10.735000	-2.085262
	10.740000	-1.978892
	10.745000	-1.814500
	10.750000	-1.882191
	10.755000	-2.007902
	10.760000	-1.901531
	10.765000	-1.746810
	10.770000	-1.817724
	10.775000	-1.943435
	10.780000	-1.840287
	10.785000	-1.698459
	10.790000	-1.772597
	10.795000	-1.895084
	10.800000	-1.798384
	10.805000	-1.656556
	10.810000	-1.746810
	10.815000	-1.869297
	10.820000	-1.782267
	10.825000	-1.643662
	10.830000	-1.730693
	10.835000	-1.866074
	10.840000	-1.772597
	10.845000	-1.633992
	10.850000	-1.721023
	10.855000	-1.849957
	10.860000	-1.756480
	10.865000	-1.621099
	10.870000	-1.701683
	10.875000	-1.837064
	10.880000	-1.740363
	10.885000	-1.608205
	10.890000	-1.692013
	10.895000	-1.820947
	10.900000	-1.730693
	10.905000	-1.595312
	10.910000	-1.679119
	10.915000	-1.798384
	10.920000	-1.701683
	10.925000	-1.566302
	10.930000	-1.653332
	10.935000	-1.779043
	10.940000	-1.679119
	10.945000	-1.543738
	10.950000	-1.630769
	10.955000	-1.750033
	10.960000	-1.656556
	10.965000	-1.517951
	10.970000	-1.601759
	10.975000	-1.717800
	10.980000	-1.627546
	10.985000	-1.485718
	10.990000	-1.572748
	10.995000	-1.695236
	11.000000	-1.588865
	11.005000	-1.456707
	11.010000	-1.537291
	11.015000	-1.663002
	11.020000	-1.559855
	11.025000	-1.430921
	11.030000	-1.521175
	11.035000	-1.640439
	11.040000	-1.550185
	11.045000	-1.424474
	11.050000	-1.508281
	11.055000	-1.633992
	11.060000	-1.537291
	11.065000	-1.405134
	11.070000	-1.501835
	11.075000	-1.624322
	11.080000	-1.527621
	11.085000	-1.398687
	11.090000	-1.498611
	11.095000	-1.614652
	11.100000	-1.521175
	11.105000	-1.395464
	11.110000	-1.485718
	11.115000	-1.611429
	11.120000	-1.517951
	11.125000	-1.398687
	11.130000	-1.495388
	11.135000	-1.614652
	11.140000	-1.508281
	11.145000	-1.385794
	11.150000	-1.488941
	11.155000	-1.611429
	11.160000	-1.511505
	11.165000	-1.392240
	11.170000	-1.488941
	11.175000	-1.611429
	11.180000	-1.517951
	11.185000	-1.392240
	11.190000	-1.488941
	11.195000	-1.617875
	11.200000	-1.514728
	11.205000	-1.405134
	11.210000	-1.501835
	11.215000	-1.621099
	11.220000	-1.534068
	11.225000	-1.411580
	11.230000	-1.505058
	11.235000	-1.630769
	11.240000	-1.534068
	11.245000	-1.414804
	11.250000	-1.521175
	11.255000	-1.640439
	11.260000	-1.543738
	11.265000	-1.418027
	11.270000	-1.524398
	11.275000	-1.650109
	11.280000	-1.546962
	11.285000	-1.430921
	11.290000	-1.530845
	11.295000	-1.650109
	11.300000	-1.553408
	11.305000	-1.430921
	11.310000	-1.540515
	11.315000	-1.656556
	11.320000	-1.563078
	11.325000	-1.434144
	11.330000	-1.540515
	11.335000	-1.656556
	11.340000	-1.550185
	11.345000	-1.443814
	11.350000	-1.540515
	11.355000	-1.659779
	11.360000	-1.566302
	11.365000	-1.443814
	11.370000	-1.543738
	11.375000	-1.669449
	11.380000	-1.566302
	11.385000	-1.450261
	11.390000	-1.550185
	11.395000	-1.675896
	11.400000	-1.566302
	11.405000	-1.453484
	11.410000	-1.559855
	11.415000	-1.679119
	11.420000	-1.575972
	11.425000	-1.459931
	11.430000	-1.566302
	11.435000	-1.685566
	11.440000	-1.579195
	11.445000	-1.459931
	11.450000	-1.575972
	11.455000	-1.688789
	11.460000	-1.585642
	11.465000	-1.472824
	11.470000	-1.575972
	11.475000	-1.695236
	11.480000	-1.588865
	11.485000	-1.482494
	11.490000	-1.588865
	11.495000	-1.701683
	11.500000	-1.592089
	11.505000	-1.485718
	11.510000	-1.588865
	11.515000	-1.698459
	11.520000	-1.595312
	11.525000	-1.482494
	11.530000	-1.585642
	11.535000	-1.708129
	11.540000	-1.598535
	11.545000	-1.485718
	11.550000	-1.598535
	11.555000	-1.708129
	11.560000	-1.601759
	11.565000	-1.495388
	11.570000	-1.598535
	11.575000	-1.711353
	11.580000	-1.611429
	11.585000	-1.492164
	11.590000	-1.601759
	11.595000	-1.711353
	11.600000	-1.604982
	11.605000	-1.495388
	11.610000	-1.604982
	11.615000	-1.717800
	11.620000	-1.611429
	11.625000	-1.501835
	11.630000	-1.611429
	11.635000	-1.724246
	11.640000	-1.611429
	11.645000	-1.498611
	11.650000	-1.614652
	11.655000	-1.721023
	11.660000	-1.608205
	11.665000	-1.508281
	11.670000	-1.614652
	11.675000	-1.727470
	11.680000	-1.611429
	11.685000	-1.511505
	11.690000	-1.611429
	11.695000	-1.730693
	11.700000	-1.614652
	11.705000	-1.508281
	11.710000	-1.614652
	11.715000	-1.730693
	11.720000	-1.621099
	11.725000	-1.511505
	11.730000	-1.614652
	11.735000	-1.724246
	11.740000	-1.611429
	11.745000	-1.505058
	11.750000	-1.624322
	11.755000	-1.733916
	11.760000	-1.627546
	11.765000	-1.514728
	11.770000	-1.624322
	11.775000	-1.730693
	11.780000	-1.621099
	11.785000	-1.505058
	11.790000	-1.624322
	11.795000	-1.730693
	11.800000	-1.614652
	11.805000	-1.508281
	11.810000	-1.621099
	11.815000	-1.727470
	11.820000	-1.617875
	11.825000	-1.508281
	11.830000	-1.621099
	11.835000	-1.737140
	11.840000	-1.614652
	11.845000	-1.511505
	11.850000	-1.630769
	11.855000	-1.724246
	11.860000	-1.614652
	11.865000	-1.501835
	11.870000	-1.621099
	11.875000	-1.727470
	11.880000	-1.617875
	11.885000	-1.511505
	11.890000	-1.617875
	11.895000	-1.730693
	11.900000	-1.611429
	11.905000	-1.505058
	11.910000	-1.614652
	11.915000	-1.730693
	11.920000	-1.608205
	11.925000	-1.501835
	11.930000	-1.617875
	11.935000	-1.724246
	11.940000	-1.598535
	11.945000	-1.501835
	11.950000	-1.617875
	11.955000	-1.717800
	11.960000	-1.604982
	11.965000	-1.505058
	11.970000	-1.624322
	11.975000	-1.730693
	11.980000	-1.611429
	11.985000	-1.501835
	11.990000	-1.624322
	11.995000	-1.724246
	12.000000	-1.601759
	12.005000	-1.508281
	12.010000	-1.617875
	12.015000	-1.730693
	12.020000	-1.601759
	12.025000	-1.505058
	12.030000	-1.624322
	12.035000	-1.724246
	12.040000	-1.601759
	12.045000	-1.501835
	12.050000	-1.627546
	12.055000	-1.727470
	12.060000	-1.604982
	12.065000	-1.501835
	12.070000	-1.624322
	12.075000	-1.727470
	12.080000	-1.604982
	12.085000	-1.498611
	12.090000	-1.624322
	12.095000	-1.724246
	12.100000	-1.601759
	12.105000	-1.505058
	12.110000	-1.621099
	12.115000	-1.733916
	12.120000	-1.598535
	12.125000	-1.505058
	12.130000	-1.627546
	12.135000	-1.724246
	12.140000	-1.604982
	12.145000	-1.505058
	12.150000	-1.621099
	12.155000	-1.727470
	12.160000	-1.604982
	12.165000	-1.508281
	12.170000	-1.627546
	12.175000	-1.733916
	12.180000	-1.601759
	12.185000	-1.505058
	12.190000	-1.627546
	12.195000	-1.730693
	12.200000	-1.601759
	12.205000	-1.508281
	12.210000	-1.630769
	12.215000	-1.733916
	12.220000	-1.608205
	12.225000	-1.508281
	12.230000	-1.637216
	12.235000	-1.733916
	12.240000	-1.601759
	12.245000	-1.511505
	12.250000	-1.640439
	12.255000	-1.733916
	12.260000	-1.608205
	12.265000	-1.511505
	12.270000	-1.633992
	12.275000	-1.730693
	12.280000	-1.611429
	12.285000	-1.514728
	12.290000	-1.633992
	12.295000	-1.740363
	12.300000	-1.604982
	12.305000	-1.511505
	12.310000	-1.637216
	12.315000	-1.737140
	12.320000	-1.614652
	12.325000	-1.514728
	12.330000	-1.643662
	12.335000	-1.746810
	12.340000	-1.608205
	12.345000	-1.517951
	12.350000	-1.640439
	12.355000	-1.740363
	12.360000	-1.611429
	12.365000	-1.517951
	12.370000	-1.646886
	12.375000	-1.740363
	12.380000	-1.621099
	12.385000	-1.521175
	12.390000	-1.646886
	12.395000	-1.740363
	12.400000	-1.611429
	12.405000	-1.527621
	12.410000	-1.650109
	12.415000	-1.737140
	12.420000	-1.614652
	12.425000	-1.521175
	12.430000	-1.653332
	12.435000	-1.743586
	12.440000	-1.611429
	12.445000	-1.521175
	12.450000	-1.656556
	12.455000	-1.743586
	12.460000	-1.621099
	12.465000	-1.521175
	12.470000	-1.646886
	12.475000	-1.740363
	12.480000	-1.617875
	12.485000	-1.524398
	12.490000	-1.650109
	12.495000	-1.737140
	12.500000	-1.614652
	12.505000	-1.514728
	12.510000	-1.646886
	12.515000	-1.743586
	12.520000	-1.604982
	12.525000	-1.530845
	12.530000	-1.653332
	12.535000	-1.743586
	12.540000	-1.614652
	12.545000	-1.521175
	12.550000	-1.659779
	12.555000	-1.740363
	12.560000	-1.601759
	12.565000	-1.524398
	12.570000	-1.650109
	12.575000	-1.746810
	12.580000	-1.604982
	12.585000	-1.521175
	12.590000	-1.650109
	12.595000	-1.743586
	12.600000	-1.604982
	12.605000	-1.530845
	12.610000	-1.659779
	12.615000	-1.737140
	12.620000	-1.604982
	12.625000	-1.527621
	12.630000	-1.656556
	12.635000	-1.743586
	12.640000	-1.608205
	12.645000	-1.521175
	12.650000	-1.656556
	12.655000	-1.740363
	12.660000	-1.608205
	12.665000	-1.521175
	12.670000	-1.653332
	12.675000	-1.740363
	12.680000	-1.604982
	12.685000	-1.521175
	12.690000	-1.656556
	12.695000	-1.733916
	12.700000	-1.604982
	12.705000	-1.521175
	12.710000	-1.656556
	12.715000	-1.740363
	12.720000	-1.604982
	12.725000	-1.524398
	12.730000	-1.666226
	12.735000	-1.740363
	12.740000	-1.601759
	12.745000	-1.527621
	12.750000	-1.656556
	12.755000	-1.740363
	12.760000	-1.601759
	12.765000	-1.524398
	12.770000	-1.653332
	12.775000	-1.740363
	12.780000	-1.601759
	12.785000	-1.521175
	12.790000	-1.656556
	12.795000	-1.740363
	12.800000	-1.601759
	12.805000	-1.527621
	12.810000	-1.663002
	12.815000	-1.743586
	12.820000	-1.608205
	12.825000	-1.517951
	12.830000	-1.666226
	12.835000	-1.750033
	12.840000	-1.604982
	12.845000	-1.527621
	12.850000	-1.659779
	12.855000	-1.740363
	12.860000	-1.611429
	12.865000	-1.527621
	12.870000	-1.669449
	12.875000	-1.746810
	12.880000	-1.604982
	12.885000	-1.534068
	12.890000	-1.669449
	12.895000	-1.740363
	12.900000	-1.598535
	12.905000	-1.527621
	12.910000	-1.669449
	12.915000	-1.746810
	12.920000	-1.608205
	12.925000	-1.530845
	12.930000	-1.666226
	12.935000	-1.740363
	12.940000	-1.604982
	12.945000	-1.530845
	12.950000	-1.672673
	12.955000	-1.746810
	12.960000	-1.608205
	12.965000	-1.527621
	12.970000	-1.669449
	12.975000	-1.746810
	12.980000	-1.598535
	12.985000	-1.530845
	12.990000	-1.666226
	12.995000	-1.746810
	13.000000	-1.601759
	13.005000	-1.534068
	13.010000	-1.666226
	13.015000	-1.743586
	13.020000	-1.604982
	13.025000	-1.530845
	13.030000	-1.669449
	13.035000	-1.753257
	13.040000	-1.598535
	13.045000	-1.530845
	13.050000	-1.669449
	13.055000	-1.746810
	13.060000	-1.601759
	13.065000	-1.530845
	13.070000	-1.669449
	13.075000	-1.746810
	13.080000	-1.604982
	13.085000	-1.534068
	13.090000	-1.669449
	13.095000	-1.743586
	13.100000	-1.601759
	13.105000	-1.530845
	13.110000	-1.685566
	13.115000	-1.746810
	13.120000	-1.601759
	13.125000	-1.527621
	13.130000	-1.675896
	13.135000	-1.743586
	13.140000	-1.598535
	13.145000	-1.527621
	13.150000	-1.669449
	13.155000	-1.743586
	13.160000	-1.598535
	13.165000	-1.534068
	13.170000	-1.675896
	13.175000	-1.746810
	13.180000	-1.604982
	13.185000	-1.534068
	13.190000	-1.675896
	13.195000	-1.750033
	13.200000	-1.601759
	13.205000	-1.534068
	13.210000	-1.675896
	13.215000	-1.753257
	13.220000	-1.601759
	13.225000	-1.530845
	13.230000	-1.675896
	13.235000	-1.750033
	13.240000	-1.601759
	13.245000	-1.534068
	13.250000	-1.679119
	13.255000	-1.746810
	13.260000	-1.601759
	13.265000	-1.537291
	13.270000	-1.672673
	13.275000	-1.746810
	13.280000	-1.595312
	13.285000	-1.530845
	13.290000	-1.679119
	13.295000	-1.750033
	13.300000	-1.601759
	13.305000	-1.537291
	13.310000	-1.679119
	13.315000	-1.746810
	13.320000	-1.598535
	13.325000	-1.524398
	13.330000	-1.682343
	13.335000	-1.743586
	13.340000	-1.598535
	13.345000	-1.534068
	13.350000	-1.679119
	13.355000	-1.743586
	13.360000	-1.598535
	13.365000	-1.530845
	13.370000	-1.679119
	13.375000	-1.746810
	13.380000	-1.601759
	13.385000	-1.534068
	13.390000	-1.682343
	13.395000	-1.740363
	13.400000	-1.588865
	13.405000	-1.527621
	13.410000	-1.679119
	13.415000	-1.740363
	13.420000	-1.598535
	13.425000	-1.540515
	13.430000	-1.685566
	13.435000	-1.743586
	13.440000	-1.592089
	13.445000	-1.530845
	13.450000	-1.685566
	13.455000	-1.746810
	13.460000	-1.588865
	13.465000	-1.530845
	13.470000	-1.679119
	13.475000	-1.737140
	13.480000	-1.592089
	13.485000	-1.527621
	13.490000	-1.675896
	13.495000	-1.730693
	13.500000	-1.585642
	13.505000	-1.530845
	13.510000	-1.682343
	13.515000	-1.737140
	13.520000	-1.592089
	13.525000	-1.527621
	13.530000	-1.679119
	13.535000	-1.740363
	13.540000	-1.595312
	13.545000	-1.530845
	13.550000	-1.679119
	13.555000	-1.743586
	13.560000	-1.595312
	13.565000	-1.530845
	13.570000	-1.682343
	13.575000	-1.737140
	13.580000	-1.598535
	13.585000	-1.534068
	13.590000	-1.692013
	13.595000	-1.743586
	13.600000	-1.595312
	13.605000	-1.543738
	13.610000	-1.688789
	13.615000	-1.743586
	13.620000	-1.592089
	13.625000	-1.540515
	13.630000	-1.688789
	13.635000	-1.743586
	13.640000	-1.601759
	13.645000	-1.540515
	13.650000	-1.685566
	13.655000	-1.743586
	13.660000	-1.595312
	13.665000	-1.546962
	13.670000	-1.695236
	13.675000	-1.746810
	13.680000	-1.595312
	13.685000	-1.546962
	13.690000	-1.688789
	13.695000	-1.753257
	13.700000	-1.601759
	13.705000	-1.550185
	13.710000	-1.695236
	13.715000	-1.753257
	13.720000	-1.601759
	13.725000	-1.543738
	13.730000	-1.698459
	13.735000	-1.750033
	13.740000	-1.601759
	13.745000	-1.550185
	13.750000	-1.698459
	13.755000	-1.750033
	13.760000	-1.604982
	13.765000	-1.553408
	13.770000	-1.698459
	13.775000	-1.750033
	13.780000	-1.598535
	13.785000	-1.546962
	13.790000	-1.704906
	13.795000	-1.756480
	13.800000	-1.595312
	13.805000	-1.546962
	13.810000	-1.695236
	13.815000	-1.756480
	13.820000	-1.601759
	13.825000	-1.553408
	13.830000	-1.701683
	13.835000	-1.753257
	13.840000	-1.604982
	13.845000	-1.553408
	13.850000	-1.708129
	13.855000	-1.756480
	13.860000	-1.604982
	13.865000	-1.550185
	13.870000	-1.704906
	13.875000	-1.756480
	13.880000	-1.598535
	13.885000	-1.553408
	13.890000	-1.708129
	13.895000	-1.753257
	13.900000	-1.604982
	13.905000	-1.553408
	13.910000	-1.714576
	13.915000	-1.753257
	13.920000	-1.601759
	13.925000	-1.556632
	13.930000	-1.711353
	13.935000	-1.759703
	13.940000	-1.598535
	13.945000	-1.559855
	13.950000	-1.711353
	13.955000	-1.753257
	13.960000	-1.598535
	13.965000	-1.556632
	13.970000	-1.708129
	13.975000	-1.759703
	13.980000	-1.604982
	13.985000	-1.556632
	13.990000	-1.708129
	13.995000	-1.753257
	14.000000	-1.592089
	14.005000	-1.556632
	14.010000	-1.704906
	14.015000	-1.746810
	14.020000	-1.588865
	14.025000	-1.546962
	14.030000	-1.704906
	14.035000	-1.746810
	14.040000	-1.598535
	14.045000	-1.556632
	14.050000	-1.704906
	14.055000	-1.746810
	14.060000	-1.592089
	14.065000	-1.553408
	14.070000	-1.708129
	14.075000	-1.746810
	14.080000	-1.588865
	14.085000	-1.556632
	14.090000	-1.704906
	14.095000	-1.753257
	14.100000	-1.592089
	14.105000	-1.546962
	14.110000	-1.708129
	14.115000	-1.743586
	14.120000	-1.585642
	14.125000	-1.550185
	14.130000	-1.701683
	14.135000	-1.746810
	14.140000	-1.579195
	14.145000	-1.546962
	14.150000	-1.701683
	14.155000	-1.746810
	14.160000	-1.592089
	14.165000	-1.546962
	14.170000	-1.704906
	14.175000	-1.743586
	14.180000	-1.585642
	14.185000	-1.546962
	14.190000	-1.698459
	14.195000	-1.743586
	14.200000	-1.585642
	14.205000	-1.546962
	14.210000	-1.708129
	14.215000	-1.746810
	14.220000	-1.579195
	14.225000	-1.546962
	14.230000	-1.708129
	14.235000	-1.746810
	14.240000	-1.579195
	14.245000	-1.556632
	14.250000	-1.708129
	14.255000	-1.750033
	14.260000	-1.588865
	14.265000	-1.553408
	14.270000	-1.708129
	14.275000	-1.750033
	14.280000	-1.592089
	14.285000	-1.556632
	14.290000	-1.711353
	14.295000	-1.750033
	14.300000	-1.595312
	14.305000	-1.553408
	14.310000	-1.711353
	14.315000	-1.746810
	14.320000	-1.585642
	14.325000	-1.550185
	14.330000	-1.711353
	14.335000	-1.733916
	14.340000	-1.579195
	14.345000	-1.550185
	14.350000	-1.717800
	14.355000	-1.743586
	14.360000	-1.585642
	14.365000	-1.546962
	14.370000	-1.708129
	14.375000	-1.737140
	14.380000	-1.579195
	14.385000	-1.553408
	14.390000	-1.701683
	14.395000	-1.737140
	14.400000	-1.582418
	14.405000	-1.550185
	14.410000	-1.708129
	14.415000	-1.733916
	14.420000	-1.582418
	14.425000	-1.550185
	14.430000	-1.701683
	14.435000	-1.737140
	14.440000	-1.575972
	14.445000	-1.540515
	14.450000	-1.701683
	14.455000	-1.727470
	14.460000	-1.566302
	14.465000	-1.534068
	14.470000	-1.698459
	14.475000	-1.724246
	14.480000	-1.566302
	14.485000	-1.540515
	14.490000	-1.698459
	14.495000	-1.724246
	14.500000	-1.569525
	14.505000	-1.540515
	14.510000	-1.695236
	14.515000	-1.727470
	14.520000	-1.572748
	14.525000	-1.546962
	14.530000	-1.701683
	14.535000	-1.727470
	14.540000	-1.579195
	14.545000	-1.546962
	14.550000	-1.701683
	14.555000	-1.733916
	14.560000	-1.575972
	14.565000	-1.546962
	14.570000	-1.701683
	14.575000	-1.730693
	14.580000	-1.569525
	14.585000	-1.550185
	14.590000	-1.704906
	14.595000	-1.730693
	14.600000	-1.559855
	14.605000	-1.534068
	14.610000	-1.701683
	14.615000	-1.727470
	14.620000	-1.569525
	14.625000	-1.540515
	14.630000	-1.692013
	14.635000	-1.727470
	14.640000	-1.559855
	14.645000	-1.534068
	14.650000	-1.688789
	14.655000	-1.714576
	14.660000	-1.559855
	14.665000	-1.527621
	14.670000	-1.682343
	14.675000	-1.708129
	14.680000	-1.550185
	14.685000	-1.527621
	14.690000	-1.682343
	14.695000	-1.698459
	14.700000	-1.543738
	14.705000	-1.527621
	14.710000	-1.679119
	14.715000	-1.698459
	14.720000	-1.540515
	14.725000	-1.524398
	14.730000	-1.679119
	14.735000	-1.698459
	14.740000	-1.534068
	14.745000	-1.517951
	14.750000	-1.672673
	14.755000	-1.692013
	14.760000	-1.543738
	14.765000	-1.521175
	14.770000	-1.679119
	14.775000	-1.695236
	14.780000	-1.546962
	14.785000	-1.521175
	14.790000	-1.672673
	14.795000	-1.695236
	14.800000	-1.540515
	14.805000	-1.527621
	14.810000	-1.685566
	14.815000	-1.688789
	14.820000	-1.543738
	14.825000	-1.527621
	14.830000	-1.682343
	14.835000	-1.704906
	14.840000	-1.546962
	14.845000	-1.530845
	14.850000	-1.682343
	14.855000	-1.708129
	14.860000	-1.543738
	14.865000	-1.534068
	14.870000	-1.688789
	14.875000	-1.708129
	14.880000	-1.546962
	14.885000	-1.530845
	14.890000	-1.688789
	14.895000	-1.708129
	14.900000	-1.556632
	14.905000	-1.540515
	14.910000	-1.695236
	14.915000	-1.708129
	14.920000	-1.550185
	14.925000	-1.537291
	14.930000	-1.698459
	14.935000	-1.711353
	14.940000	-1.553408
	14.945000	-1.534068
	14.950000	-1.701683
	14.955000	-1.711353
	14.960000	-1.546962
	14.965000	-1.540515
	14.970000	-1.708129
	14.975000	-1.711353
	14.980000	-1.550185
	14.985000	-1.543738
	14.990000	-1.698459
	14.995000	-1.708129
	15.000000	-1.550185
	15.005000	-1.537291
	15.010000	-1.701683
	15.015000	-1.714576
	15.020000	-1.550185
	15.025000	-1.543738
	15.030000	-1.704906
	15.035000	-1.708129
	15.040000	-1.556632
	15.045000	-1.543738
	15.050000	-1.701683
	15.055000	-1.708129
	15.060000	-1.559855
	15.065000	-1.543738
	15.070000	-1.701683
	15.075000	-1.711353
	15.080000	-1.553408
	15.085000	-1.543738
	15.090000	-1.701683
	15.095000	-1.711353
	15.100000	-1.556632
	15.105000	-1.543738
	15.110000	-1.695236
	15.115000	-1.717800
	15.120000	-1.559855
	15.125000	-1.550185
	15.130000	-1.714576
	15.135000	-1.730693
	15.140000	-1.579195
	15.145000	-1.572748
	15.150000	-1.746810
	15.155000	-1.753257
	15.160000	-1.604982
	15.165000	-1.598535
	15.170000	-1.779043
	15.175000	-1.791937
	15.180000	-1.640439
	15.185000	-1.643662
	15.190000	-1.824170
	15.195000	-1.833840
	15.200000	-1.688789
	15.205000	-1.695236
	15.210000	-1.878968
	15.215000	-1.907978
	15.220000	-1.762927
	15.225000	-1.785490
	15.230000	-1.962775
	15.235000	-2.004679
	15.240000	-1.856404
	15.245000	-1.878968
	15.250000	-2.072369
	15.255000	-2.098156
	15.260000	-1.956328
	15.265000	-1.975668
	15.270000	-2.169070
	15.275000	-2.191633
	15.280000	-2.024019
	15.285000	-2.024019
	15.290000	-2.204527
	15.295000	-2.204527
	15.300000	-2.020795
	15.305000	-2.011125
	15.310000	-2.169070
	15.315000	-2.149730
	15.320000	-1.972445
	15.325000	-1.953105
	15.330000	-2.117496
	15.335000	-2.104603
	15.340000	-1.936988
	15.345000	-1.927318
	15.350000	-2.098156
	15.355000	-2.088486
	15.360000	-1.920871
	15.365000	-1.924095
	15.370000	-2.088486
	15.375000	-2.098156
	15.380000	-1.927318
	15.385000	-1.930541
	15.390000	-2.107826
	15.395000	-2.114273
	15.400000	-1.946658
	15.405000	-1.943435
	15.410000	-2.120719
	15.415000	-2.114273
	15.420000	-1.936988
	15.425000	-1.930541
	15.430000	-2.091709
	15.435000	-2.065922
	15.440000	-1.888638
	15.445000	-1.872521
	15.450000	-2.020795
	15.455000	-2.007902
	15.460000	-1.820947
	15.465000	-1.801607
	15.470000	-1.949881
	15.475000	-1.930541
	15.480000	-1.750033
	15.485000	-1.737140
	15.490000	-1.891861
	15.495000	-1.878968
	15.500000	-1.688789
	15.505000	-1.682343
	15.510000	-1.833840
	15.515000	-1.814500
	15.520000	-1.637216
	15.525000	-1.630769
	15.530000	-1.782267
	15.535000	-1.762927
	15.540000	-1.588865
	15.545000	-1.582418
	15.550000	-1.740363
	15.555000	-1.721023
	15.560000	-1.540515
	15.565000	-1.537291
	15.570000	-1.695236
	15.575000	-1.679119
	15.580000	-1.501835
	15.585000	-1.505058
	15.590000	-1.659779
	15.595000	-1.643662
	15.600000	-1.472824
	15.605000	-1.466378
	15.610000	-1.624322
	15.615000	-1.604982
	15.620000	-1.434144
	15.625000	-1.434144
	15.630000	-1.595312
	15.635000	-1.572748
	15.640000	-1.395464
	15.645000	-1.395464
	15.650000	-1.559855
	15.655000	-1.534068
	15.660000	-1.363230
	15.665000	-1.366453
	15.670000	-1.527621
	15.675000	-1.508281
	15.680000	-1.343890
	15.685000	-1.340667
	15.690000	-1.501835
	15.695000	-1.479271
	15.700000	-1.318103
	15.705000	-1.327773
	15.710000	-1.476048
	15.715000	-1.456707
	15.720000	-1.295540
	15.725000	-1.301986
	15.730000	-1.456707
	15.735000	-1.443814
	15.740000	-1.276199
	15.745000	-1.282646
	15.750000	-1.440591
	15.755000	-1.424474
	15.760000	-1.260083
	15.765000	-1.276199
	15.770000	-1.424474
	15.775000	-1.408357
	15.780000	-1.243966
	15.785000	-1.256859
	15.790000	-1.411580
	15.795000	-1.401910
	15.800000	-1.237519
	15.805000	-1.253636
	15.810000	-1.401910
	15.815000	-1.392240
	15.820000	-1.234296
	15.825000	-1.247189
	15.830000	-1.411580
	15.835000	-1.392240
	15.840000	-1.237519
	15.845000	-1.253636
	15.850000	-1.408357
	15.855000	-1.401910
	15.860000	-1.243966
	15.865000	-1.256859
	15.870000	-1.424474
	15.875000	-1.408357
	15.880000	-1.256859
	15.885000	-1.269753
	15.890000	-1.427697
	15.895000	-1.414804
	15.900000	-1.260083
	15.905000	-1.272976
	15.910000	-1.440591
	15.915000	-1.421251
	15.920000	-1.266529
	15.925000	-1.282646
	15.930000	-1.450261
	15.935000	-1.427697
	15.940000	-1.266529
	15.945000	-1.289093
	15.950000	-1.453484
	15.955000	-1.437367
	15.960000	-1.279423
	15.965000	-1.292316
	15.970000	-1.456707
	15.975000	-1.443814
	15.980000	-1.289093
	15.985000	-1.308433
	15.990000	-1.466378
	15.995000	-1.437367
	16.000000	-1.292316
	16.005000	-1.308433
	16.010000	-1.466378
	16.015000	-1.450261
	16.020000	-1.295540
	16.025000	-1.314880
	16.030000	-1.482494
	16.035000	-1.466378
	16.040000	-1.301986
	16.045000	-1.321326
	16.050000	-1.488941
	16.055000	-1.463154
	16.060000	-1.314880
	16.065000	-1.327773
	16.070000	-1.492164
	16.075000	-1.469601
	16.080000	-1.311656
	16.085000	-1.340667
	16.090000	-1.498611
	16.095000	-1.472824
	16.100000	-1.311656
	16.105000	-1.340667
	16.110000	-1.508281
	16.115000	-1.479271
	16.120000	-1.327773
	16.125000	-1.343890
	16.130000	-1.508281
	16.135000	-1.482494
	16.140000	-1.327773
	16.145000	-1.353560
	16.150000	-1.514728
	16.155000	-1.482494
	16.160000	-1.330996
	16.165000	-1.350337
	16.170000	-1.514728
	16.175000	-1.495388
	16.180000	-1.337443
	16.185000	-1.360007
	16.190000	-1.521175
	16.195000	-1.492164
	16.200000	-1.340667
	16.205000	-1.363230
	16.210000	-1.527621
	16.215000	-1.498611
	16.220000	-1.340667
	16.225000	-1.369677
	16.230000	-1.524398
	16.235000	-1.501835
	16.240000	-1.347113
	16.245000	-1.379347
	16.250000	-1.530845
	16.255000	-1.505058
	16.260000	-1.350337
	16.265000	-1.376124
	16.270000	-1.543738
	16.275000	-1.517951
	16.280000	-1.356783
	16.285000	-1.385794
	16.290000	-1.546962
	16.295000	-1.514728
	16.300000	-1.353560
	16.305000	-1.382570
	16.310000	-1.550185
	16.315000	-1.517951
	16.320000	-1.356783
	16.325000	-1.395464
	16.330000	-1.553408
	16.335000	-1.527621
	16.340000	-1.366453
	16.345000	-1.398687
	16.350000	-1.553408
	16.355000	-1.521175
	16.360000	-1.366453
	16.365000	-1.401910
	16.370000	-1.553408
	16.375000	-1.524398
	16.380000	-1.363230
	16.385000	-1.398687
	16.390000	-1.563078
	16.395000	-1.527621
	16.400000	-1.372900
	16.405000	-1.401910
	16.410000	-1.556632
	16.415000	-1.524398
	16.420000	-1.372900
	16.425000	-1.408357
	16.430000	-1.563078
	16.435000	-1.534068
	16.440000	-1.376124
	16.445000	-1.408357
	16.450000	-1.563078
	16.455000	-1.534068
	16.460000	-1.376124
	16.465000	-1.414804
	16.470000	-1.563078
	16.475000	-1.530845
	16.480000	-1.372900
	16.485000	-1.418027
	16.490000	-1.572748
	16.495000	-1.537291
	16.500000	-1.376124
	16.505000	-1.411580
	16.510000	-1.569525
	16.515000	-1.537291
	16.520000	-1.376124
	16.525000	-1.411580
	16.530000	-1.575972
	16.535000	-1.543738
	16.540000	-1.379347
	16.545000	-1.414804
	16.550000	-1.582418
	16.555000	-1.540515
	16.560000	-1.385794
	16.565000	-1.424474
	16.570000	-1.579195
	16.575000	-1.540515
	16.580000	-1.382570
	16.585000	-1.427697
	16.590000	-1.588865
	16.595000	-1.543738
	16.600000	-1.382570
	16.605000	-1.430921
	16.610000	-1.585642
	16.615000	-1.550185
	16.620000	-1.389017
	16.625000	-1.434144
	16.630000	-1.585642
	16.635000	-1.550185
	16.640000	-1.389017
	16.645000	-1.430921
	16.650000	-1.592089
	16.655000	-1.553408
	16.660000	-1.395464
	16.665000	-1.440591
	16.670000	-1.595312
	16.675000	-1.546962
	16.680000	-1.398687
	16.685000	-1.443814
	16.690000	-1.604982
	16.695000	-1.546962
	16.700000	-1.401910
	16.705000	-1.437367
	16.710000	-1.595312
	16.715000	-1.559855
	16.720000	-1.405134
	16.725000	-1.447037
	16.730000	-1.601759
	16.735000	-1.553408
	16.740000	-1.401910
	16.745000	-1.456707
	16.750000	-1.598535
	16.755000	-1.556632
	16.760000	-1.401910
	16.765000	-1.443814
	16.770000	-1.595312
	16.775000	-1.556632
	16.780000	-1.405134
	16.785000	-1.450261
	16.790000	-1.598535
	16.795000	-1.553408
	16.800000	-1.405134
	16.805000	-1.447037
	16.810000	-1.598535
	16.815000	-1.556632
	16.820000	-1.411580
	16.825000	-1.450261
	16.830000	-1.598535
	16.835000	-1.563078
	16.840000	-1.405134
	16.845000	-1.459931
	16.850000	-1.611429
	16.855000	-1.563078
	16.860000	-1.411580
	16.865000	-1.456707
	16.870000	-1.604982
	16.875000	-1.553408
	16.880000	-1.408357
	16.885000	-1.453484
	16.890000	-1.611429
	16.895000	-1.559855
	16.900000	-1.411580
	16.905000	-1.456707
	16.910000	-1.617875
	16.915000	-1.556632
	16.920000	-1.405134
	16.925000	-1.459931
	16.930000	-1.617875
	16.935000	-1.566302
	16.940000	-1.408357
	16.945000	-1.466378
	16.950000	-1.611429
	16.955000	-1.569525
	16.960000	-1.414804
	16.965000	-1.463154
	16.970000	-1.614652
	16.975000	-1.569525
	16.980000	-1.418027
	16.985000	-1.469601
	16.990000	-1.624322
	16.995000	-1.566302
	17.000000	-1.414804
	17.005000	-1.469601
	17.010000	-1.617875
	17.015000	-1.559855
	17.020000	-1.414804
	17.025000	-1.469601
	17.030000	-1.621099
	17.035000	-1.569525
	17.040000	-1.418027
	17.045000	-1.469601
	17.050000	-1.624322
	17.055000	-1.572748
	17.060000	-1.411580
	17.065000	-1.466378
	17.070000	-1.621099
	17.075000	-1.566302
	17.080000	-1.411580
	17.085000	-1.469601
	17.090000	-1.627546
	17.095000	-1.566302
	17.100000	-1.414804
	17.105000	-1.476048
	17.110000	-1.627546
	17.115000	-1.569525
	17.120000	-1.414804
	17.125000	-1.476048
	17.130000	-1.627546
	17.135000	-1.575972
	17.140000	-1.424474
	17.145000	-1.479271
	17.150000	-1.630769
	17.155000	-1.566302
	17.160000	-1.418027
	17.165000	-1.476048
	17.170000	-1.630769
	17.175000	-1.575972
	17.180000	-1.414804
	17.185000	-1.476048
	17.190000	-1.630769
	17.195000	-1.572748
	17.200000	-1.411580
	17.205000	-1.479271
	17.210000	-1.627546
	17.215000	-1.572748
	17.220000	-1.424474
	17.225000	-1.485718
	17.230000	-1.633992
	17.235000	-1.575972
	17.240000	-1.424474
	17.245000	-1.482494
	17.250000	-1.633992
	17.255000	-1.572748
	17.260000	-1.427697
	17.265000	-1.492164
	17.270000	-1.633992
	17.275000	-1.572748
	17.280000	-1.434144
	17.285000	-1.492164
	17.290000	-1.640439
	17.295000	-1.579195
	17.300000	-1.430921
	17.305000	-1.485718
	17.310000	-1.640439
	17.315000	-1.572748
	17.320000	-1.430921
	17.325000	-1.495388
	17.330000	-1.646886
	17.335000	-1.575972
	17.340000	-1.430921
	17.345000	-1.495388
	17.350000	-1.643662
	17.355000	-1.579195
	17.360000	-1.434144
	17.365000	-1.492164
	17.370000	-1.643662
	17.375000	-1.579195
	17.380000	-1.430921
	17.385000	-1.495388
	17.390000	-1.643662
	17.395000	-1.585642
	17.400000	-1.434144
	17.405000	-1.492164
	17.410000	-1.646886
	17.415000	-1.579195
	17.420000	-1.437367
	17.425000	-1.505058
	17.430000	-1.650109
	17.435000	-1.579195
	17.440000	-1.430921
	17.445000	-1.501835
	17.450000	-1.643662
	17.455000	-1.585642
	17.460000	-1.434144
	17.465000	-1.501835
	17.470000	-1.646886
	17.475000	-1.575972
	17.480000	-1.437367
	17.485000	-1.498611
	17.490000	-1.646886
	17.495000	-1.579195
	17.500000	-1.430921
	17.505000	-1.498611
	17.510000	-1.643662
	17.515000	-1.575972
	17.520000	-1.430921
	17.525000	-1.501835
	17.530000	-1.653332
	17.535000	-1.572748
	17.540000	-1.437367
	17.545000	-1.501835
	17.550000	-1.643662
	17.555000	-1.579195
	17.560000	-1.440591
	17.565000	-1.501835
	17.570000	-1.643662
	17.575000	-1.572748
	17.580000	-1.437367
	17.585000	-1.495388
	17.590000	-1.650109
	17.595000	-1.575972
	17.600000	-1.427697
	17.605000	-1.505058
	17.610000	-1.646886
	17.615000	-1.585642
	17.620000	-1.434144
	17.625000	-1.505058
	17.630000	-1.646886
	17.635000	-1.575972
	17.640000	-1.430921
	17.645000	-1.505058
	17.650000	-1.653332
	17.655000	-1.579195
	17.660000	-1.430921
	17.665000	-1.505058
	17.670000	-1.650109
	17.675000	-1.579195
	17.680000	-1.434144
	17.685000	-1.511505
	17.690000	-1.653332
	17.695000	-1.575972
	17.700000	-1.434144
	17.705000	-1.514728
	17.710000	-1.653332
	17.715000	-1.575972
	17.720000	-1.430921
	17.725000	-1.517951
	17.730000	-1.663002
	17.735000	-1.582418
	17.740000	-1.437367
	17.745000	-1.508281
	17.750000	-1.659779
	17.755000	-1.582418
	17.760000	-1.437367
	17.765000	-1.514728
	17.770000	-1.659779
	17.775000	-1.582418
	17.780000	-1.443814
	17.785000	-1.517951
	17.790000	-1.653332
	17.795000	-1.579195
	17.800000	-1.440591
	17.805000	-1.517951
	17.810000	-1.656556
	17.815000	-1.579195
	17.820000	-1.440591
	17.825000	-1.524398
	17.830000	-1.656556
	17.835000	-1.579195
	17.840000	-1.447037
	17.845000	-1.514728
	17.850000	-1.650109
	17.855000	-1.585642
	17.860000	-1.443814
	17.865000	-1.527621
	17.870000	-1.659779
	17.875000	-1.579195
	17.880000	-1.440591
	17.885000	-1.524398
	17.890000	-1.659779
	17.895000	-1.585642
	17.900000	-1.440591
	17.905000	-1.521175
	17.910000	-1.659779
	17.915000	-1.579195
	17.920000	-1.443814
	17.925000	-1.517951
	17.930000	-1.659779
	17.935000	-1.579195
	17.940000	-1.440591
	17.945000	-1.524398
	17.950000	-1.669449
	17.955000	-1.582418
	17.960000	-1.447037
	17.965000	-1.527621
	17.970000	-1.663002
	17.975000	-1.582418
	17.980000	-1.437367
	17.985000	-1.524398
	17.990000	-1.659779
	17.995000	-1.579195
	18.000000	-1.447037
	18.005000	-1.527621
	18.010000	-1.656556
	18.015000	-1.582418
	18.020000	-1.447037
	18.025000	-1.524398
	18.030000	-1.659779
	18.035000	-1.572748
	18.040000	-1.440591
	18.045000	-1.530845
	18.050000	-1.656556
	18.055000	-1.579195
	18.060000	-1.440591
	18.065000	-1.524398
	18.070000	-1.663002
	18.075000	-1.579195
	18.080000	-1.450261
	18.085000	-1.524398
	18.090000	-1.663002
	18.095000	-1.582418
	18.100000	-1.447037
	18.105000	-1.527621
	18.110000	-1.663002
	18.115000	-1.575972
	18.120000	-1.447037
	18.125000	-1.527621
	18.130000	-1.672673
	18.135000	-1.579195
	18.140000	-1.443814
	18.145000	-1.527621
	18.150000	-1.666226
	18.155000	-1.575972
	18.160000	-1.443814
	18.165000	-1.530845
	18.170000	-1.669449
	18.175000	-1.579195
	18.180000	-1.447037
	18.185000	-1.534068
	18.190000	-1.666226
	18.195000	-1.579195
	18.200000	-1.443814
	18.205000	-1.537291
	18.210000	-1.663002
	18.215000	-1.575972
	18.220000	-1.440591
	18.225000	-1.534068
	18.230000	-1.669449
	18.235000	-1.582418
	18.240000	-1.450261
	18.245000	-1.530845
	18.250000	-1.666226
	18.255000	-1.572748
	18.260000	-1.447037
	18.265000	-1.530845
	18.270000	-1.666226
	18.275000	-1.572748
	18.280000	-1.440591
	18.285000	-1.537291
	18.290000	-1.666226
	18.295000	-1.572748
	18.300000	-1.447037
	18.305000	-1.540515
	18.310000	-1.669449
	18.315000	-1.582418
	18.320000	-1.443814
	18.325000	-1.543738
	18.330000	-1.669449
	18.335000	-1.582418
	18.340000	-1.447037
	18.345000	-1.543738
	18.350000	-1.669449
	18.355000	-1.572748
	18.360000	-1.453484
	18.365000	-1.534068
	18.370000	-1.675896
	18.375000	-1.575972
	18.380000	-1.447037
	18.385000	-1.550185
	18.390000	-1.672673
	18.395000	-1.579195
	18.400000	-1.450261
	18.405000	-1.540515
	18.410000	-1.669449
	18.415000	-1.575972
	18.420000	-1.453484
	18.425000	-1.543738
	18.430000	-1.675896
	18.435000	-1.579195
	18.440000	-1.450261
	18.445000	-1.550185
	18.450000	-1.675896
	18.455000	-1.585642
	18.460000	-1.453484
	18.465000	-1.550185
	18.470000	-1.669449
	18.475000	-1.579195
	18.480000	-1.456707
	18.485000	-1.546962
	18.490000	-1.675896
	18.495000	-1.579195
	18.500000	-1.450261
	18.505000	-1.553408
	18.510000	-1.675896
	18.515000	-1.575972
	18.520000	-1.450261
	18.525000	-1.553408
	18.530000	-1.675896
	18.535000	-1.579195
	18.540000	-1.453484
	18.545000	-1.550185
	18.550000	-1.669449
	18.555000	-1.579195
	18.560000	-1.450261
	18.565000	-1.553408
	18.570000	-1.672673
	18.575000	-1.579195
	18.580000	-1.447037
	18.585000	-1.553408
	18.590000	-1.675896
	18.595000	-1.575972
	18.600000	-1.447037
	18.605000	-1.550185
	18.610000	-1.679119
	18.615000	-1.572748
	18.620000	-1.453484
	18.625000	-1.550185
	18.630000	-1.672673
	18.635000	-1.572748
	18.640000	-1.450261
	18.645000	-1.550185
	18.650000	-1.675896
	18.655000	-1.575972
	18.660000	-1.456707
	18.665000	-1.550185
	18.670000	-1.679119
	18.675000	-1.575972
	18.680000	-1.450261
	18.685000	-1.556632
	18.690000	-1.682343
	18.695000	-1.572748
	18.700000	-1.450261
	18.705000	-1.556632
	18.710000	-1.682343
	18.715000	-1.582418
	18.720000	-1.447037
	18.725000	-1.556632
	18.730000	-1.679119
	18.735000	-1.579195
	18.740000	-1.463154
	18.745000	-1.563078
	18.750000	-1.682343
	18.755000	-1.575972
	18.760000	-1.456707
	18.765000	-1.563078
	18.770000	-1.685566
	18.775000	-1.585642
	18.780000	-1.459931
	18.785000	-1.559855
	18.790000	-1.688789
	18.795000	-1.575972
	18.800000	-1.456707
	18.805000	-1.566302
	18.810000	-1.685566
	18.815000	-1.582418
	18.820000	-1.463154
	18.825000	-1.566302
	18.830000	-1.685566
	18.835000	-1.579195
	18.840000	-1.463154
	18.845000	-1.572748
	18.850000	-1.688789
	18.855000	-1.579195
	18.860000	-1.463154
	18.865000	-1.563078
	18.870000	-1.692013
	18.875000	-1.579195
	18.880000	-1.459931
	18.885000	-1.569525
	18.890000	-1.695236
	18.895000	-1.579195
	18.900000	-1.463154
	18.905000	-1.575972
	18.910000	-1.692013
	18.915000	-1.572748
	18.920000	-1.466378
	18.925000	-1.579195
	18.930000	-1.695236
	18.935000	-1.582418
	18.940000	-1.469601
	18.945000	-1.569525
	18.950000	-1.688789
	18.955000	-1.579195
	18.960000	-1.466378
	18.965000	-1.572748
	18.970000	-1.688789
	18.975000	-1.579195
	18.980000	-1.463154
	18.985000	-1.582418
	18.990000	-1.688789
	18.995000	-1.579195
	19.000000	-1.459931
	19.005000	-1.572748
	19.010000	-1.688789
	19.015000	-1.575972
	19.020000	-1.463154
	19.025000	-1.582418
	19.030000	-1.692013
	19.035000	-1.579195
	19.040000	-1.466378
	19.045000	-1.579195
	19.050000	-1.695236
	19.055000	-1.579195
	19.060000	-1.466378
	19.065000	-1.579195
	19.070000	-1.695236
	19.075000	-1.575972
	19.080000	-1.459931
	19.085000	-1.579195
	19.090000	-1.692013
	19.095000	-1.572748
	19.100000	-1.463154
	19.105000	-1.582418
	19.110000	-1.688789
	19.115000	-1.575972
	19.120000	-1.459931
	19.125000	-1.575972
	19.130000	-1.682343
	19.135000	-1.572748
	19.140000	-1.453484
	19.145000	-1.566302
	19.150000	-1.679119
	19.155000	-1.556632
	19.160000	-1.450261
	19.165000	-1.566302
	19.170000	-1.669449
	19.175000	-1.546962
	19.180000	-1.440591
	19.185000	-1.546962
	19.190000	-1.659779
	19.195000	-1.540515
	19.200000	-1.430921
	19.205000	-1.546962
	19.210000	-1.650109
	19.215000	-1.527621
	19.220000	-1.418027
	19.225000	-1.540515
	19.230000	-1.650109
	19.235000	-1.534068
	19.240000	-1.424474
	19.245000	-1.540515
	19.250000	-1.650109
	19.255000	-1.530845
	19.260000	-1.434144
	19.265000	-1.546962
	19.270000	-1.650109
	19.275000	-1.546962
	19.280000	-1.430921
	19.285000	-1.556632
	19.290000	-1.656556
	19.295000	-1.553408
	19.300000	-1.443814
	19.305000	-1.559855
	19.310000	-1.663002
	19.315000	-1.553408
	19.320000	-1.443814
	19.325000	-1.569525
	19.330000	-1.669449
	19.335000	-1.556632
	19.340000	-1.450261
	19.345000	-1.572748
	19.350000	-1.675896
	19.355000	-1.563078
	19.360000	-1.456707
	19.365000	-1.572748
	19.370000	-1.675896
	19.375000	-1.559855
	19.380000	-1.450261
	19.385000	-1.572748
	19.390000	-1.679119
	19.395000	-1.556632
	19.400000	-1.453484
	19.405000	-1.575972
	19.410000	-1.679119
	19.415000	-1.553408
	19.420000	-1.459931
	19.425000	-1.572748
	19.430000	-1.669449
	19.435000	-1.556632
	19.440000	-1.459931
	19.445000	-1.566302
	19.450000	-1.679119
	19.455000	-1.553408
	19.460000	-1.456707
	19.465000	-1.572748
	19.470000	-1.669449
	19.475000	-1.546962
	19.480000	-1.450261
	19.485000	-1.569525
	19.490000	-1.666226
	19.495000	-1.546962
	19.500000	-1.453484
	19.505000	-1.575972
	19.510000	-1.666226
	19.515000	-1.543738
	19.520000	-1.453484
	19.525000	-1.575972
	19.530000	-1.659779
	19.535000	-1.543738
	19.540000	-1.453484
	19.545000	-1.563078
	19.550000	-1.663002
	19.555000	-1.553408
	19.560000	-1.450261
	19.565000	-1.569525
	19.570000	-1.666226
	19.575000	-1.543738
	19.580000	-1.443814
	19.585000	-1.556632
	19.590000	-1.656556
	19.595000	-1.534068
	19.600000	-1.434144
	19.605000	-1.559855
	19.610000	-1.653332
	19.615000	-1.530845
	19.620000	-1.434144
	19.625000	-1.546962
	19.630000	-1.650109
	19.635000	-1.517951
	19.640000	-1.418027
	19.645000	-1.540515
	19.650000	-1.637216
	19.655000	-1.514728
	19.660000	-1.421251
	19.665000	-1.546962
	19.670000	-1.630769
	19.675000	-1.514728
	19.680000	-1.418027
	19.685000	-1.534068
	19.690000	-1.633992
	19.695000	-1.508281
	19.700000	-1.414804
	19.705000	-1.530845
	19.710000	-1.630769
	19.715000	-1.505058
	19.720000	-1.414804
	19.725000	-1.530845
	19.730000	-1.627546
	19.735000	-1.505058
	19.740000	-1.414804
	19.745000	-1.537291
	19.750000	-1.627546
	19.755000	-1.508281
	19.760000	-1.408357
	19.765000	-1.534068
	19.770000	-1.630769
	19.775000	-1.514728
	19.780000	-1.421251
	19.785000	-1.546962
	19.790000	-1.653332
	19.795000	-1.527621
	19.800000	-1.440591
	19.805000	-1.579195
	19.810000	-1.675896
	19.815000	-1.546962
	19.820000	-1.469601
	19.825000	-1.604982
	19.830000	-1.704906
	19.835000	-1.582418
	19.840000	-1.505058
	19.845000	-1.637216
	19.850000	-1.737140
	19.855000	-1.614652
	19.860000	-1.534068
	19.865000	-1.669449
	19.870000	-1.769373
	19.875000	-1.659779
	19.880000	-1.575972
	19.885000	-1.708129
	19.890000	-1.824170
	19.895000	-1.701683
	19.900000	-1.617875
	19.905000	-1.762927
	19.910000	-1.878968
	19.915000	-1.753257
	19.920000	-1.688789
	19.925000	-1.837064
	19.930000	-1.943435
	19.935000	-1.840287
	19.940000	-1.772597
	19.945000	-1.930541
	19.950000	-2.036912
	19.955000	-1.920871
	19.960000	-1.843511
	19.965000	-1.995008
	19.970000	-2.094933
	19.975000	-1.962775
	19.980000	-1.885414
	19.985000	-2.017572
	19.990000	-2.111049
	19.995000	-1.978892
	20.000000	-1.882191
	20.005000	-2.011125
	20.010000	-2.094933
	20.015000	-1.962775
	20.020000	-1.862851
	20.025000	-1.995008
	20.030000	-2.085262
	20.035000	-1.953105
	20.040000	-1.862851
	20.045000	-1.988562
	20.050000	-2.085262
	20.055000	-1.946658
	20.060000	-1.856404
	20.065000	-1.985338
	20.070000	-2.072369
	20.075000	-1.927318
	20.080000	-1.843511
	20.085000	-1.962775
	20.090000	-2.049806
	20.095000	-1.904754
	20.100000	-1.814500
	20.105000	-1.940211
	20.110000	-2.014349
	20.115000	-1.859627
	20.120000	-1.762927
	20.125000	-1.882191
	20.130000	-1.953105
	20.135000	-1.811277
	20.140000	-1.708129
	20.145000	-1.837064
	20.150000	-1.904754
	20.155000	-1.756480
	20.160000	-1.659779
	20.165000	-1.788713
	20.170000	-1.859627
	20.175000	-1.714576
	20.180000	-1.611429
	20.185000	-1.750033
	20.190000	-1.820947
	20.195000	-1.669449
	20.200000	-1.579195
	20.205000	-1.717800
	20.210000	-1.785490
	20.215000	-1.640439
	20.220000	-1.553408
	20.225000	-1.688789
	20.230000	-1.766150
	20.235000	-1.614652
	20.240000	-1.530845
	20.245000	-1.663002
	20.250000	-1.737140
	20.255000	-1.595312
	20.260000	-1.505058
	20.265000	-1.637216
	20.270000	-1.714576
	20.275000	-1.566302
	20.280000	-1.479271
	20.285000	-1.611429
	20.290000	-1.688789
	20.295000	-1.543738
	20.300000	-1.443814
	20.305000	-1.575972
	20.310000	-1.653332
	20.315000	-1.498611
	20.320000	-1.414804
	20.325000	-1.550185
	20.330000	-1.617875
	20.335000	-1.469601
	20.340000	-1.382570
	20.345000	-1.517951
	20.350000	-1.582418
	20.355000	-1.437367
	20.360000	-1.353560
	20.365000	-1.479271
	20.370000	-1.553408
	20.375000	-1.408357
	20.380000	-1.324550
	20.385000	-1.456707
	20.390000	-1.530845
	20.395000	-1.389017
	20.400000	-1.308433
	20.405000	-1.437367
	20.410000	-1.511505
	20.415000	-1.366453
	20.420000	-1.289093
	20.425000	-1.424474
	20.430000	-1.495388
	20.435000	-1.356783
	20.440000	-1.279423
	20.445000	-1.408357
	20.450000	-1.488941
	20.455000	-1.340667
	20.460000	-1.263306
	20.465000	-1.398687
	20.470000	-1.472824
	20.475000	-1.327773
	20.480000	-1.250413
	20.485000	-1.389017
	20.490000	-1.456707
	20.495000	-1.318103
	20.500000	-1.243966
	20.505000	-1.389017
	20.510000	-1.450261
	20.515000	-1.314880
	20.520000	-1.237519
	20.525000	-1.372900
	20.530000	-1.453484
	20.535000	-1.308433
	20.540000	-1.237519
	20.545000	-1.376124
	20.550000	-1.447037
	20.555000	-1.314880
	20.560000	-1.243966
	20.565000	-1.379347
	20.570000	-1.450261
	20.575000	-1.314880
	20.580000	-1.243966
	20.585000	-1.392240
	20.590000	-1.459931
	20.595000	-1.324550
	20.600000	-1.250413
	20.605000	-1.395464
	20.610000	-1.469601
	20.615000	-1.324550
	20.620000	-1.253636
	20.625000	-1.408357
	20.630000	-1.476048
	20.635000	-1.340667
	20.640000	-1.266529
	20.645000	-1.421251
	20.650000	-1.482494
	20.655000	-1.340667
	20.660000	-1.279423
	20.665000	-1.427697
	20.670000	-1.495388
	20.675000	-1.350337
	20.680000	-1.282646
	20.685000	-1.427697
	20.690000	-1.492164
	20.695000	-1.356783
	20.700000	-1.289093
	20.705000	-1.443814
	20.710000	-1.511505
	20.715000	-1.369677
	20.720000	-1.292316
	20.725000	-1.443814
	20.730000	-1.514728
	20.735000	-1.366453
	20.740000	-1.305210
	20.745000	-1.450261
	20.750000	-1.517951
	20.755000	-1.372900
	20.760000	-1.314880
	20.765000	-1.463154
	20.770000	-1.537291
	20.775000	-1.379347
	20.780000	-1.314880
	20.785000	-1.469601
	20.790000	-1.534068
	20.795000	-1.389017
	20.800000	-1.324550
	20.805000	-1.472824
	20.810000	-1.540515
	20.815000	-1.389017
	20.820000	-1.334220
	20.825000	-1.476048
	20.830000	-1.543738
	20.835000	-1.405134
	20.840000	-1.334220
	20.845000	-1.482494
	20.850000	-1.546962
	20.855000	-1.398687
	20.860000	-1.337443
	20.865000	-1.482494
	20.870000	-1.550185
	20.875000	-1.392240
	20.880000	-1.343890
	20.885000	-1.485718
	20.890000	-1.550185
	20.895000	-1.401910
	20.900000	-1.350337
	20.905000	-1.495388
	20.910000	-1.553408
	20.915000	-1.408357
	20.920000	-1.343890
	20.925000	-1.492164
	20.930000	-1.556632
	20.935000	-1.408357
	20.940000	-1.350337
	20.945000	-1.492164
	20.950000	-1.559855
	20.955000	-1.405134
	20.960000	-1.350337
	20.965000	-1.498611
	20.970000	-1.563078
	20.975000	-1.418027
	20.980000	-1.356783
	20.985000	-1.508281
	20.990000	-1.563078
	20.995000	-1.418027
	21.000000	-1.360007
	21.005000	-1.508281
	21.010000	-1.566302
	21.015000	-1.418027
	21.020000	-1.356783
	21.025000	-1.511505
	21.030000	-1.566302
	21.035000	-1.421251
	21.040000	-1.366453
	21.045000	-1.521175
	21.050000	-1.575972
	21.055000	-1.427697
	21.060000	-1.366453
	21.065000	-1.521175
	21.070000	-1.585642
	21.075000	-1.427697
	21.080000	-1.372900
	21.085000	-1.524398
	21.090000	-1.579195
	21.095000	-1.424474
	21.100000	-1.366453
	21.105000	-1.524398
	21.110000	-1.575972
	21.115000	-1.424474
	21.120000	-1.379347
	21.125000	-1.524398
	21.130000	-1.582418
	21.135000	-1.427697
	21.140000	-1.382570
	21.145000	-1.534068
	21.150000	-1.588865
	21.155000	-1.437367
	21.160000	-1.385794
	21.165000	-1.540515
	21.170000	-1.595312
	21.175000	-1.434144
	21.180000	-1.382570
	21.185000	-1.543738
	21.190000	-1.601759
	21.195000	-1.440591
	21.200000	-1.385794
	21.205000	-1.546962
	21.210000	-1.598535
	21.215000	-1.440591
	21.220000	-1.392240
	21.225000	-1.540515
	21.230000	-1.601759
	21.235000	-1.440591
	21.240000	-1.392240
	21.245000	-1.553408
	21.250000	-1.598535
	21.255000	-1.450261
	21.260000	-1.398687
	21.265000	-1.553408
	21.270000	-1.601759
	21.275000	-1.453484
	21.280000	-1.401910
	21.285000	-1.546962
	21.290000	-1.608205
	21.295000	-1.447037
	21.300000	-1.401910
	21.305000	-1.563078
	21.310000	-1.614652
	21.315000	-1.447037
	21.320000	-1.395464
	21.325000	-1.559855
	21.330000	-1.608205
	21.335000	-1.456707
	21.340000	-1.405134
	21.345000	-1.566302
	21.350000	-1.611429
	21.355000	-1.456707
	21.360000	-1.408357
	21.365000	-1.566302
	21.370000	-1.617875
	21.375000	-1.456707
	21.380000	-1.408357
	21.385000	-1.575972
	21.390000	-1.614652
	21.395000	-1.463154
	21.400000	-1.414804
	21.405000	-1.572748
	21.410000	-1.614652
	21.415000	-1.463154
	21.420000	-1.414804
	21.425000	-1.579195
	21.430000	-1.621099
	21.435000	-1.463154
	21.440000	-1.414804
	21.445000	-1.572748
	21.450000	-1.624322
	21.455000	-1.459931
	21.460000	-1.418027
	21.465000	-1.582418
	21.470000	-1.624322
	21.475000	-1.463154
	21.480000	-1.418027
	21.485000	-1.582418
	21.490000	-1.624322
	21.495000	-1.463154
	21.500000	-1.421251
	21.505000	-1.579195
	21.510000	-1.627546
	21.515000	-1.466378
	21.520000	-1.421251
	21.525000	-1.582418
	21.530000	-1.627546
	21.535000	-1.466378
	21.540000	-1.424474
	21.545000	-1.588865
	21.550000	-1.621099
	21.555000	-1.463154
	21.560000	-1.427697
	21.565000	-1.588865
	21.570000	-1.624322
	21.575000	-1.466378
	21.580000	-1.424474
	21.585000	-1.582418
	21.590000	-1.627546
	21.595000	-1.469601
	21.600000	-1.427697
	21.605000	-1.585642
	21.610000	-1.630769
	21.615000	-1.463154
	21.620000	-1.427697
	21.625000	-1.595312
	21.630000	-1.624322
	21.635000	-1.469601
	21.640000	-1.430921
	21.645000	-1.592089
	21.650000	-1.627546
	21.655000	-1.469601
	21.660000	-1.437367
	21.665000	-1.592089
	21.670000	-1.630769
	21.675000	-1.472824
	21.680000	-1.427697
	21.685000	-1.592089
	21.690000	-1.633992
	21.695000	-1.469601
	21.700000	-1.434144
	21.705000	-1.598535
	21.710000	-1.627546
	21.715000	-1.479271
	21.720000	-1.430921
	21.725000	-1.595312
	21.730000	-1.630769
	21.735000	-1.476048
	21.740000	-1.430921
	21.745000	-1.598535
	21.750000	-1.633992
	21.755000	-1.469601
	21.760000	-1.434144
	21.765000	-1.595312
	21.770000	-1.633992
	21.775000	-1.476048
	21.780000	-1.437367
	21.785000	-1.601759
	21.790000	-1.621099
	21.795000	-1.469601
	21.800000	-1.430921
	21.805000	-1.595312
	21.810000	-1.633992
	21.815000	-1.469601
	21.820000	-1.437367
	21.825000	-1.598535
	21.830000	-1.630769
	21.835000	-1.469601
	21.840000	-1.437367
	21.845000	-1.601759
	21.850000	-1.630769
	21.855000	-1.476048
	21.860000	-1.437367
	21.865000	-1.611429
	21.870000	-1.637216
	21.875000	-1.479271
	21.880000	-1.443814
	21.885000	-1.601759
	21.890000	-1.637216
	21.895000	-1.479271
	21.900000	-1.447037
	21.905000	-1.604982
	21.910000	-1.637216
	21.915000	-1.476048
	21.920000	-1.447037
	21.925000	-1.604982
	21.930000	-1.640439
	21.935000	-1.479271
	21.940000	-1.450261
	21.945000	-1.611429
	21.950000	-1.637216
	21.955000	-1.472824
	21.960000	-1.453484
	21.965000	-1.608205
	21.970000	-1.637216
	21.975000	-1.476048
	21.980000	-1.450261
	21.985000	-1.604982
	21.990000	-1.637216
	21.995000	-1.472824
	22.000000	-1.447037
	22.005000	-1.611429
	22.010000	-1.646886
	22.015000	-1.479271
	22.020000	-1.453484
	22.025000	-1.617875
	22.030000	-1.643662
	22.035000	-1.482494
	22.040000	-1.453484
	22.045000	-1.614652
	22.050000	-1.637216
	22.055000	-1.482494
	22.060000	-1.450261
	22.065000	-1.621099
	22.070000	-1.640439
	22.075000	-1.476048
	22.080000	-1.453484
	22.085000	-1.614652
	22.090000	-1.643662
	22.095000	-1.479271
	22.100000	-1.456707
	22.105000	-1.614652
	22.110000	-1.650109
	22.115000	-1.472824
	22.120000	-1.456707
	22.125000	-1.627546
	22.130000	-1.640439
	22.135000	-1.479271
	22.140000	-1.450261
	22.145000	-1.624322
	22.150000	-1.643662
	22.155000	-1.476048
	22.160000	-1.459931
	22.165000	-1.624322
	22.170000	-1.640439
	22.175000	-1.476048
	22.180000	-1.453484
	22.185000	-1.624322
	22.190000	-1.643662
	22.195000	-1.472824
	22.200000	-1.453484
	22.205000	-1.621099
	22.210000	-1.643662
	22.215000	-1.479271
	22.220000	-1.459931
	22.225000	-1.617875
	22.230000	-1.646886
	22.235000	-1.479271
	22.240000	-1.453484
	22.245000	-1.627546
	22.250000	-1.633992
	22.255000	-1.482494
	22.260000	-1.456707
	22.265000	-1.624322
	22.270000	-1.643662
	22.275000	-1.476048
	22.280000	-1.456707
	22.285000	-1.621099
	22.290000	-1.640439
	22.295000	-1.479271
	22.300000	-1.459931
	22.305000	-1.621099
	22.310000	-1.640439
	22.315000	-1.472824
	22.320000	-1.466378
	22.325000	-1.621099
	22.330000	-1.637216
	22.335000	-1.476048
	22.340000	-1.459931
	22.345000	-1.630769
	22.350000	-1.637216
	22.355000	-1.472824
	22.360000	-1.463154
	22.365000	-1.633992
	22.370000	-1.643662
	22.375000	-1.482494
	22.380000	-1.453484
	22.385000	-1.633992
	22.390000	-1.640439
	22.395000	-1.472824
	22.400000	-1.463154
	22.405000	-1.637216
	22.410000	-1.650109
	22.415000	-1.482494
	22.420000	-1.472824
	22.425000	-1.630769
	22.430000	-1.646886
	22.435000	-1.479271
	22.440000	-1.466378
	22.445000	-1.637216
	22.450000	-1.640439
	22.455000	-1.479271
	22.460000	-1.469601
	22.465000	-1.627546
	22.470000	-1.637216
	22.475000	-1.476048
	22.480000	-1.469601
	22.485000	-1.633992
	22.490000	-1.643662
	22.495000	-1.479271
	22.500000	-1.466378
	22.505000	-1.640439
	22.510000	-1.640439
	22.515000	-1.476048
	22.520000	-1.466378
	22.525000	-1.637216
	22.530000	-1.640439
	22.535000	-1.476048
	22.540000	-1.472824
	22.545000	-1.633992
	22.550000	-1.650109
	22.555000	-1.476048
	22.560000	-1.472824
	22.565000	-1.633992
	22.570000	-1.640439
	22.575000	-1.476048
	22.580000	-1.472824
	22.585000	-1.637216
	22.590000	-1.640439
	22.595000	-1.485718
	22.600000	-1.479271
	22.605000	-1.637216
	22.610000	-1.646886
	22.615000	-1.482494
	22.620000	-1.479271
	22.625000	-1.643662
	22.630000	-1.643662
	22.635000	-1.482494
	22.640000	-1.469601
	22.645000	-1.637216
	22.650000	-1.640439
	22.655000	-1.479271
	22.660000	-1.472824
	22.665000	-1.640439
	22.670000	-1.643662
	22.675000	-1.476048
	22.680000	-1.482494
	22.685000	-1.643662
	22.690000	-1.643662
	22.695000	-1.479271
	22.700000	-1.479271
	22.705000	-1.643662
	22.710000	-1.646886
	22.715000	-1.482494
	22.720000	-1.482494
	22.725000	-1.646886
	22.730000	-1.650109
	22.735000	-1.482494
	22.740000	-1.485718
	22.745000	-1.643662
	22.750000	-1.650109
	22.755000	-1.476048
	22.760000	-1.482494
	22.765000	-1.643662
	22.770000	-1.650109
	22.775000	-1.482494
	22.780000	-1.482494
	22.785000	-1.646886
	22.790000	-1.643662
	22.795000	-1.482494
	22.800000	-1.482494
	22.805000	-1.643662
	22.810000	-1.650109
	22.815000	-1.485718
	22.820000	-1.485718
	22.825000	-1.653332
	22.830000	-1.646886
	22.835000	-1.482494
	22.840000	-1.485718
	22.845000	-1.643662
	22.850000	-1.643662
	22.855000	-1.482494
	22.860000	-1.488941
	22.865000	-1.653332
	22.870000	-1.650109
	22.875000	-1.488941
	22.880000	-1.488941
	22.885000	-1.653332
	22.890000	-1.650109
	22.895000	-1.488941
	22.900000	-1.485718
	22.905000	-1.650109
	22.910000	-1.650109
	22.915000	-1.482494
	22.920000	-1.485718
	22.925000	-1.646886
	22.930000	-1.650109
	22.935000	-1.485718
	22.940000	-1.488941
	22.945000	-1.656556
	22.950000	-1.650109
	22.955000	-1.479271
	22.960000	-1.488941
	22.965000	-1.653332
	22.970000	-1.643662
	22.975000	-1.482494
	22.980000	-1.495388
	22.985000	-1.653332
	22.990000	-1.650109
	22.995000	-1.488941
	23.000000	-1.488941
	23.005000	-1.656556
	23.010000	-1.653332
	23.015000	-1.492164
	23.020000	-1.498611
	23.025000	-1.653332
	23.030000	-1.646886
	23.035000	-1.485718
	23.040000	-1.498611
	23.045000	-1.663002
	23.050000	-1.650109
	23.055000	-1.485718
	23.060000	-1.492164
	23.065000	-1.659779
	23.070000	-1.656556
	23.075000	-1.488941
	23.080000	-1.498611
	23.085000	-1.663002
	23.090000	-1.650109
	23.095000	-1.488941
	23.100000	-1.495388
	23.105000	-1.666226
	23.110000	-1.656556
	23.115000	-1.488941
	23.120000	-1.501835
	23.125000	-1.659779
	23.130000	-1.650109
	23.135000	-1.488941
	23.140000	-1.505058
	23.145000	-1.659779
	23.150000	-1.656556
	23.155000	-1.485718
	23.160000	-1.498611
	23.165000	-1.669449
	23.170000	-1.653332
	23.175000	-1.492164
	23.180000	-1.505058
	23.185000	-1.663002
	23.190000	-1.656556
	23.195000	-1.488941
	23.200000	-1.505058
	23.205000	-1.669449
	23.210000	-1.653332
	23.215000	-1.495388
	23.220000	-1.508281
	23.225000	-1.666226
	23.230000	-1.653332
	23.235000	-1.492164
	23.240000	-1.501835
	23.245000	-1.672673
	23.250000	-1.663002
	23.255000	-1.492164
	23.260000	-1.505058
	23.265000	-1.672673
	23.270000	-1.653332
	23.275000	-1.495388
	23.280000	-1.508281
	23.285000	-1.679119
	23.290000	-1.656556
	23.295000	-1.495388
	23.300000	-1.514728
	23.305000	-1.669449
	23.310000	-1.663002
	23.315000	-1.492164
	23.320000	-1.508281
	23.325000	-1.675896
	23.330000	-1.656556
	23.335000	-1.495388
	23.340000	-1.514728
	23.345000	-1.679119
	23.350000	-1.663002
	23.355000	-1.495388
	23.360000	-1.521175
	23.365000	-1.685566
	23.370000	-1.656556
	23.375000	-1.501835
	23.380000	-1.517951
	23.385000	-1.685566
	23.390000	-1.672673
	23.395000	-1.495388
	23.400000	-1.524398
	23.405000	-1.682343
	23.410000	-1.659779
	23.415000	-1.505058
	23.420000	-1.517951
	23.425000	-1.682343
	23.430000	-1.659779
	23.435000	-1.498611
	23.440000	-1.524398
	23.445000	-1.685566
	23.450000	-1.653332
	23.455000	-1.498611
	23.460000	-1.524398
	23.465000	-1.692013
	23.470000	-1.659779
	23.475000	-1.501835
	23.480000	-1.527621
	23.485000	-1.688789
	23.490000	-1.663002
	23.495000	-1.495388
	23.500000	-1.530845
	23.505000	-1.685566
	23.510000	-1.663002
	23.515000	-1.505058
	23.520000	-1.524398
	23.525000	-1.692013
	23.530000	-1.659779
	23.535000	-1.508281
	23.540000	-1.524398
	23.545000	-1.695236
	23.550000	-1.659779
	23.555000	-1.505058
	23.560000	-1.530845
	23.565000	-1.692013
	23.570000	-1.663002
	23.575000	-1.501835
	23.580000	-1.530845
	23.585000	-1.692013
	23.590000	-1.666226
	23.595000	-1.505058
	23.600000	-1.530845
	23.605000	-1.688789
	23.610000	-1.669449
	23.615000	-1.501835
	23.620000	-1.530845
	23.625000	-1.688789
	23.630000	-1.663002
	23.635000	-1.501835
	23.640000	-1.537291
	23.645000	-1.695236
	23.650000	-1.659779
	23.655000	-1.508281
	23.660000	-1.530845
	23.665000	-1.688789
	23.670000	-1.659779
	23.675000	-1.505058
	23.680000	-1.534068
	23.685000	-1.695236
	23.690000	-1.656556
	23.695000	-1.501835
	23.700000	-1.537291
	23.705000	-1.688789
	23.710000	-1.659779
	23.715000	-1.505058
	23.720000	-1.530845
	23.725000	-1.701683
	23.730000	-1.672673
	23.735000	-1.505058
	23.740000	-1.534068
	23.745000	-1.695236
	23.750000	-1.669449
	23.755000	-1.505058
	23.760000	-1.540515
	23.765000	-1.704906
	23.770000	-1.659779
	23.775000	-1.508281
	23.780000	-1.537291
	23.785000	-1.701683
	23.790000	-1.666226
	23.795000	-1.508281
	23.800000	-1.543738
	23.805000	-1.704906
	23.810000	-1.669449
	23.815000	-1.505058
	23.820000	-1.537291
	23.825000	-1.695236
	23.830000	-1.659779
	23.835000	-1.498611
	23.840000	-1.540515
	23.845000	-1.688789
	23.850000	-1.656556
	23.855000	-1.498611
	23.860000	-1.543738
	23.865000	-1.692013
	23.870000	-1.659779
	23.875000	-1.498611
	23.880000	-1.537291
	23.885000	-1.695236
	23.890000	-1.656556
	23.895000	-1.501835
	23.900000	-1.534068
	23.905000	-1.695236
	23.910000	-1.656556
	23.915000	-1.498611
	23.920000	-1.534068
	23.925000	-1.698459
	23.930000	-1.656556
	23.935000	-1.495388
	23.940000	-1.540515
	23.945000	-1.701683
	23.950000	-1.653332
	23.955000	-1.495388
	23.960000	-1.537291
	23.965000	-1.692013
	23.970000	-1.653332
	23.975000	-1.498611
	23.980000	-1.530845
	23.985000	-1.695236
	23.990000	-1.650109
	23.995000	-1.495388
	24.000000	-1.540515
	24.005000	-1.692013
	24.010000	-1.650109
	24.015000	-1.498611
	24.020000	-1.534068
	24.025000	-1.695236
	24.030000	-1.653332
	24.035000	-1.492164
	24.040000	-1.534068
	24.045000	-1.692013
	24.050000	-1.653332
	24.055000	-1.492164
	24.060000	-1.534068
	24.065000	-1.688789
	24.070000	-1.650109
	24.075000	-1.495388
	24.080000	-1.540515
	24.085000	-1.685566
	24.090000	-1.640439
	24.095000	-1.488941
	24.100000	-1.527621
	24.105000	-1.688789
	24.110000	-1.637216
	24.115000	-1.492164
	24.120000	-1.527621
	24.125000	-1.692013
	24.130000	-1.640439
	24.135000	-1.495388
	24.140000	-1.534068
	24.145000	-1.688789
	24.150000	-1.640439
	24.155000	-1.492164
	24.160000	-1.537291
	24.165000	-1.682343
	24.170000	-1.640439
	24.175000	-1.488941
	24.180000	-1.530845
	24.185000	-1.682343
	24.190000	-1.630769
	24.195000	-1.492164
	24.200000	-1.524398
	24.205000	-1.688789
	24.210000	-1.630769
	24.215000	-1.485718
	24.220000	-1.530845
	24.225000	-1.679119
	24.230000	-1.637216
	24.235000	-1.482494
	24.240000	-1.527621
	24.245000	-1.675896
	24.250000	-1.633992
	24.255000	-1.479271
	24.260000	-1.524398
	24.265000	-1.675896
	24.270000	-1.617875
	24.275000	-1.476048
	24.280000	-1.524398
	24.285000	-1.666226
	24.290000	-1.621099
	24.295000	-1.466378
	24.300000	-1.521175
	24.305000	-1.663002
	24.310000	-1.621099
	24.315000	-1.463154
	24.320000	-1.511505
	24.325000	-1.659779
	24.330000	-1.614652
	24.335000	-1.463154
	24.340000	-1.511505
	24.345000	-1.659779
	24.350000	-1.608205
	24.355000	-1.463154
	24.360000	-1.498611
	24.365000	-1.653332
	24.370000	-1.611429
	24.375000	-1.466378
	24.380000	-1.508281
	24.385000	-1.650109
	24.390000	-1.598535
	24.395000	-1.456707
	24.400000	-1.498611
	24.405000	-1.656556
	24.410000	-1.598535
	24.415000	-1.453484
	24.420000	-1.508281
	24.425000	-1.650109
	24.430000	-1.604982
	24.435000	-1.463154
	24.440000	-1.505058
	24.445000	-1.646886
	24.450000	-1.595312
	24.455000	-1.463154
	24.460000	-1.505058
	24.465000	-1.650109
	24.470000	-1.598535
	24.475000	-1.453484
	24.480000	-1.501835
	24.485000	-1.653332
	24.490000	-1.595312
	24.495000	-1.450261
	24.500000	-1.508281
	24.505000	-1.650109
	24.510000	-1.595312
	24.515000	-1.450261
	24.520000	-1.508281
	24.525000	-1.650109
	24.530000	-1.595312
	24.535000	-1.450261
	24.540000	-1.498611
	24.545000	-1.650109
	24.550000	-1.595312
	24.555000	-1.453484
	24.560000	-1.498611
	24.565000	-1.653332
	24.570000	-1.598535
	24.575000	-1.453484
	24.580000	-1.498611
	24.585000	-1.643662
	24.590000	-1.592089
	24.595000	-1.450261
	24.600000	-1.495388
	24.605000	-1.646886
	24.610000	-1.595312
	24.615000	-1.447037
	24.620000	-1.508281
	24.625000	-1.650109
	24.630000	-1.592089
	24.635000	-1.450261
	24.640000	-1.514728
	24.645000	-1.656556
	24.650000	-1.598535
	24.655000	-1.456707
	24.660000	-1.517951
	24.665000	-1.653332
	24.670000	-1.608205
	24.675000	-1.459931
	24.680000	-1.521175
	24.685000	-1.669449
	24.690000	-1.614652
	24.695000	-1.469601
	24.700000	-1.527621
	24.705000	-1.666226
	24.710000	-1.611429
	24.715000	-1.472824
	24.720000	-1.543738
	24.725000	-1.679119
	24.730000	-1.621099
	24.735000	-1.485718
	24.740000	-1.546962
	24.745000	-1.698459
	24.750000	-1.630769
	24.755000	-1.488941
	24.760000	-1.559855
	24.765000	-1.698459
	24.770000	-1.637216
	24.775000	-1.505058
	24.780000	-1.566302
	24.785000	-1.711353
	24.790000	-1.650109
	24.795000	-1.511505
	24.800000	-1.575972
	24.805000	-1.717800
	24.810000	-1.653332
	24.815000	-1.521175
	24.820000	-1.592089
	24.825000	-1.730693
	24.830000	-1.663002
	24.835000	-1.524398
	24.840000	-1.592089
	24.845000	-1.730693
	24.850000	-1.669449
	24.855000	-1.527621
	24.860000	-1.592089
	24.865000	-1.737140
	24.870000	-1.675896
	24.875000	-1.537291
	24.880000	-1.598535
	24.885000	-1.743586
	24.890000	-1.682343
	24.895000	-1.543738
	24.900000	-1.601759
	24.905000	-1.746810
	24.910000	-1.679119
	24.915000	-1.537291
	24.920000	-1.604982
	24.925000	-1.750033
	24.930000	-1.685566
	24.935000	-1.543738
	24.940000	-1.614652
	24.945000	-1.756480
	24.950000	-1.688789
	24.955000	-1.546962
	24.960000	-1.611429
	24.965000	-1.753257
	24.970000	-1.688789
	24.975000	-1.543738
	24.980000	-1.617875
	24.985000	-1.766150
	24.990000	-1.692013
	24.995000	-1.559855
	25.000000	-1.627546
	25.005000	-1.762927
	25.010000	-1.701683
	25.015000	-1.559855
	25.020000	-1.627546
	25.025000	-1.762927
	25.030000	-1.695236
	25.035000	-1.559855
	25.040000	-1.621099
	25.045000	-1.769373
	25.050000	-1.698459
	25.055000	-1.553408
	25.060000	-1.637216
	25.065000	-1.772597
	25.070000	-1.698459
	25.075000	-1.563078
	25.080000	-1.633992
	25.085000	-1.779043
	25.090000	-1.698459
	25.095000	-1.566302
	25.100000	-1.630769
	25.105000	-1.782267
	25.110000	-1.704906
	25.115000	-1.563078
	25.120000	-1.640439
	25.125000	-1.775820
	25.130000	-1.708129
	25.135000	-1.566302
	25.140000	-1.640439
	25.145000	-1.782267
	25.150000	-1.711353
	25.155000	-1.572748
	25.160000	-1.643662
	25.165000	-1.782267
	25.170000	-1.708129
	25.175000	-1.569525
	25.180000	-1.646886
	25.185000	-1.782267
	25.190000	-1.704906
	25.195000	-1.569525
	25.200000	-1.643662
	25.205000	-1.785490
	25.210000	-1.708129
	25.215000	-1.566302
	25.220000	-1.650109
	25.225000	-1.779043
	25.230000	-1.708129
	25.235000	-1.575972
	25.240000	-1.646886
	25.245000	-1.785490
	25.250000	-1.711353
	25.255000	-1.579195
	25.260000	-1.653332
	25.265000	-1.785490
	25.270000	-1.714576
	25.275000	-1.569525
	25.280000	-1.646886
	25.285000	-1.791937
	25.290000	-1.714576
	25.295000	-1.575972
	25.300000	-1.653332
	25.305000	-1.791937
	25.310000	-1.714576
	25.315000	-1.579195
	25.320000	-1.656556
	25.325000	-1.795160
	25.330000	-1.711353
	25.335000	-1.579195
	25.340000	-1.663002
	25.345000	-1.801607
	25.350000	-1.711353
	25.355000	-1.582418
	25.360000	-1.659779
	25.365000	-1.798384
	25.370000	-1.714576
	25.375000	-1.585642
	25.380000	-1.666226
	25.385000	-1.801607
	25.390000	-1.714576
	25.395000	-1.588865
	25.400000	-1.663002
	25.405000	-1.808054
	25.410000	-1.721023
	25.415000	-1.588865
	25.420000	-1.666226
	25.425000	-1.804830
	25.430000	-1.724246
	25.435000	-1.579195
	25.440000	-1.672673
	25.445000	-1.801607
	25.450000	-1.721023
	25.455000	-1.588865
	25.460000	-1.666226
	25.465000	-1.804830
	25.470000	-1.721023
	25.475000	-1.592089
	25.480000	-1.672673
	25.485000	-1.814500
	25.490000	-1.730693
	25.495000	-1.598535
	25.500000	-1.675896
	25.505000	-1.808054
	25.510000	-1.727470
	25.515000	-1.592089
	25.520000	-1.688789
	25.525000	-1.817724
	25.530000	-1.740363
	25.535000	-1.601759
	25.540000	-1.685566
	25.545000	-1.820947
	25.550000	-1.733916
	25.555000	-1.601759
	25.560000	-1.692013
	25.565000	-1.827394
	25.570000	-1.740363
	25.575000	-1.608205
	25.580000	-1.692013
	25.585000	-1.833840
	25.590000	-1.740363
	25.595000	-1.608205
	25.600000	-1.695236
	25.605000	-1.833840
	25.610000	-1.746810
	25.615000	-1.608205
	25.620000	-1.698459
	25.625000	-1.833840
	25.630000	-1.743586
	25.635000	-1.617875
	25.640000	-1.701683
	25.645000	-1.840287
	25.650000	-1.746810
	25.655000	-1.621099
	25.660000	-1.717800
	25.665000	-1.846734
	25.670000	-1.750033
	25.675000	-1.624322
	25.680000	-1.714576
	25.685000	-1.843511
	25.690000	-1.756480
	25.695000	-1.630769
	25.700000	-1.724246
	25.705000	-1.856404
	25.710000	-1.762927
	25.715000	-1.637216
	25.720000	-1.727470
	25.725000	-1.856404
	25.730000	-1.759703
	25.735000	-1.637216
	25.740000	-1.733916
	25.745000	-1.869297
	25.750000	-1.775820
	25.755000	-1.646886
	25.760000	-1.746810
	25.765000	-1.875744
	25.770000	-1.775820
	25.775000	-1.656556
	25.780000	-1.750033
	25.785000	-1.885414
	25.790000	-1.788713
	25.795000	-1.663002
	25.800000	-1.756480
	25.805000	-1.882191
	25.810000	-1.788713
	25.815000	-1.666226
	25.820000	-1.753257
	25.825000	-1.882191
	25.830000	-1.785490
	25.835000	-1.659779
	25.840000	-1.750033
	25.845000	-1.875744
	25.850000	-1.775820
	25.855000	-1.646886
	25.860000	-1.740363
	25.865000	-1.859627
	25.870000	-1.759703
	25.875000	-1.624322
	25.880000	-1.721023
	25.885000	-1.843511
	25.890000	-1.740363
	25.895000	-1.611429
	25.900000	-1.704906
	25.905000	-1.824170
	25.910000	-1.724246
	25.915000	-1.598535
	25.920000	-1.685566
	25.925000	-1.811277
	25.930000	-1.708129
	25.935000	-1.582418
	25.940000	-1.672673
	25.945000	-1.795160
	25.950000	-1.698459
	25.955000	-1.566302
	25.960000	-1.666226
	25.965000	-1.775820
	25.970000	-1.675896
	25.975000	-1.550185
	25.980000	-1.643662
	25.985000	-1.762927
	25.990000	-1.669449
	25.995000	-1.534068
	26.000000	-1.637216
	26.005000	-1.750033
	26.010000	-1.646886
	26.015000	-1.524398
	26.020000	-1.617875
	26.025000	-1.733916
	26.030000	-1.637216
	26.035000	-1.511505
	26.040000	-1.611429
	26.045000	-1.724246
	26.050000	-1.630769
	26.055000	-1.505058
	26.060000	-1.598535
	26.065000	-1.721023
	26.070000	-1.611429
	26.075000	-1.495388
	26.080000	-1.595312
	26.085000	-1.708129
	26.090000	-1.604982
	26.095000	-1.488941
	26.100000	-1.582418
	26.105000	-1.698459
	26.110000	-1.598535
	26.115000	-1.482494
	26.120000	-1.585642
	26.125000	-1.698459
	26.130000	-1.592089
	26.135000	-1.476048
	26.140000	-1.575972
	26.145000	-1.695236
	26.150000	-1.588865
	26.155000	-1.469601
	26.160000	-1.572748
	26.165000	-1.688789
	26.170000	-1.575972
	26.175000	-1.472824
	26.180000	-1.572748
	26.185000	-1.695236
	26.190000	-1.592089
	26.195000	-1.472824
	26.200000	-1.575972
	26.205000	-1.688789
	26.210000	-1.588865
	26.215000	-1.469601
	26.220000	-1.579195
	26.225000	-1.688789
	26.230000	-1.582418
	26.235000	-1.472824
	26.240000	-1.579195
	26.245000	-1.692013
	26.250000	-1.582418
	26.255000	-1.466378
	26.260000	-1.572748
	26.265000	-1.682343
	26.270000	-1.582418
	26.275000	-1.466378
	26.280000	-1.572748
	26.285000	-1.682343
	26.290000	-1.575972
	26.295000	-1.472824
	26.300000	-1.569525
	26.305000	-1.679119
	26.310000	-1.575972
	26.315000	-1.469601
	26.320000	-1.566302
	26.325000	-1.675896
	26.330000	-1.572748
	26.335000	-1.463154
	26.340000	-1.563078
	26.345000	-1.675896
	26.350000	-1.572748
	26.355000	-1.463154
	26.360000	-1.569525
	26.365000	-1.679119
	26.370000	-1.579195
	26.375000	-1.466378
	26.380000	-1.569525
	26.385000	-1.679119
	26.390000	-1.569525
	26.395000	-1.479271
	26.400000	-1.572748
	26.405000	-1.682343
	26.410000	-1.579195
	26.415000	-1.466378
	26.420000	-1.582418
	26.425000	-1.688789
	26.430000	-1.575972
	26.435000	-1.479271
	26.440000	-1.579195
	26.445000	-1.692013
	26.450000	-1.585642
	26.455000	-1.482494
	26.460000	-1.592089
	26.465000	-1.701683
	26.470000	-1.592089
	26.475000	-1.485718
	26.480000	-1.592089
	26.485000	-1.704906
	26.490000	-1.598535
	26.495000	-1.488941
	26.500000	-1.598535
	26.505000	-1.708129
	26.510000	-1.595312
	26.515000	-1.492164
	26.520000	-1.604982
	26.525000	-1.717800
	26.530000	-1.611429
	26.535000	-1.508281
	26.540000	-1.624322
	26.545000	-1.733916
	26.550000	-1.627546
	26.555000	-1.524398
	26.560000	-1.650109
	26.565000	-1.769373
	26.570000	-1.666226
	26.575000	-1.559855
	26.580000	-1.682343
	26.585000	-1.804830
	26.590000	-1.701683
	26.595000	-1.611429
	26.600000	-1.733916
	26.605000	-1.853181
	26.610000	-1.746810
	26.615000	-1.653332
	26.620000	-1.775820
	26.625000	-1.898308
	26.630000	-1.795160
	26.635000	-1.692013
	26.640000	-1.824170
	26.645000	-1.946658
	26.650000	-1.833840
	26.655000	-1.743586
	26.660000	-1.885414
	26.665000	-2.004679
	26.670000	-1.904754
	26.675000	-1.808054
	26.680000	-1.953105
	26.685000	-2.072369
	26.690000	-1.969222
	26.695000	-1.882191
	26.700000	-2.024019
	26.705000	-2.159400
	26.710000	-2.043359
	26.715000	-1.946658
	26.720000	-2.072369
	26.725000	-2.178740
	26.730000	-2.046582
	26.735000	-1.924095
	26.740000	-2.020795
	26.745000	-2.101379
	26.750000	-1.953105
	26.755000	-1.827394
	26.760000	-1.940211
	26.765000	-2.036912
	26.770000	-1.898308
	26.775000	-1.788713
	26.780000	-1.904754
	26.785000	-2.004679
	26.790000	-1.885414
	26.795000	-1.782267
	26.800000	-1.907978
	26.805000	-2.017572
	26.810000	-1.904754
	26.815000	-1.804830
	26.820000	-1.930541
	26.825000	-2.043359
	26.830000	-1.930541
	26.835000	-1.830617
	26.840000	-1.962775
	26.845000	-2.075592
	26.850000	-1.969222
	26.855000	-1.859627
	26.860000	-1.982115
	26.865000	-2.069146
	26.870000	-1.930541
	26.875000	-1.804830
	26.880000	-1.907978
	26.885000	-1.982115
	26.890000	-1.830617
	26.895000	-1.682343
	26.900000	-1.762927
	26.905000	-1.827394
	26.910000	-1.666226
	26.915000	-1.530845
	26.920000	-1.617875
	26.925000	-1.679119
	26.930000	-1.530845
	26.935000	-1.411580
	26.940000	-1.514728
	26.945000	-1.598535
	26.950000	-1.463154
	26.955000	-1.363230
	26.960000	-1.472824
	26.965000	-1.566302
	26.970000	-1.434144
	26.975000	-1.327773
	26.980000	-1.450261
	26.985000	-1.546962
	26.990000	-1.418027
	26.995000	-1.305210
	27.000000	-1.421251
	27.005000	-1.517951
	27.010000	-1.389017
	27.015000	-1.282646
	27.020000	-1.405134
	27.025000	-1.495388
	27.030000	-1.366453
	27.035000	-1.263306
	27.040000	-1.385794
	27.045000	-1.469601
	27.050000	-1.350337
	27.055000	-1.243966
	27.060000	-1.372900
	27.065000	-1.453484
	27.070000	-1.327773
	27.075000	-1.234296
	27.080000	-1.347113
	27.085000	-1.437367
	27.090000	-1.305210
	27.095000	-1.211732
	27.100000	-1.330996
	27.105000	-1.418027
	27.110000	-1.295540
	27.115000	-1.192392
	27.120000	-1.314880
	27.125000	-1.408357
	27.130000	-1.272976
	27.135000	-1.182722
	27.140000	-1.298763
	27.145000	-1.392240
	27.150000	-1.266529
	27.155000	-1.166605
	27.160000	-1.292316
	27.165000	-1.392240
	27.170000	-1.260083
	27.175000	-1.166605
	27.180000	-1.292316
	27.185000	-1.382570
	27.190000	-1.250413
	27.195000	-1.166605
	27.200000	-1.295540
	27.205000	-1.389017
	27.210000	-1.260083
	27.215000	-1.179499
	27.220000	-1.301986
	27.225000	-1.392240
	27.230000	-1.272976
	27.235000	-1.185945
	27.240000	-1.314880
	27.245000	-1.405134
	27.250000	-1.279423
	27.255000	-1.189169
	27.260000	-1.324550
	27.265000	-1.418027
	27.270000	-1.295540
	27.275000	-1.205285
	27.280000	-1.330996
	27.285000	-1.427697
	27.290000	-1.301986
	27.295000	-1.221402
	27.300000	-1.350337
	27.305000	-1.437367
	27.310000	-1.311656
	27.315000	-1.227849
	27.320000	-1.353560
	27.325000	-1.443814
	27.330000	-1.321326
	27.335000	-1.237519
	27.340000	-1.369677
	27.345000	-1.456707
	27.350000	-1.330996
	27.355000	-1.240742
	27.360000	-1.376124
	27.365000	-1.466378
	27.370000	-1.334220
	27.375000	-1.256859
	27.380000	-1.385794
	27.385000	-1.479271
	27.390000	-1.343890
	27.395000	-1.266529
	27.400000	-1.392240
	27.405000	-1.482494
	27.410000	-1.353560
	27.415000	-1.276199
	27.420000	-1.401910
	27.425000	-1.495388
	27.430000	-1.360007
	27.435000	-1.279423
	27.440000	-1.411580
	27.445000	-1.492164
	27.450000	-1.369677
	27.455000	-1.285869
	27.460000	-1.418027
	27.465000	-1.508281
	27.470000	-1.372900
	27.475000	-1.292316
	27.480000	-1.430921
	27.485000	-1.508281
	27.490000	-1.382570
	27.495000	-1.301986
	27.500000	-1.437367
	27.505000	-1.524398
	27.510000	-1.395464
	27.515000	-1.314880
	27.520000	-1.440591
	27.525000	-1.530845
	27.530000	-1.401910
	27.535000	-1.318103
	27.540000	-1.453484
	27.545000	-1.543738
	27.550000	-1.401910
	27.555000	-1.324550
	27.560000	-1.459931
	27.565000	-1.546962
	27.570000	-1.414804
	27.575000	-1.330996
	27.580000	-1.463154
	27.585000	-1.550185
	27.590000	-1.418027
	27.595000	-1.340667
	27.600000	-1.476048
	27.605000	-1.559855
	27.610000	-1.424474
	27.615000	-1.347113
	27.620000	-1.476048
	27.625000	-1.559855
	27.630000	-1.421251
	27.635000	-1.350337
	27.640000	-1.485718
	27.645000	-1.575972
	27.650000	-1.437367
	27.655000	-1.360007
	27.660000	-1.501835
	27.665000	-1.575972
	27.670000	-1.437367
	27.675000	-1.360007
	27.680000	-1.501835
	27.685000	-1.585642
	27.690000	-1.450261
	27.695000	-1.363230
	27.700000	-1.505058
	27.705000	-1.592089
	27.710000	-1.456707
	27.715000	-1.376124
	27.720000	-1.521175
	27.725000	-1.592089
	27.730000	-1.463154
	27.735000	-1.385794
	27.740000	-1.527621
	27.745000	-1.598535
	27.750000	-1.463154
	27.755000	-1.379347
	27.760000	-1.524398
	27.765000	-1.604982
	27.770000	-1.459931
	27.775000	-1.389017
	27.780000	-1.527621
	27.785000	-1.608205
	27.790000	-1.463154
	27.795000	-1.392240
	27.800000	-1.534068
	27.805000	-1.611429
	27.810000	-1.472824
	27.815000	-1.398687
	27.820000	-1.534068
	27.825000	-1.614652
	27.830000	-1.476048
	27.835000	-1.398687
	27.840000	-1.540515
	27.845000	-1.617875
	27.850000	-1.476048
	27.855000	-1.401910
	27.860000	-1.537291
	27.865000	-1.617875
	27.870000	-1.472824
	27.875000	-1.405134
	27.880000	-1.546962
	27.885000	-1.617875
	27.890000	-1.472824
	27.895000	-1.405134
	27.900000	-1.543738
	27.905000	-1.621099
	27.910000	-1.482494
	27.915000	-1.405134
	27.920000	-1.553408
	27.925000	-1.624322
	27.930000	-1.479271
	27.935000	-1.408357
	27.940000	-1.553408
	27.945000	-1.630769
	27.950000	-1.488941
	27.955000	-1.411580
	27.960000	-1.553408
	27.965000	-1.627546
	27.970000	-1.472824
	27.975000	-1.414804
	27.980000	-1.556632
	27.985000	-1.627546
	27.990000	-1.482494
	27.995000	-1.411580
	28.000000	-1.553408
	28.005000	-1.624322
	28.010000	-1.488941
	28.015000	-1.414804
	28.020000	-1.559855
	28.025000	-1.624322
	28.030000	-1.479271
	28.035000	-1.418027
	28.040000	-1.559855
	28.045000	-1.630769
	28.050000	-1.488941
	28.055000	-1.421251
	28.060000	-1.563078
	28.065000	-1.627546
	28.070000	-1.488941
	28.075000	-1.421251
	28.080000	-1.559855
	28.085000	-1.633992
	28.090000	-1.495388
	28.095000	-1.418027
	28.100000	-1.566302
	28.105000	-1.637216
	28.110000	-1.492164
	28.115000	-1.421251
	28.120000	-1.569525
	28.125000	-1.630769
	28.130000	-1.488941
	28.135000	-1.424474
	28.140000	-1.572748
	28.145000	-1.637216
	28.150000	-1.492164
	28.155000	-1.421251
	28.160000	-1.569525
	28.165000	-1.643662
	28.170000	-1.495388
	28.175000	-1.424474
	28.180000	-1.569525
	28.185000	-1.646886
	28.190000	-1.492164
	28.195000	-1.424474
	28.200000	-1.575972
	28.205000	-1.643662
	28.210000	-1.495388
	28.215000	-1.427697
	28.220000	-1.579195
	28.225000	-1.646886
	28.230000	-1.498611
	28.235000	-1.427697
	28.240000	-1.575972
	28.245000	-1.633992
	28.250000	-1.495388
	28.255000	-1.440591
	28.260000	-1.579195
	28.265000	-1.653332
	28.270000	-1.501835
	28.275000	-1.434144
	28.280000	-1.585642
	28.285000	-1.653332
	28.290000	-1.505058
	28.295000	-1.443814
	28.300000	-1.585642
	28.305000	-1.653332
	28.310000	-1.501835
	28.315000	-1.443814
	28.320000	-1.595312
	28.325000	-1.656556
	28.330000	-1.505058
	28.335000	-1.440591
	28.340000	-1.592089
	28.345000	-1.656556
	28.350000	-1.508281
	28.355000	-1.440591
	28.360000	-1.592089
	28.365000	-1.653332
	28.370000	-1.498611
	28.375000	-1.443814
	28.380000	-1.595312
	28.385000	-1.656556
	28.390000	-1.505058
	28.395000	-1.447037
	28.400000	-1.595312
	28.405000	-1.656556
	28.410000	-1.508281
	28.415000	-1.450261
	28.420000	-1.598535
	28.425000	-1.663002
	28.430000	-1.517951
	28.435000	-1.447037
	28.440000	-1.598535
	28.445000	-1.669449
	28.450000	-1.514728
	28.455000	-1.453484
	28.460000	-1.601759
	28.465000	-1.666226
	28.470000	-1.508281
	28.475000	-1.453484
	28.480000	-1.604982
	28.485000	-1.666226
	28.490000	-1.511505
	28.495000	-1.453484
	28.500000	-1.601759
	28.505000	-1.666226
	28.510000	-1.511505
	28.515000	-1.456707
	28.520000	-1.608205
	28.525000	-1.663002
	28.530000	-1.514728
	28.535000	-1.453484
	28.540000	-1.604982
	28.545000	-1.666226
	28.550000	-1.514728
	28.555000	-1.459931
	28.560000	-1.608205
	28.565000	-1.669449
	28.570000	-1.517951
	28.575000	-1.463154
	28.580000	-1.614652
	28.585000	-1.669449
	28.590000	-1.521175
	28.595000	-1.459931
	28.600000	-1.608205
	28.605000	-1.669449
	28.610000	-1.514728
	28.615000	-1.459931
	28.620000	-1.611429
	28.625000	-1.666226
	28.630000	-1.521175
	28.635000	-1.463154
	28.640000	-1.614652
	28.645000	-1.672673
	28.650000	-1.517951
	28.655000	-1.466378
	28.660000	-1.617875
	28.665000	-1.672673
	28.670000	-1.517951
	28.675000	-1.469601
	28.680000	-1.617875
	28.685000	-1.675896
	28.690000	-1.521175
	28.695000	-1.463154
	28.700000	-1.624322
	28.705000	-1.666226
	28.710000	-1.517951
	28.715000	-1.466378
	28.720000	-1.614652
	28.725000	-1.675896
	28.730000	-1.517951
	28.735000	-1.466378
	28.740000	-1.617875
	28.745000	-1.669449
	28.750000	-1.521175
	28.755000	-1.466378
	28.760000	-1.617875
	28.765000	-1.672673
	28.770000	-1.517951
	28.775000	-1.463154
	28.780000	-1.624322
	28.785000	-1.672673
	28.790000	-1.521175
	28.795000	-1.466378
	28.800000	-1.624322
	28.805000	-1.682343
	28.810000	-1.524398
	28.815000	-1.469601
	28.820000	-1.617875
	28.825000	-1.672673
	28.830000	-1.517951
	28.835000	-1.476048
	28.840000	-1.621099
	28.845000	-1.675896
	28.850000	-1.521175
	28.855000	-1.469601
	28.860000	-1.630769
	28.865000	-1.675896
	28.870000	-1.511505
	28.875000	-1.476048
	28.880000	-1.621099
	28.885000	-1.675896
	28.890000	-1.524398
	28.895000	-1.472824
	28.900000	-1.624322
	28.905000	-1.675896
	28.910000	-1.521175
	28.915000	-1.472824
	28.920000	-1.633992
	28.925000	-1.675896
	28.930000	-1.524398
	28.935000	-1.472824
	28.940000	-1.630769
	28.945000	-1.682343
	28.950000	-1.521175
	28.955000	-1.472824
	28.960000	-1.630769
	28.965000	-1.675896
	28.970000	-1.524398
	28.975000	-1.472824
	28.980000	-1.637216
	28.985000	-1.675896
	28.990000	-1.527621
	28.995000	-1.469601
	29.000000	-1.640439
	29.005000	-1.682343
	29.010000	-1.527621
	29.015000	-1.479271
	29.020000	-1.633992
	29.025000	-1.685566
	29.030000	-1.530845
	29.035000	-1.482494
	29.040000	-1.633992
	29.045000	-1.685566
	29.050000	-1.517951
	29.055000	-1.479271
	29.060000	-1.646886
	29.065000	-1.682343
	29.070000	-1.524398
	29.075000	-1.479271
	29.080000	-1.640439
	29.085000	-1.688789
	29.090000	-1.530845
	29.095000	-1.488941
	29.100000	-1.640439
	29.105000	-1.685566
	29.110000	-1.524398
	29.115000	-1.479271
	29.120000	-1.637216
	29.125000	-1.675896
	29.130000	-1.527621
	29.135000	-1.482494
	29.140000	-1.643662
	29.145000	-1.692013
	29.150000	-1.534068
	29.155000	-1.492164
	29.160000	-1.643662
	29.165000	-1.685566
	29.170000	-1.530845
	29.175000	-1.485718
	29.180000	-1.643662
	29.185000	-1.682343
	29.190000	-1.534068
	29.195000	-1.495388
	29.200000	-1.646886
	29.205000	-1.682343
	29.210000	-1.524398
	29.215000	-1.476048
	29.220000	-1.646886
	29.225000	-1.682343
	29.230000	-1.521175
	29.235000	-1.476048
	29.240000	-1.637216
	29.245000	-1.672673
	29.250000	-1.517951
	29.255000	-1.476048
	29.260000	-1.640439
	29.265000	-1.675896
	29.270000	-1.508281
	29.275000	-1.479271
	29.280000	-1.637216
	29.285000	-1.666226
	29.290000	-1.508281
	29.295000	-1.469601
	29.300000	-1.630769
	29.305000	-1.669449
	29.310000	-1.508281
	29.315000	-1.469601
	29.320000	-1.637216
	29.325000	-1.672673
	29.330000	-1.511505
	29.335000	-1.466378
	29.340000	-1.637216
	29.345000	-1.659779
	29.350000	-1.508281
	29.355000	-1.469601
	29.360000	-1.630769
	29.365000	-1.663002
	29.370000	-1.501835
	29.375000	-1.472824
	29.380000	-1.637216
	29.385000	-1.663002
	29.390000	-1.501835
	29.395000	-1.469601
	29.400000	-1.627546
	29.405000	-1.666226
	29.410000	-1.501835
	29.415000	-1.466378
	29.420000	-1.630769
	29.425000	-1.666226
	29.430000	-1.501835
	29.435000	-1.469601
	29.440000	-1.633992
	29.445000	-1.663002
	29.450000	-1.501835
	29.455000	-1.476048
	29.460000	-1.630769
	29.465000	-1.663002
	29.470000	-1.498611
	29.475000	-1.469601
	29.480000	-1.637216
	29.485000	-1.659779
	29.490000	-1.498611
	29.495000	-1.466378
	29.500000	-1.633992
	29.505000	-1.666226
	29.510000	-1.505058
	29.515000	-1.469601
	29.520000	-1.637216
	29.525000	-1.672673
	29.530000	-1.505058
	29.535000	-1.479271
	29.540000	-1.633992
	29.545000	-1.669449
	29.550000	-1.495388
	29.555000	-1.479271
	29.560000	-1.633992
	29.565000	-1.672673
	29.570000	-1.498611
	29.575000	-1.479271
	29.580000	-1.637216
	29.585000	-1.669449
	29.590000	-1.508281
	29.595000	-1.469601
	29.600000	-1.650109
	29.605000	-1.666226
	29.610000	-1.508281
	29.615000	-1.482494
	29.620000	-1.640439
	29.625000	-1.669449
	29.630000	-1.505058
	29.635000	-1.485718
	29.640000	-1.643662
	29.645000	-1.675896
	29.650000	-1.514728
	29.655000	-1.485718
	29.660000	-1.650109
	29.665000	-1.679119
	29.670000	-1.521175
	29.675000	-1.485718
	29.680000	-1.659779
	29.685000	-1.685566
	29.690000	-1.527621
	29.695000	-1.501835
	29.700000	-1.666226
	29.705000	-1.695236
	29.710000	-1.530845
	29.715000	-1.508281
	29.720000	-1.675896
	29.725000	-1.692013
	29.730000	-1.527621
	29.735000	-1.511505
	29.740000	-1.669449
	29.745000	-1.692013
	29.750000	-1.530845
	29.755000	-1.505058
	29.760000	-1.666226
	29.765000	-1.692013
	29.770000	-1.527621
	29.775000	-1.514728
	29.780000	-1.672673
	29.785000	-1.698459
	29.790000	-1.537291
	29.795000	-1.521175
	29.800000	-1.675896
	29.805000	-1.698459
	29.810000	-1.540515
	29.815000	-1.514728
	29.820000	-1.675896
	29.825000	-1.701683
	29.830000	-1.540515
	29.835000	-1.517951
	29.840000	-1.685566
	29.845000	-1.695236
	29.850000	-1.540515
	29.855000	-1.521175
	29.860000	-1.679119
	29.865000	-1.698459
	29.870000	-1.537291
	29.875000	-1.521175
	29.880000	-1.679119
	29.885000	-1.704906
	29.890000	-1.540515
	29.895000	-1.521175
	29.900000	-1.682343
	29.905000	-1.695236
	29.910000	-1.540515
	29.915000	-1.521175
	29.920000	-1.685566
	29.925000	-1.698459
	29.930000	-1.543738
	29.935000	-1.521175
	29.940000	-1.682343
	29.945000	-1.698459
	29.950000	-1.540515
	29.955000	-1.511505
	29.960000	-1.688789
	29.965000	-1.708129
	29.970000	-1.540515
	29.975000	-1.521175
	29.980000	-1.685566
	29.985000	-1.701683
	29.990000	-1.534068
	29.995000	-1.524398
	30.000000	-1.685566
	30.005000	-1.701683
	30.010000	-1.537291
	30.015000	-1.521175
	30.020000	-1.688789
	30.025000	-1.698459
	30.030000	-1.540515
	30.035000	-1.527621
	30.040000	-1.692013
	30.045000	-1.704906
	30.050000	-1.537291
	30.055000	-1.527621
	30.060000	-1.688789
	30.065000	-1.708129
	30.070000	-1.540515
	30.075000	-1.517951
	30.080000	-1.695236
	30.085000	-1.704906
	30.090000	-1.540515
	30.095000	-1.521175
	30.100000	-1.685566
	30.105000	-1.701683
	30.110000	-1.543738
	30.115000	-1.530845
	30.120000	-1.685566
	30.125000	-1.708129
	30.130000	-1.540515
	30.135000	-1.534068
	30.140000	-1.695236
	30.145000	-1.701683
	30.150000	-1.543738
	30.155000	-1.527621
	30.160000	-1.695236
	30.165000	-1.701683
	30.170000	-1.537291
	30.175000	-1.530845
	30.180000	-1.692013
	30.185000	-1.704906
	30.190000	-1.543738
	30.195000	-1.524398
	30.200000	-1.698459
	30.205000	-1.714576
	30.210000	-1.546962
	30.215000	-1.527621
	30.220000	-1.698459
	30.225000	-1.708129
	30.230000	-1.546962
	30.235000	-1.534068
	30.240000	-1.701683
	30.245000	-1.708129
	30.250000	-1.540515
	30.255000	-1.537291
	30.260000	-1.698459
	30.265000	-1.714576
	30.270000	-1.546962
	30.275000	-1.537291
	30.280000	-1.701683
	30.285000	-1.711353
	30.290000	-1.556632
	30.295000	-1.543738
	30.300000	-1.704906
	30.305000	-1.717800
	30.310000	-1.550185
	30.315000	-1.543738
	30.320000	-1.708129
	30.325000	-1.704906
	30.330000	-1.550185
	30.335000	-1.546962
	30.340000	-1.717800
	30.345000	-1.711353
	30.350000	-1.553408
	30.355000	-1.546962
	30.360000	-1.711353
	30.365000	-1.714576
	30.370000	-1.556632
	30.375000	-1.553408
	30.380000	-1.714576
	30.385000	-1.711353
	30.390000	-1.553408
	30.395000	-1.546962
	30.400000	-1.708129
	30.405000	-1.717800
	30.410000	-1.563078
	30.415000	-1.550185
	30.420000	-1.717800
	30.425000	-1.721023
	30.430000	-1.556632
	30.435000	-1.556632
	30.440000	-1.714576
	30.445000	-1.721023
	30.450000	-1.553408
	30.455000	-1.553408
	30.460000	-1.714576
	30.465000	-1.717800
	30.470000	-1.559855
	30.475000	-1.559855
	30.480000	-1.717800
	30.485000	-1.714576
	30.490000	-1.556632
	30.495000	-1.556632
	30.500000	-1.721023
	30.505000	-1.727470
	30.510000	-1.559855
	30.515000	-1.566302
	30.520000	-1.727470
	30.525000	-1.721023
	30.530000	-1.569525
	30.535000	-1.563078
	30.540000	-1.730693
	30.545000	-1.727470
	30.550000	-1.559855
	30.555000	-1.563078
	30.560000	-1.727470
	30.565000	-1.721023
	30.570000	-1.566302
	30.575000	-1.566302
	30.580000	-1.724246
	30.585000	-1.727470
	30.590000	-1.569525
	30.595000	-1.566302
	30.600000	-1.727470
	30.605000	-1.721023
	30.610000	-1.569525
	30.615000	-1.569525
	30.620000	-1.730693
	30.625000	-1.733916
	30.630000	-1.563078
	30.635000	-1.572748
	30.640000	-1.737140
	30.645000	-1.727470
	30.650000	-1.566302
	30.655000	-1.569525
	30.660000	-1.730693
	30.665000	-1.727470
	30.670000	-1.569525
	30.675000	-1.566302
	30.680000	-1.733916
	30.685000	-1.727470
	30.690000	-1.566302
	30.695000	-1.572748
	30.700000	-1.743586
	30.705000	-1.733916
	30.710000	-1.569525
	30.715000	-1.572748
	30.720000	-1.740363
	30.725000	-1.730693
	30.730000	-1.563078
	30.735000	-1.579195
	30.740000	-1.740363
	30.745000	-1.730693
	30.750000	-1.572748
	30.755000	-1.575972
	30.760000	-1.746810
	30.765000	-1.730693
	30.770000	-1.566302
	30.775000	-1.575972
	30.780000	-1.740363
	30.785000	-1.730693
	30.790000	-1.569525
	30.795000	-1.575972
	30.800000	-1.743586
	30.805000	-1.733916
	30.810000	-1.572748
	30.815000	-1.582418
	30.820000	-1.746810
	30.825000	-1.733916
	30.830000	-1.579195
	30.835000	-1.585642
	30.840000	-1.753257
	30.845000	-1.733916
	30.850000	-1.575972
	30.855000	-1.592089
	30.860000	-1.750033
	30.865000	-1.743586
	30.870000	-1.575972
	30.875000	-1.585642
	30.880000	-1.750033
	30.885000	-1.737140
	30.890000	-1.575972
	30.895000	-1.585642
	30.900000	-1.743586
	30.905000	-1.740363
	30.910000	-1.575972
	30.915000	-1.585642
	30.920000	-1.743586
	30.925000	-1.730693
	30.930000	-1.566302
	30.935000	-1.585642
	30.940000	-1.743586
	30.945000	-1.733916
	30.950000	-1.572748
	30.955000	-1.592089
	30.960000	-1.753257
	30.965000	-1.733916
	30.970000	-1.572748
	30.975000	-1.592089
	30.980000	-1.750033
	30.985000	-1.733916
	30.990000	-1.572748
	30.995000	-1.592089
	31.000000	-1.756480
	31.005000	-1.737140
	31.010000	-1.579195
	31.015000	-1.582418
	31.020000	-1.746810
	31.025000	-1.737140
	31.030000	-1.572748
	31.035000	-1.595312
	31.040000	-1.753257
	31.045000	-1.730693
	31.050000	-1.569525
	31.055000	-1.592089
	31.060000	-1.753257
	31.065000	-1.733916
	31.070000	-1.569525
	31.075000	-1.588865
	31.080000	-1.746810
	31.085000	-1.740363
	31.090000	-1.575972
	31.095000	-1.595312
	31.100000	-1.753257
	31.105000	-1.737140
	31.110000	-1.575972
	31.115000	-1.588865
	31.120000	-1.756480
	31.125000	-1.733916
	31.130000	-1.579195
	31.135000	-1.588865
	31.140000	-1.753257
	31.145000	-1.733916
	31.150000	-1.579195
	31.155000	-1.595312
	31.160000	-1.756480
	31.165000	-1.733916
	31.170000	-1.579195
	31.175000	-1.601759
	31.180000	-1.756480
	31.185000	-1.737140
	31.190000	-1.575972
	31.195000	-1.598535
	31.200000	-1.759703
	31.205000	-1.743586
	31.210000	-1.572748
	31.215000	-1.601759
	31.220000	-1.759703
	31.225000	-1.743586
	31.230000	-1.579195
	31.235000	-1.598535
	31.240000	-1.759703
	31.245000	-1.743586
	31.250000	-1.579195
	31.255000	-1.598535
	31.260000	-1.769373
	31.265000	-1.737140
	31.270000	-1.579195
	31.275000	-1.598535
	31.280000	-1.762927
	31.285000	-1.733916
	31.290000	-1.585642
	31.295000	-1.604982
	31.300000	-1.769373
	31.305000	-1.737140
	31.310000	-1.579195
	31.315000	-1.604982
	31.320000	-1.762927
	31.325000	-1.737140
	31.330000	-1.585642
	31.335000	-1.604982
	31.340000	-1.762927
	31.345000	-1.740363
	31.350000	-1.579195
	31.355000	-1.608205
	31.360000	-1.769373
	31.365000	-1.746810
	31.370000	-1.582418
	31.375000	-1.601759
	31.380000	-1.766150
	31.385000	-1.743586
	31.390000	-1.582418
	31.395000	-1.608205
	31.400000	-1.772597
	31.405000	-1.740363
	31.410000	-1.582418
	31.415000	-1.604982
	31.420000	-1.775820
	31.425000	-1.743586
	31.430000	-1.588865
	31.435000	-1.614652
	31.440000	-1.772597
	31.445000	-1.737140
	31.450000	-1.582418
	31.455000	-1.611429
	31.460000	-1.772597
	31.465000	-1.740363
	31.470000	-1.588865
	31.475000	-1.608205
	31.480000	-1.775820
	31.485000	-1.743586
	31.490000	-1.579195
	31.495000	-1.611429
	31.500000	-1.775820
	31.505000	-1.737140
	31.510000	-1.582418
	31.515000	-1.611429
	31.520000	-1.772597
	31.525000	-1.746810
	31.530000	-1.588865
	31.535000	-1.617875
	31.540000	-1.769373
	31.545000	-1.740363
	31.550000	-1.585642
	31.555000	-1.621099
	31.560000	-1.772597
	31.565000	-1.743586
	31.570000	-1.582418
	31.575000	-1.604982
	31.580000	-1.775820
	31.585000	-1.733916
	31.590000	-1.582418
	31.595000	-1.611429
	31.600000	-1.775820
	31.605000	-1.733916
	31.610000	-1.582418
	31.615000	-1.614652
	31.620000	-1.766150
	31.625000	-1.740363
	31.630000	-1.585642
	31.635000	-1.614652
	31.640000	-1.779043
	31.645000	-1.733916
	31.650000	-1.579195
	31.655000	-1.621099
	31.660000	-1.769373
	31.665000	-1.737140
	31.670000	-1.579195
	31.675000	-1.617875
	31.680000	-1.769373
	31.685000	-1.733916
	31.690000	-1.579195
	31.695000	-1.617875
	31.700000	-1.762927
	31.705000	-1.733916
	31.710000	-1.575972
	31.715000	-1.611429
	31.720000	-1.769373
	31.725000	-1.740363
	31.730000	-1.585642
	31.735000	-1.621099
	31.740000	-1.775820
	31.745000	-1.737140
	31.750000	-1.579195
	31.755000	-1.621099
	31.760000	-1.772597
	31.765000	-1.730693
	31.770000	-1.579195
	31.775000	-1.624322
	31.780000	-1.779043
	31.785000	-1.730693
	31.790000	-1.579195
	31.795000	-1.617875
	31.800000	-1.772597
	31.805000	-1.733916
	31.810000	-1.575972
	31.815000	-1.617875
	31.820000	-1.775820
	31.825000	-1.740363
	31.830000	-1.579195
	31.835000	-1.617875
	31.840000	-1.775820
	31.845000	-1.733916
	31.850000	-1.582418
	31.855000	-1.621099
	31.860000	-1.775820
	31.865000	-1.737140
	31.870000	-1.575972
	31.875000	-1.624322
	31.880000	-1.782267
	31.885000	-1.733916
	31.890000	-1.575972
	31.895000	-1.621099
	31.900000	-1.779043
	31.905000	-1.730693
	31.910000	-1.575972
	31.915000	-1.617875
	31.920000	-1.775820
	31.925000	-1.737140
	31.930000	-1.582418
	31.935000	-1.621099
	31.940000	-1.782267
	31.945000	-1.740363
	31.950000	-1.585642
	31.955000	-1.630769
	31.960000	-1.782267
	31.965000	-1.737140
	31.970000	-1.582418
	31.975000	-1.624322
	31.980000	-1.785490
	31.985000	-1.737140
	31.990000	-1.585642
	31.995000	-1.627546
	32.000000	-1.782267
	32.005000	-1.733916
	32.010000	-1.588865
	32.015000	-1.633992
	32.020000	-1.788713
	32.025000	-1.730693
	32.030000	-1.582418
	32.035000	-1.630769
	32.040000	-1.785490
	32.045000	-1.737140
	32.050000	-1.585642
	32.055000	-1.633992
	32.060000	-1.791937
	32.065000	-1.740363
	32.070000	-1.595312
	32.075000	-1.630769
	32.080000	-1.782267
	32.085000	-1.733916
	32.090000	-1.588865
	32.095000	-1.630769
	32.100000	-1.788713
	32.105000	-1.746810
	32.110000	-1.588865
	32.115000	-1.640439
	32.120000	-1.791937
	32.125000	-1.733916
	32.130000	-1.585642
	32.135000	-1.633992
	32.140000	-1.795160
	32.145000	-1.737140
	32.150000	-1.582418
	32.155000	-1.633992
	32.160000	-1.795160
	32.165000	-1.733916
	32.170000	-1.592089
	32.175000	-1.637216
	32.180000	-1.795160
	32.185000	-1.743586
	32.190000	-1.585642
	32.195000	-1.633992
	32.200000	-1.788713
	32.205000	-1.740363
	32.210000	-1.588865
	32.215000	-1.643662
	32.220000	-1.785490
	32.225000	-1.743586
	32.230000	-1.592089
	32.235000	-1.637216
	32.240000	-1.788713
	32.245000	-1.733916
	32.250000	-1.592089
	32.255000	-1.640439
	32.260000	-1.791937
	32.265000	-1.737140
	32.270000	-1.592089
	32.275000	-1.643662
	32.280000	-1.791937
	32.285000	-1.743586
	32.290000	-1.588865
	32.295000	-1.637216
	32.300000	-1.795160
	32.305000	-1.746810
	32.310000	-1.585642
	32.315000	-1.640439
	32.320000	-1.791937
	32.325000	-1.740363
	32.330000	-1.588865
	32.335000	-1.646886
	32.340000	-1.795160
	32.345000	-1.733916
	32.350000	-1.582418
	32.355000	-1.640439
	32.360000	-1.798384
	32.365000	-1.733916
	32.370000	-1.588865
	32.375000	-1.650109
	32.380000	-1.798384
	32.385000	-1.743586
	32.390000	-1.592089
	32.395000	-1.643662
	32.400000	-1.788713
	32.405000	-1.733916
	32.410000	-1.588865
	32.415000	-1.646886
	32.420000	-1.798384
	32.425000	-1.733916
	32.430000	-1.582418
	32.435000	-1.640439
	32.440000	-1.788713
	32.445000	-1.733916
	32.450000	-1.585642
	32.455000	-1.643662
	32.460000	-1.791937
	32.465000	-1.737140
	32.470000	-1.592089
	32.475000	-1.646886
	32.480000	-1.788713
	32.485000	-1.730693
	32.490000	-1.588865
	32.495000	-1.650109
	32.500000	-1.791937
	32.505000	-1.730693
	32.510000	-1.588865
	32.515000	-1.650109
	32.520000	-1.791937
	32.525000	-1.733916
	32.530000	-1.582418
	32.535000	-1.643662
	32.540000	-1.795160
	32.545000	-1.730693
	32.550000	-1.588865
	32.555000	-1.643662
	32.560000	-1.798384
	32.565000	-1.733916
	32.570000	-1.588865
	32.575000	-1.650109
	32.580000	-1.798384
	32.585000	-1.727470
	32.590000	-1.585642
	32.595000	-1.643662
	32.600000	-1.798384
	32.605000	-1.730693
	32.610000	-1.588865
	32.615000	-1.650109
	32.620000	-1.801607
	32.625000	-1.733916
	32.630000	-1.582418
	32.635000	-1.650109
	32.640000	-1.795160
	32.645000	-1.730693
	32.650000	-1.585642
	32.655000	-1.650109
	32.660000	-1.798384
	32.665000	-1.730693
	32.670000	-1.592089
	32.675000	-1.650109
	32.680000	-1.795160
	32.685000	-1.730693
	32.690000	-1.588865
	32.695000	-1.656556
	32.700000	-1.804830
	32.705000	-1.727470
	32.710000	-1.585642
	32.715000	-1.653332
	32.720000	-1.798384
	32.725000	-1.733916
	32.730000	-1.585642
	32.735000	-1.663002
	32.740000	-1.801607
	32.745000	-1.740363
	32.750000	-1.592089
	32.755000	-1.656556
	32.760000	-1.804830
	32.765000	-1.730693
	32.770000	-1.592089
	32.775000	-1.659779
	32.780000	-1.804830
	32.785000	-1.733916
	32.790000	-1.595312
	32.795000	-1.659779
	32.800000	-1.808054
	32.805000	-1.733916
	32.810000	-1.588865
	32.815000	-1.656556
	32.820000	-1.804830
	32.825000	-1.730693
	32.830000	-1.592089
	32.835000	-1.663002
	32.840000	-1.811277
	32.845000	-1.737140
	32.850000	-1.598535
	32.855000	-1.666226
	32.860000	-1.808054
	32.865000	-1.737140
	32.870000	-1.592089
	32.875000	-1.666226
	32.880000	-1.811277
	32.885000	-1.743586
	32.890000	-1.592089
	32.895000	-1.659779
	32.900000	-1.811277
	32.905000	-1.737140
	32.910000	-1.601759
	32.915000	-1.675896
	32.920000	-1.817724
	32.925000	-1.740363
	32.930000	-1.598535
	32.935000	-1.675896
	32.940000	-1.824170
	32.945000	-1.750033
	32.950000	-1.604982
	32.955000	-1.682343
	32.960000	-1.820947
	32.965000	-1.743586
	32.970000	-1.598535
	32.975000	-1.682343
	32.980000	-1.827394
	32.985000	-1.750033
	32.990000	-1.604982
	32.995000	-1.685566
	33.000000	-1.830617
	33.005000	-1.750033
	33.010000	-1.611429
	33.015000	-1.682343
	33.020000	-1.827394
	33.025000	-1.753257
	33.030000	-1.608205
	33.035000	-1.685566
	33.040000	-1.830617
	33.045000	-1.756480
	33.050000	-1.604982
	33.055000	-1.675896
	33.060000	-1.833840
	33.065000	-1.750033
	33.070000	-1.611429
	33.075000	-1.682343
	33.080000	-1.830617
	33.085000	-1.746810
	33.090000	-1.604982
	33.095000	-1.685566
	33.100000	-1.820947
	33.105000	-1.740363
	33.110000	-1.604982
	33.115000	-1.685566
	33.120000	-1.820947
	33.125000	-1.740363
	33.130000	-1.604982
	33.135000	-1.688789
	33.140000	-1.820947
	33.145000	-1.746810
	33.150000	-1.604982
	33.155000	-1.682343
	33.160000	-1.817724
	33.165000	-1.743586
	33.170000	-1.601759
	33.175000	-1.692013
	33.180000	-1.817724
	33.185000	-1.743586
	33.190000	-1.601759
	33.195000	-1.685566
	33.200000	-1.811277
	33.205000	-1.740363
	33.210000	-1.604982
	33.215000	-1.685566
	33.220000	-1.817724
	33.225000	-1.737140
	33.230000	-1.608205
	33.235000	-1.682343
	33.240000	-1.820947
	33.245000	-1.740363
	33.250000	-1.598535
	33.255000	-1.688789
	33.260000	-1.817724
	33.265000	-1.733916
	33.270000	-1.604982
	33.275000	-1.679119
	33.280000	-1.811277
	33.285000	-1.733916
	33.290000	-1.598535
	33.295000	-1.692013
	33.300000	-1.820947
	33.305000	-1.733916
	33.310000	-1.601759
	33.315000	-1.682343
	33.320000	-1.824170
	33.325000	-1.737140
	33.330000	-1.601759
	33.335000	-1.682343
	33.340000	-1.820947
	33.345000	-1.730693
	33.350000	-1.598535
	33.355000	-1.682343
	33.360000	-1.814500
	33.365000	-1.730693
	33.370000	-1.598535
	33.375000	-1.682343
	33.380000	-1.820947
	33.385000	-1.733916
	33.390000	-1.598535
	33.395000	-1.682343
	33.400000	-1.817724
	33.405000	-1.733916
	33.410000	-1.604982
	33.415000	-1.695236
	33.420000	-1.817724
	33.425000	-1.727470
	33.430000	-1.604982
	33.435000	-1.688789
	33.440000	-1.817724
	33.445000	-1.737140
	33.450000	-1.601759
	33.455000	-1.688789
	33.460000	-1.827394
	33.465000	-1.740363
	33.470000	-1.604982
	33.475000	-1.695236
	33.480000	-1.827394
	33.485000	-1.740363
	33.490000	-1.604982
	33.495000	-1.695236
	33.500000	-1.830617
	33.505000	-1.737140
	33.510000	-1.611429
	33.515000	-1.692013
	33.520000	-1.827394
	33.525000	-1.740363
	33.530000	-1.608205
	33.535000	-1.692013
	33.540000	-1.830617
	33.545000	-1.737140
	33.550000	-1.608205
	33.555000	-1.701683
	33.560000	-1.833840
	33.565000	-1.740363
	33.570000	-1.611429
	33.575000	-1.695236
	33.580000	-1.833840
	33.585000	-1.740363
	33.590000	-1.614652
	33.595000	-1.708129
	33.600000	-1.840287
	33.605000	-1.750033
	33.610000	-1.624322
	33.615000	-1.708129
	33.620000	-1.840287
	33.625000	-1.759703
	33.630000	-1.624322
	33.635000	-1.717800
	33.640000	-1.853181
	33.645000	-1.762927
	33.650000	-1.633992
	33.655000	-1.730693
	33.660000	-1.862851
	33.665000	-1.769373
	33.670000	-1.637216
	33.675000	-1.730693
	33.680000	-1.862851
	33.685000	-1.772597
	33.690000	-1.640439
	33.695000	-1.740363
	33.700000	-1.869297
	33.705000	-1.772597
	33.710000	-1.650109
	33.715000	-1.740363
	33.720000	-1.869297
	33.725000	-1.772597
	33.730000	-1.646886
	33.735000	-1.740363
	33.740000	-1.872521
	33.745000	-1.766150
	33.750000	-1.646886
	33.755000	-1.743586
	33.760000	-1.862851
	33.765000	-1.766150
	33.770000	-1.646886
	33.775000	-1.730693
	33.780000	-1.856404
	33.785000	-1.766150
	33.790000	-1.633992
	33.795000	-1.730693
	33.800000	-1.856404
	33.805000	-1.753257
	33.810000	-1.640439
	33.815000	-1.727470
	33.820000	-1.849957
	33.825000	-1.753257
	33.830000	-1.627546
	33.835000	-1.724246
	33.840000	-1.849957
	33.845000	-1.746810
	33.850000	-1.627546
	33.855000	-1.717800
	33.860000	-1.849957
	33.865000	-1.750033
	33.870000	-1.621099
	33.875000	-1.721023
	33.880000	-1.840287
	33.885000	-1.746810
	33.890000	-1.621099
	33.895000	-1.721023
	33.900000	-1.840287
	33.905000	-1.743586
	33.910000	-1.617875
	33.915000	-1.727470
	33.920000	-1.833840
	33.925000	-1.737140
	33.930000	-1.624322
	33.935000	-1.717800
	33.940000	-1.837064
	33.945000	-1.740363
	33.950000	-1.617875
	33.955000	-1.717800
	33.960000	-1.837064
	33.965000	-1.733916
	33.970000	-1.617875
	33.975000	-1.714576
	33.980000	-1.833840
	33.985000	-1.733916
	33.990000	-1.617875
	33.995000	-1.711353
	34.000000	-1.827394
	34.005000	-1.727470
	34.010000	-1.611429
	34.015000	-1.711353
	34.020000	-1.827394
	34.025000	-1.727470
	34.030000	-1.598535
	34.035000	-1.701683
	34.040000	-1.817724
	34.045000	-1.724246
	34.050000	-1.601759
	34.055000	-1.704906
	34.060000	-1.820947
	34.065000	-1.704906
	34.070000	-1.604982
	34.075000	-1.701683
	34.080000	-1.804830
	34.085000	-1.701683
	34.090000	-1.588865
	34.095000	-1.682343
	34.100000	-1.804830
	34.105000	-1.698459
	34.110000	-1.579195
	34.115000	-1.679119
	34.120000	-1.795160
	34.125000	-1.688789
	34.130000	-1.579195
	34.135000	-1.669449
	34.140000	-1.795160
	34.145000	-1.685566
	34.150000	-1.575972
	34.155000	-1.675896
	34.160000	-1.785490
	34.165000	-1.685566
	34.170000	-1.563078
	34.175000	-1.672673
	34.180000	-1.788713
	34.185000	-1.682343
	34.190000	-1.563078
	34.195000	-1.666226
	34.200000	-1.785490
	34.205000	-1.682343
	34.210000	-1.566302
	34.215000	-1.672673
	34.220000	-1.791937
	34.225000	-1.675896
	34.230000	-1.566302
	34.235000	-1.672673
	34.240000	-1.791937
	34.245000	-1.675896
	34.250000	-1.572748
	34.255000	-1.669449
	34.260000	-1.788713
	34.265000	-1.685566
	34.270000	-1.575972
	34.275000	-1.679119
	34.280000	-1.798384
	34.285000	-1.688789
	34.290000	-1.579195
	34.295000	-1.688789
	34.300000	-1.804830
	34.305000	-1.704906
	34.310000	-1.595312
	34.315000	-1.711353
	34.320000	-1.820947
	34.325000	-1.727470
	34.330000	-1.614652
	34.335000	-1.730693
	34.340000	-1.853181
	34.345000	-1.746810
	34.350000	-1.646886
	34.355000	-1.762927
	34.360000	-1.885414
	34.365000	-1.779043
	34.370000	-1.679119
	34.375000	-1.798384
	34.380000	-1.917648
	34.385000	-1.820947
	34.390000	-1.721023
	34.395000	-1.837064
	34.400000	-1.972445
	34.405000	-1.862851
	34.410000	-1.775820
	34.415000	-1.907978
	34.420000	-2.033689
	34.425000	-1.943435
	34.430000	-1.843511
	34.435000	-1.982115
	34.440000	-2.104603
	34.445000	-2.001455
	34.450000	-1.891861
	34.455000	-2.020795
	34.460000	-2.133613
	34.465000	-2.027242
	34.470000	-1.901531
	34.475000	-2.011125
	34.480000	-2.120719
	34.485000	-1.985338
	34.490000	-1.862851
	34.495000	-1.965998
	34.500000	-2.072369
	34.505000	-1.946658
	34.510000	-1.827394
	34.515000	-1.933765
	34.520000	-2.036912
	34.525000	-1.911201
	34.530000	-1.788713
	34.535000	-1.895084
	34.540000	-2.007902
	34.545000	-1.875744
	34.550000	-1.759703
	34.555000	-1.875744
	34.560000	-1.988562
	34.565000	-1.869297
	34.570000	-1.766150
	34.575000	-1.885414
	34.580000	-2.001455
	34.585000	-1.888638
	34.590000	-1.769373
	34.595000	-1.891861
	34.600000	-2.007902
	34.605000	-1.891861
	34.610000	-1.766150
	34.615000	-1.885414
	34.620000	-1.975668
	34.625000	-1.843511
	34.630000	-1.721023
	34.635000	-1.811277
	34.640000	-1.901531
	34.645000	-1.756480
	34.650000	-1.637216
	34.655000	-1.724246
	34.660000	-1.820947
	34.665000	-1.688789
	34.670000	-1.556632
	34.675000	-1.653332
	34.680000	-1.740363
	34.685000	-1.604982
	34.690000	-1.492164
	34.695000	-1.592089
	34.700000	-1.682343
	34.705000	-1.556632
	34.710000	-1.437367
	34.715000	-1.550185
	34.720000	-1.650109
	34.725000	-1.521175
	34.730000	-1.421251
	34.735000	-1.527621
	34.740000	-1.633992
	34.745000	-1.505058
	34.750000	-1.395464
	34.755000	-1.505058
	34.760000	-1.604982
	34.765000	-1.482494
	34.770000	-1.376124
	34.775000	-1.482494
	34.780000	-1.572748
	34.785000	-1.456707
	34.790000	-1.350337
	34.795000	-1.456707
	34.800000	-1.546962
	34.805000	-1.424474
	34.810000	-1.324550
	34.815000	-1.421251
	34.820000	-1.511505
	34.825000	-1.395464
	34.830000	-1.282646
	34.835000	-1.392240
	34.840000	-1.482494
	34.845000	-1.356783
	34.850000	-1.256859
	34.855000	-1.369677
	34.860000	-1.450261
	34.865000	-1.321326
	34.870000	-1.221402
	34.875000	-1.330996
	34.880000	-1.421251
	34.885000	-1.305210
	34.890000	-1.205285
	34.895000	-1.314880
	34.900000	-1.411580
	34.905000	-1.289093
	34.910000	-1.189169
	34.915000	-1.305210
	34.920000	-1.398687
	34.925000	-1.285869
	34.930000	-1.185945
	34.935000	-1.295540
	34.940000	-1.392240
	34.945000	-1.276199
	34.950000	-1.176275
	34.955000	-1.292316
	34.960000	-1.392240
	34.965000	-1.276199
	34.970000	-1.176275
	34.975000	-1.298763
	34.980000	-1.398687
	34.985000	-1.276199
	34.990000	-1.185945
	34.995000	-1.301986
	35.000000	-1.401910
	35.005000	-1.289093
	35.010000	-1.192392
	35.015000	-1.314880
	35.020000	-1.414804
	35.025000	-1.295540
	35.030000	-1.211732
	35.035000	-1.330996
	35.040000	-1.430921
	35.045000	-1.311656
	35.050000	-1.218179
	35.055000	-1.340667
	35.060000	-1.440591
	35.065000	-1.321326
	35.070000	-1.231072
	35.075000	-1.353560
	35.080000	-1.450261
	35.085000	-1.324550
	35.090000	-1.237519
	35.095000	-1.366453
	35.100000	-1.459931
	35.105000	-1.340667
	35.110000	-1.247189
	35.115000	-1.372900
	35.120000	-1.472824
	35.125000	-1.356783
	35.130000	-1.266529
	35.135000	-1.392240
	35.140000	-1.485718
	35.145000	-1.363230
	35.150000	-1.276199
	35.155000	-1.408357
	35.160000	-1.508281
	35.165000	-1.379347
	35.170000	-1.285869
	35.175000	-1.421251
	35.180000	-1.521175
	35.185000	-1.392240
	35.190000	-1.301986
	35.195000	-1.437367
	35.200000	-1.527621
	35.205000	-1.405134
	35.210000	-1.314880
	35.215000	-1.447037
	35.220000	-1.543738
	35.225000	-1.424474
	35.230000	-1.327773
	35.235000	-1.459931
	35.240000	-1.553408
	35.245000	-1.427697
	35.250000	-1.343890
	35.255000	-1.479271
	35.260000	-1.569525
	35.265000	-1.440591
	35.270000	-1.360007
	35.275000	-1.488941
	35.280000	-1.582418
	35.285000	-1.450261
	35.290000	-1.369677
	35.295000	-1.501835
	35.300000	-1.598535
	35.305000	-1.466378
	35.310000	-1.382570
	35.315000	-1.511505
	35.320000	-1.608205
	35.325000	-1.476048
	35.330000	-1.395464
	35.335000	-1.530845
	35.340000	-1.614652
	35.345000	-1.485718
	35.350000	-1.395464
	35.355000	-1.540515
	35.360000	-1.621099
	35.365000	-1.501835
	35.370000	-1.408357
	35.375000	-1.550185
	35.380000	-1.630769
	35.385000	-1.505058
	35.390000	-1.427697
	35.395000	-1.553408
	35.400000	-1.646886
	35.405000	-1.517951
	35.410000	-1.430921
	35.415000	-1.566302
	35.420000	-1.653332
	35.425000	-1.524398
	35.430000	-1.430921
	35.435000	-1.566302
	35.440000	-1.663002
	35.445000	-1.530845
	35.450000	-1.443814
	35.455000	-1.582418
	35.460000	-1.672673
	35.465000	-1.534068
	35.470000	-1.450261
	35.475000	-1.585642
	35.480000	-1.682343
	35.485000	-1.543738
	35.490000	-1.459931
	35.495000	-1.588865
	35.500000	-1.685566
	35.505000	-1.553408
	35.510000	-1.463154
	35.515000	-1.598535
	35.520000	-1.685566
	35.525000	-1.553408
	35.530000	-1.476048
	35.535000	-1.608205
	35.540000	-1.695236
	35.545000	-1.569525
	35.550000	-1.472824
	35.555000	-1.614652
	35.560000	-1.698459
	35.565000	-1.572748
	35.570000	-1.495388
	35.575000	-1.624322
	35.580000	-1.714576
	35.585000	-1.579195
	35.590000	-1.495388
	35.595000	-1.637216
	35.600000	-1.724246
	35.605000	-1.588865
	35.610000	-1.501835
	35.615000	-1.637216
	35.620000	-1.721023
	35.625000	-1.588865
	35.630000	-1.511505
	35.635000	-1.643662
	35.640000	-1.730693
	35.645000	-1.588865
	35.650000	-1.514728
	35.655000	-1.650109
	35.660000	-1.721023
	35.665000	-1.585642
	35.670000	-1.511505
	35.675000	-1.643662
	35.680000	-1.737140
	35.685000	-1.592089
	35.690000	-1.514728
	35.695000	-1.643662
	35.700000	-1.730693
	35.705000	-1.595312
	35.710000	-1.508281
	35.715000	-1.650109
	35.720000	-1.724246
	35.725000	-1.588865
	35.730000	-1.508281
	35.735000	-1.650109
	35.740000	-1.727470
	35.745000	-1.588865
	35.750000	-1.508281
	35.755000	-1.653332
	35.760000	-1.727470
	35.765000	-1.588865
	35.770000	-1.511505
	35.775000	-1.653332
	35.780000	-1.727470
	35.785000	-1.592089
	35.790000	-1.521175
	35.795000	-1.653332
	35.800000	-1.740363
	35.805000	-1.592089
	35.810000	-1.517951
	35.815000	-1.653332
	35.820000	-1.743586
	35.825000	-1.598535
	35.830000	-1.521175
	35.835000	-1.669449
	35.840000	-1.743586
	35.845000	-1.601759
	35.850000	-1.530845
	35.855000	-1.672673
	35.860000	-1.753257
	35.865000	-1.604982
	35.870000	-1.530845
	35.875000	-1.682343
	35.880000	-1.753257
	35.885000	-1.617875
	35.890000	-1.530845
	35.895000	-1.672673
	35.900000	-1.759703
	35.905000	-1.608205
	35.910000	-1.543738
	35.915000	-1.679119
	35.920000	-1.756480
	35.925000	-1.614652
	35.930000	-1.543738
	35.935000	-1.685566
	35.940000	-1.756480
	35.945000	-1.611429
	35.950000	-1.534068
	35.955000	-1.682343
	35.960000	-1.759703
	35.965000	-1.614652
	35.970000	-1.543738
	35.975000	-1.685566
	35.980000	-1.759703
	35.985000	-1.614652
	35.990000	-1.543738
	35.995000	-1.685566
	36.000000	-1.756480
	36.005000	-1.617875
	36.010000	-1.540515
	36.015000	-1.685566
	36.020000	-1.759703
	36.025000	-1.614652
	36.030000	-1.540515
	36.035000	-1.682343
	36.040000	-1.753257
	36.045000	-1.614652
	36.050000	-1.550185
	36.055000	-1.688789
	36.060000	-1.759703
	36.065000	-1.614652
	36.070000	-1.546962
	36.075000	-1.695236
	36.080000	-1.766150
	36.085000	-1.614652
	36.090000	-1.546962
	36.095000	-1.692013
	36.100000	-1.766150
	36.105000	-1.617875
	36.110000	-1.550185
	36.115000	-1.695236
	36.120000	-1.762927
	36.125000	-1.617875
	36.130000	-1.550185
	36.135000	-1.695236
	36.140000	-1.759703
	36.145000	-1.624322
	36.150000	-1.553408
	36.155000	-1.695236
	36.160000	-1.766150
	36.165000	-1.621099
	36.170000	-1.553408
	36.175000	-1.701683
	36.180000	-1.762927
	36.185000	-1.621099
	36.190000	-1.556632
	36.195000	-1.701683
	36.200000	-1.769373
	36.205000	-1.621099
	36.210000	-1.556632
	36.215000	-1.701683
	36.220000	-1.766150
	36.225000	-1.621099
	36.230000	-1.553408
	36.235000	-1.701683
	36.240000	-1.775820
	36.245000	-1.627546
	36.250000	-1.556632
	36.255000	-1.698459
	36.260000	-1.766150
	36.265000	-1.621099
	36.270000	-1.556632
	36.275000	-1.701683
	36.280000	-1.766150
	36.285000	-1.621099
	36.290000	-1.563078
	36.295000	-1.708129
	36.300000	-1.766150
	36.305000	-1.617875
	36.310000	-1.556632
	36.315000	-1.708129
	36.320000	-1.769373
	36.325000	-1.614652
	36.330000	-1.556632
	36.335000	-1.704906
	36.340000	-1.766150
	36.345000	-1.614652
	36.350000	-1.563078
	36.355000	-1.708129
	36.360000	-1.772597
	36.365000	-1.617875
	36.370000	-1.556632
	36.375000	-1.704906
	36.380000	-1.769373
	36.385000	-1.617875
	36.390000	-1.559855
	36.395000	-1.701683
	36.400000	-1.769373
	36.405000	-1.617875
	36.410000	-1.556632
	36.415000	-1.704906
	36.420000	-1.759703
	36.425000	-1.621099
	36.430000	-1.563078
	36.435000	-1.701683
	36.440000	-1.766150
	36.445000	-1.611429
	36.450000	-1.546962
	36.455000	-1.701683
	36.460000	-1.769373
	36.465000	-1.608205
	36.470000	-1.550185
	36.475000	-1.704906
	36.480000	-1.766150
	36.485000	-1.611429
	36.490000	-1.556632
	36.495000	-1.704906
	36.500000	-1.766150
	36.505000	-1.611429
	36.510000	-1.540515
	36.515000	-1.701683
	36.520000	-1.766150
	36.525000	-1.604982
	36.530000	-1.553408
	36.535000	-1.698459
	36.540000	-1.756480
	36.545000	-1.598535
	36.550000	-1.546962
	36.555000	-1.695236
	36.560000	-1.753257
	36.565000	-1.604982
	36.570000	-1.553408
	36.575000	-1.701683
	36.580000	-1.753257
	36.585000	-1.604982
	36.590000	-1.550185
	36.595000	-1.698459
	36.600000	-1.756480
	36.605000	-1.601759
	36.610000	-1.550185
	36.615000	-1.698459
	36.620000	-1.753257
	36.625000	-1.604982
	36.630000	-1.546962
	36.635000	-1.698459
	36.640000	-1.753257
	36.645000	-1.601759
	36.650000	-1.543738
	36.655000	-1.698459
	36.660000	-1.753257
	36.665000	-1.595312
	36.670000	-1.540515
	36.675000	-1.695236
	36.680000	-1.746810
	36.685000	-1.598535
	36.690000	-1.543738
	36.695000	-1.701683
	36.700000	-1.753257
	36.705000	-1.592089
	36.710000	-1.540515
	36.715000	-1.701683
	36.720000	-1.750033
	36.725000	-1.592089
	36.730000	-1.546962
	36.735000	-1.704906
	36.740000	-1.756480
	36.745000	-1.598535
	36.750000	-1.550185
	36.755000	-1.698459
	36.760000	-1.756480
	36.765000	-1.598535
	36.770000	-1.540515
	36.775000	-1.698459
	36.780000	-1.750033
	36.785000	-1.595312
	36.790000	-1.553408
	36.795000	-1.701683
	36.800000	-1.753257
	36.805000	-1.598535
	36.810000	-1.546962
	36.815000	-1.698459
	36.820000	-1.746810
	36.825000	-1.601759
	36.830000	-1.550185
	36.835000	-1.698459
	36.840000	-1.753257
	36.845000	-1.598535
	36.850000	-1.553408
	36.855000	-1.708129
	36.860000	-1.753257
	36.865000	-1.592089
	36.870000	-1.553408
	36.875000	-1.701683
	36.880000	-1.750033
	36.885000	-1.598535
	36.890000	-1.553408
	36.895000	-1.708129
	36.900000	-1.750033
	36.905000	-1.595312
	36.910000	-1.550185
	36.915000	-1.708129
	36.920000	-1.746810
	36.925000	-1.588865
	36.930000	-1.556632
	36.935000	-1.708129
	36.940000	-1.753257
	36.945000	-1.598535
	36.950000	-1.556632
	36.955000	-1.711353
	36.960000	-1.756480
	36.965000	-1.601759
	36.970000	-1.553408
	36.975000	-1.714576
	36.980000	-1.750033
	36.985000	-1.598535
	36.990000	-1.553408
	36.995000	-1.714576
	37.000000	-1.759703
	37.005000	-1.601759
	37.010000	-1.559855
	37.015000	-1.717800
	37.020000	-1.759703
	37.025000	-1.604982
	37.030000	-1.556632
	37.035000	-1.711353
	37.040000	-1.753257
	37.045000	-1.598535
	37.050000	-1.553408
	37.055000	-1.714576
	37.060000	-1.762927
	37.065000	-1.604982
	37.070000	-1.559855
	37.075000	-1.714576
	37.080000	-1.759703
	37.085000	-1.598535
	37.090000	-1.559855
	37.095000	-1.714576
	37.100000	-1.753257
	37.105000	-1.601759
	37.110000	-1.563078
	37.115000	-1.717800
	37.120000	-1.766150
	37.125000	-1.595312
	37.130000	-1.559855
	37.135000	-1.711353
	37.140000	-1.756480
	37.145000	-1.604982
	37.150000	-1.566302
	37.155000	-1.714576
	37.160000	-1.766150
	37.165000	-1.601759
	37.170000	-1.563078
	37.175000	-1.717800
	37.180000	-1.762927
	37.185000	-1.598535
	37.190000	-1.563078
	37.195000	-1.717800
	37.200000	-1.753257
	37.205000	-1.601759
	37.210000	-1.566302
	37.215000	-1.730693
	37.220000	-1.759703
	37.225000	-1.598535
	37.230000	-1.572748
	37.235000	-1.730693
	37.240000	-1.759703
	37.245000	-1.601759
	37.250000	-1.566302
	37.255000	-1.724246
	37.260000	-1.762927
	37.265000	-1.598535
	37.270000	-1.572748
	37.275000	-1.721023
	37.280000	-1.759703
	37.285000	-1.604982
	37.290000	-1.566302
	37.295000	-1.721023
	37.300000	-1.750033
	37.305000	-1.595312
	37.310000	-1.569525
	37.315000	-1.730693
	37.320000	-1.762927
	37.325000	-1.601759
	37.330000	-1.563078
	37.335000	-1.727470
	37.340000	-1.759703
	37.345000	-1.598535
	37.350000	-1.559855
	37.355000	-1.730693
	37.360000	-1.766150
	37.365000	-1.601759
	37.370000	-1.566302
	37.375000	-1.721023
	37.380000	-1.759703
	37.385000	-1.598535
	37.390000	-1.572748
	37.395000	-1.721023
	37.400000	-1.753257
	37.405000	-1.595312
	37.410000	-1.569525
	37.415000	-1.724246
	37.420000	-1.759703
	37.425000	-1.598535
	37.430000	-1.566302
	37.435000	-1.727470
	37.440000	-1.756480
	37.445000	-1.601759
	37.450000	-1.569525
	37.455000	-1.730693
	37.460000	-1.756480
	37.465000	-1.601759
	37.470000	-1.575972
	37.475000	-1.727470
	37.480000	-1.756480
	37.485000	-1.595312
	37.490000	-1.569525
	37.495000	-1.733916
	37.500000	-1.762927
	37.505000	-1.595312
	37.510000	-1.575972
	37.515000	-1.727470
	37.520000	-1.756480
	37.525000	-1.601759
	37.530000	-1.575972
	37.535000	-1.733916
	37.540000	-1.766150
	37.545000	-1.598535
	37.550000	-1.572748
	37.555000	-1.733916
	37.560000	-1.762927
	37.565000	-1.598535
	37.570000	-1.579195
	37.575000	-1.733916
	37.580000	-1.762927
	37.585000	-1.598535
	37.590000	-1.575972
	37.595000	-1.743586
	37.600000	-1.756480
	37.605000	-1.601759
	37.610000	-1.582418
	37.615000	-1.740363
	37.620000	-1.766150
	37.625000	-1.598535
	37.630000	-1.579195
	37.635000	-1.733916
	37.640000	-1.766150
	37.645000	-1.601759
	37.650000	-1.582418
	37.655000	-1.746810
	37.660000	-1.762927
	37.665000	-1.604982
	37.670000	-1.579195
	37.675000	-1.743586
	37.680000	-1.769373
	37.685000	-1.598535
	37.690000	-1.585642
	37.695000	-1.740363
	37.700000	-1.766150
	37.705000	-1.601759
	37.710000	-1.585642
	37.715000	-1.743586
	37.720000	-1.769373
	37.725000	-1.598535
	37.730000	-1.582418
	37.735000	-1.750033
	37.740000	-1.759703
	37.745000	-1.604982
	37.750000	-1.585642
	37.755000	-1.750033
	37.760000	-1.766150
	37.765000	-1.598535
	37.770000	-1.588865
	37.775000	-1.746810
	37.780000	-1.762927
	37.785000	-1.604982
	37.790000	-1.585642
	37.795000	-1.746810
	37.800000	-1.769373
	37.805000	-1.595312
	37.810000	-1.585642
	37.815000	-1.746810
	37.820000	-1.766150
	37.825000	-1.598535
	37.830000	-1.588865
	37.835000	-1.743586
	37.840000	-1.762927
	37.845000	-1.598535
	37.850000	-1.579195
	37.855000	-1.750033
	37.860000	-1.762927
	37.865000	-1.598535
	37.870000	-1.588865
	37.875000	-1.743586
	37.880000	-1.756480
	37.885000	-1.595312
	37.890000	-1.575972
	37.895000	-1.740363
	37.900000	-1.759703
	37.905000	-1.592089
	37.910000	-1.582418
	37.915000	-1.733916
	37.920000	-1.753257
	37.925000	-1.592089
	37.930000	-1.582418
	37.935000	-1.737140
	37.940000	-1.756480
	37.945000	-1.598535
	37.950000	-1.585642
	37.955000	-1.743586
	37.960000	-1.753257
	37.965000	-1.598535
	37.970000	-1.579195
	37.975000	-1.743586
	37.980000	-1.756480
	37.985000	-1.588865
	37.990000	-1.582418
	37.995000	-1.740363
	38.000000	-1.759703
	38.005000	-1.592089
	38.010000	-1.592089
	38.015000	-1.753257
	38.020000	-1.756480
	38.025000	-1.598535
	38.030000	-1.588865
	38.035000	-1.750033
	38.040000	-1.766150
	38.045000	-1.595312
	38.050000	-1.585642
	38.055000	-1.756480
	38.060000	-1.759703
	38.065000	-1.598535
	38.070000	-1.588865
	38.075000	-1.753257
	38.080000	-1.759703
	38.085000	-1.604982
	38.090000	-1.588865
	38.095000	-1.750033
	38.100000	-1.756480
	38.105000	-1.604982
	38.110000	-1.592089
	38.115000	-1.756480
	38.120000	-1.766150
	38.125000	-1.601759
	38.130000	-1.592089
	38.135000	-1.756480
	38.140000	-1.766150
	38.145000	-1.598535
	38.150000	-1.595312
	38.155000	-1.759703
	38.160000	-1.762927
	38.165000	-1.604982
	38.170000	-1.598535
	38.175000	-1.756480
	38.180000	-1.762927
	38.185000	-1.598535
	38.190000	-1.598535
	38.195000	-1.766150
	38.200000	-1.766150
	38.205000	-1.604982
	38.210000	-1.601759
	38.215000	-1.762927
	38.220000	-1.762927
	38.225000	-1.608205
	38.230000	-1.598535
	38.235000	-1.762927
	38.240000	-1.772597
	38.245000	-1.604982
	38.250000	-1.601759
	38.255000	-1.769373
	38.260000	-1.775820
	38.265000	-1.614652
	38.270000	-1.611429
	38.275000	-1.772597
	38.280000	-1.772597
	38.285000	-1.611429
	38.290000	-1.611429
	38.295000	-1.775820
	38.300000	-1.779043
	38.305000	-1.614652
	38.310000	-1.608205
	38.315000	-1.775820
	38.320000	-1.782267
	38.325000	-1.614652
	38.330000	-1.611429
	38.335000	-1.779043
	38.340000	-1.782267
	38.345000	-1.617875
	38.350000	-1.611429
	38.355000	-1.785490
	38.360000	-1.782267
	38.365000	-1.621099
	38.370000	-1.614652
	38.375000	-1.782267
	38.380000	-1.779043
	38.385000	-1.624322
	38.390000	-1.611429
	38.395000	-1.785490
	38.400000	-1.779043
	38.405000	-1.621099
	38.410000	-1.614652
	38.415000	-1.785490
	38.420000	-1.779043
	38.425000	-1.611429
	38.430000	-1.617875
	38.435000	-1.779043
	38.440000	-1.779043
	38.445000	-1.614652
	38.450000	-1.611429
	38.455000	-1.775820
	38.460000	-1.772597
	38.465000	-1.608205
	38.470000	-1.611429
	38.475000	-1.779043
	38.480000	-1.769373
	38.485000	-1.608205
	38.490000	-1.611429
	38.495000	-1.779043
	38.500000	-1.779043
	38.505000	-1.601759
	38.510000	-1.611429
	38.515000	-1.775820
	38.520000	-1.766150
	38.525000	-1.604982
	38.530000	-1.608205
	38.535000	-1.779043
	38.540000	-1.766150
	38.545000	-1.604982
	38.550000	-1.611429
	38.555000	-1.775820
	38.560000	-1.762927
	38.565000	-1.611429
	38.570000	-1.617875
	38.575000	-1.775820
	38.580000	-1.766150
	38.585000	-1.608205
	38.590000	-1.611429
	38.595000	-1.788713
	38.600000	-1.769373
	38.605000	-1.601759
	38.610000	-1.611429
	38.615000	-1.779043
	38.620000	-1.766150
	38.625000	-1.601759
	38.630000	-1.611429
	38.635000	-1.782267
	38.640000	-1.762927
	38.645000	-1.598535
	38.650000	-1.598535
	38.655000	-1.766150
	38.660000	-1.759703
	38.665000	-1.592089
	38.670000	-1.595312
	38.675000	-1.762927
	38.680000	-1.750033
	38.685000	-1.588865
	38.690000	-1.598535
	38.695000	-1.759703
	38.700000	-1.740363
	38.705000	-1.582418
	38.710000	-1.585642
	38.715000	-1.750033
	38.720000	-1.743586
	38.725000	-1.579195
	38.730000	-1.595312
	38.735000	-1.753257
	38.740000	-1.740363
	38.745000	-1.575972
	38.750000	-1.592089
	38.755000	-1.753257
	38.760000	-1.746810
	38.765000	-1.582418
	38.770000	-1.592089
	38.775000	-1.759703
	38.780000	-1.740363
	38.785000	-1.575972
	38.790000	-1.598535
	38.795000	-1.756480
	38.800000	-1.740363
	38.805000	-1.575972
	38.810000	-1.585642
	38.815000	-1.759703
	38.820000	-1.746810
	38.825000	-1.582418
	38.830000	-1.598535
	38.835000	-1.762927
	38.840000	-1.746810
	38.845000	-1.585642
	38.850000	-1.601759
	38.855000	-1.769373
	38.860000	-1.746810
	38.865000	-1.585642
	38.870000	-1.604982
	38.875000	-1.759703
	38.880000	-1.750033
	38.885000	-1.585642
	38.890000	-1.598535
	38.895000	-1.769373
	38.900000	-1.750033
	38.905000	-1.585642
	38.910000	-1.611429
	38.915000	-1.766150
	38.920000	-1.756480
	38.925000	-1.598535
	38.930000	-1.611429
	38.935000	-1.772597
	38.940000	-1.756480
	38.945000	-1.595312
	38.950000	-1.611429
	38.955000	-1.772597
	38.960000	-1.756480
	38.965000	-1.595312
	38.970000	-1.611429
	38.975000	-1.782267
	38.980000	-1.762927
	38.985000	-1.592089
	38.990000	-1.617875
	38.995000	-1.779043
	39.000000	-1.753257
	39.005000	-1.598535
	39.010000	-1.614652
	39.015000	-1.785490
	39.020000	-1.759703
	39.025000	-1.598535
	39.030000	-1.614652
	39.035000	-1.782267
	39.040000	-1.750033
	39.045000	-1.598535
	39.050000	-1.621099
	39.055000	-1.775820
	39.060000	-1.759703
	39.065000	-1.598535
	39.070000	-1.617875
	39.075000	-1.782267
	39.080000	-1.756480
	39.085000	-1.598535
	39.090000	-1.611429
	39.095000	-1.779043
	39.100000	-1.756480
	39.105000	-1.595312
	39.110000	-1.621099
	39.115000	-1.779043
	39.120000	-1.759703
	39.125000	-1.598535
	39.130000	-1.617875
	39.135000	-1.779043
	39.140000	-1.756480
	39.145000	-1.595312
	39.150000	-1.621099
	39.155000	-1.788713
	39.160000	-1.759703
	39.165000	-1.598535
	39.170000	-1.627546
	39.175000	-1.788713
	39.180000	-1.756480
	39.185000	-1.601759
	39.190000	-1.624322
	39.195000	-1.785490
	39.200000	-1.756480
	39.205000	-1.598535
	39.210000	-1.627546
	39.215000	-1.788713
	39.220000	-1.753257
	39.225000	-1.601759
	39.230000	-1.627546
	39.235000	-1.788713
	39.240000	-1.756480
	39.245000	-1.604982
	39.250000	-1.633992
	39.255000	-1.785490
	39.260000	-1.762927
	39.265000	-1.601759
	39.270000	-1.633992
	39.275000	-1.788713
	39.280000	-1.762927
	39.285000	-1.608205
	39.290000	-1.633992
	39.295000	-1.788713
	39.300000	-1.759703
	39.305000	-1.604982
	39.310000	-1.630769
	39.315000	-1.798384
	39.320000	-1.762927
	39.325000	-1.598535
	39.330000	-1.633992
	39.335000	-1.798384
	39.340000	-1.762927
	39.345000	-1.611429
	39.350000	-1.637216
	39.355000	-1.795160
	39.360000	-1.759703
	39.365000	-1.604982
	39.370000	-1.630769
	39.375000	-1.791937
	39.380000	-1.759703
	39.385000	-1.608205
	39.390000	-1.640439
	39.395000	-1.801607
	39.400000	-1.762927
	39.405000	-1.601759
	39.410000	-1.643662
	39.415000	-1.801607
	39.420000	-1.769373
	39.425000	-1.604982
	39.430000	-1.640439
	39.435000	-1.798384
	39.440000	-1.766150
	39.445000	-1.604982
	39.450000	-1.646886
	39.455000	-1.798384
	39.460000	-1.762927
	39.465000	-1.611429
	39.470000	-1.640439
	39.475000	-1.801607
	39.480000	-1.766150
	39.485000	-1.604982
	39.490000	-1.643662
	39.495000	-1.798384
	39.500000	-1.759703
	39.505000	-1.604982
	39.510000	-1.650109
	39.515000	-1.804830
	39.520000	-1.762927
	39.525000	-1.611429
	39.530000	-1.646886
	39.535000	-1.801607
	39.540000	-1.762927
	39.545000	-1.604982
	39.550000	-1.650109
	39.555000	-1.801607
	39.560000	-1.769373
	39.565000	-1.608205
	39.570000	-1.640439
	39.575000	-1.795160
	39.580000	-1.762927
	39.585000	-1.611429
	39.590000	-1.643662
	39.595000	-1.798384
	39.600000	-1.762927
	39.605000	-1.608205
	39.610000	-1.650109
	39.615000	-1.808054
	39.620000	-1.766150
	39.625000	-1.617875
	39.630000	-1.646886
	39.635000	-1.804830
	39.640000	-1.772597
	39.645000	-1.608205
	39.650000	-1.653332
	39.655000	-1.808054
	39.660000	-1.766150
	39.665000	-1.614652
	39.670000	-1.656556
	39.675000	-1.817724
	39.680000	-1.769373
	39.685000	-1.611429
	39.690000	-1.656556
	39.695000	-1.811277
	39.700000	-1.766150
	39.705000	-1.614652
	39.710000	-1.656556
	39.715000	-1.814500
	39.720000	-1.766150
	39.725000	-1.614652
	39.730000	-1.653332
	39.735000	-1.814500
	39.740000	-1.769373
	39.745000	-1.604982
	39.750000	-1.650109
	39.755000	-1.817724
	39.760000	-1.766150
	39.765000	-1.611429
	39.770000	-1.659779
	39.775000	-1.808054
	39.780000	-1.769373
	39.785000	-1.621099
	39.790000	-1.659779
	39.795000	-1.808054
	39.800000	-1.759703
	39.805000	-1.614652
	39.810000	-1.659779
	39.815000	-1.811277
	39.820000	-1.766150
	39.825000	-1.617875
	39.830000	-1.659779
	39.835000	-1.814500
	39.840000	-1.762927
	39.845000	-1.614652
	39.850000	-1.659779
	39.855000	-1.817724
	39.860000	-1.766150
	39.865000	-1.617875
	39.870000	-1.663002
	39.875000	-1.814500
	39.880000	-1.769373
	39.885000	-1.614652
	39.890000	-1.663002
	39.895000	-1.820947
	39.900000	-1.769373
	39.905000	-1.611429
	39.910000	-1.659779
	39.915000	-1.814500
	39.920000	-1.772597
	39.925000	-1.611429
	39.930000	-1.669449
	39.935000	-1.811277
	39.940000	-1.759703
	39.945000	-1.611429
	39.950000	-1.656556
	39.955000	-1.811277
	39.960000	-1.766150
	39.965000	-1.614652
	39.970000	-1.663002
	39.975000	-1.814500
	39.980000	-1.762927
	39.985000	-1.611429
	39.990000	-1.663002
	39.995000	-1.817724
	40.000000	-1.762927
	40.005000	-1.617875
	40.010000	-1.659779
	40.015000	-1.820947
	40.020000	-1.769373
	40.025000	-1.614652
	40.030000	-1.659779
	40.035000	-1.820947
	40.040000	-1.762927
	40.045000	-1.611429
	40.050000	-1.663002
	40.055000	-1.820947
	40.060000	-1.756480
	40.065000	-1.611429
	40.070000	-1.666226
	40.075000	-1.817724
	40.080000	-1.762927
	40.085000	-1.611429
	40.090000	-1.669449
	40.095000	-1.811277
	40.100000	-1.759703
	40.105000	-1.614652
	40.110000	-1.666226
	40.115000	-1.820947
	40.120000	-1.759703
	40.125000	-1.611429
	40.130000	-1.659779
	40.135000	-1.817724
	40.140000	-1.759703
	40.145000	-1.608205
	40.150000	-1.659779
	40.155000	-1.811277
	40.160000	-1.750033
	40.165000	-1.604982
	40.170000	-1.666226
	40.175000	-1.808054
	40.180000	-1.753257
	40.185000	-1.598535
	40.190000	-1.659779
	40.195000	-1.808054
	40.200000	-1.746810
	40.205000	-1.598535
	40.210000	-1.656556
	40.215000	-1.804830
	40.220000	-1.756480
	40.225000	-1.598535
	40.230000	-1.659779
	40.235000	-1.798384
	40.240000	-1.753257
	40.245000	-1.598535
	40.250000	-1.646886
	40.255000	-1.798384
	40.260000	-1.740363
	40.265000	-1.592089
	40.270000	-1.653332
	40.275000	-1.798384
	40.280000	-1.740363
	40.285000	-1.598535
	40.290000	-1.650109
	40.295000	-1.795160
	40.300000	-1.740363
	40.305000	-1.595312
	40.310000	-1.650109
	40.315000	-1.801607
	40.320000	-1.733916
	40.325000	-1.588865
	40.330000	-1.643662
	40.335000	-1.795160
	40.340000	-1.733916
	40.345000	-1.582418
	40.350000	-1.637216
	40.355000	-1.795160
	40.360000	-1.727470
	40.365000	-1.582418
	40.370000	-1.643662
	40.375000	-1.795160
	40.380000	-1.727470
	40.385000	-1.585642
	40.390000	-1.640439
	40.395000	-1.788713
	40.400000	-1.727470
	40.405000	-1.582418
	40.410000	-1.640439
	40.415000	-1.785490
	40.420000	-1.721023
	40.425000	-1.575972
	40.430000	-1.640439
	40.435000	-1.782267
	40.440000	-1.724246
	40.445000	-1.582418
	40.450000	-1.640439
	40.455000	-1.788713
	40.460000	-1.717800
	40.465000	-1.575972
	40.470000	-1.640439
	40.475000	-1.782267
	40.480000	-1.727470
	40.485000	-1.569525
	40.490000	-1.643662
	40.495000	-1.779043
	40.500000	-1.727470
	40.505000	-1.572748
	40.510000	-1.640439
	40.515000	-1.785490
	40.520000	-1.721023
	40.525000	-1.579195
	40.530000	-1.640439
	40.535000	-1.785490
	40.540000	-1.717800
	40.545000	-1.579195
	40.550000	-1.643662
	40.555000	-1.788713
	40.560000	-1.721023
	40.565000	-1.582418
	40.570000	-1.640439
	40.575000	-1.788713
	40.580000	-1.717800
	40.585000	-1.572748
	40.590000	-1.643662
	40.595000	-1.785490
	40.600000	-1.714576
	40.605000	-1.579195
	40.610000	-1.646886
	40.615000	-1.791937
	40.620000	-1.717800
	40.625000	-1.579195
	40.630000	-1.643662
	40.635000	-1.795160
	40.640000	-1.724246
	40.645000	-1.579195
	40.650000	-1.646886
	40.655000	-1.791937
	40.660000	-1.714576
	40.665000	-1.579195
	40.670000	-1.650109
	40.675000	-1.795160
	40.680000	-1.717800
	40.685000	-1.579195
	40.690000	-1.650109
	40.695000	-1.791937
	40.700000	-1.721023
	40.705000	-1.579195
	40.710000	-1.650109
	40.715000	-1.795160
	40.720000	-1.717800
	40.725000	-1.585642
	40.730000	-1.643662
	40.735000	-1.798384
	40.740000	-1.721023
	40.745000	-1.585642
	40.750000	-1.650109
	40.755000	-1.791937
	40.760000	-1.717800
	40.765000	-1.575972
	40.770000	-1.653332
	40.775000	-1.795160
	40.780000	-1.721023
	40.785000	-1.585642
	40.790000	-1.656556
	40.795000	-1.795160
	40.800000	-1.727470
	40.805000	-1.585642
	40.810000	-1.653332
	40.815000	-1.798384
	40.820000	-1.721023
	40.825000	-1.585642
	40.830000	-1.656556
	40.835000	-1.798384
	40.840000	-1.724246
	40.845000	-1.585642
	40.850000	-1.663002
	40.855000	-1.801607
	40.860000	-1.717800
	40.865000	-1.585642
	40.870000	-1.663002
	40.875000	-1.798384
	40.880000	-1.717800
	40.885000	-1.579195
	40.890000	-1.659779
	40.895000	-1.791937
	40.900000	-1.711353
	40.905000	-1.575972
	40.910000	-1.650109
	40.915000	-1.788713
	40.920000	-1.704906
	40.925000	-1.566302
	40.930000	-1.650109
	40.935000	-1.775820
	40.940000	-1.701683
	40.945000	-1.563078
	40.950000	-1.633992
	40.955000	-1.775820
	40.960000	-1.695236
	40.965000	-1.559855
	40.970000	-1.633992
	40.975000	-1.762927
	40.980000	-1.682343
	40.985000	-1.543738
	40.990000	-1.617875
	40.995000	-1.753257
	41.000000	-1.669449
	41.005000	-1.524398
	41.010000	-1.569525
	41.015000	-1.666226
	41.020000	-1.569525
	41.025000	-1.411580
	41.030000	-1.482494
	41.035000	-1.604982
	41.040000	-1.514728
	41.045000	-1.379347
	41.050000	-1.453484
	41.055000	-1.585642
	41.060000	-1.505058
	41.065000	-1.498611
	41.070000	-1.814500
	41.075000	-2.024019
	41.080000	-2.149730
	41.085000	-2.252877
	41.090000	-2.307674
	41.095000	-2.349578
	41.100000	-2.385035
	41.105000	-2.401152
	41.110000	-2.417268
	41.115000	-2.430162
	41.120000	-2.436609
	41.125000	-2.436609
	41.130000	-2.443055
	41.135000	-2.436609
	41.140000	-2.449502
	41.145000	-2.443055
	41.150000	-2.446279
	41.155000	-2.446279
	41.160000	-2.446279
	41.165000	-2.446279
	41.170000	-2.449502
	41.175000	-2.443055
	41.180000	-2.443055
	41.185000	-2.449502
	41.190000	-2.449502
	41.195000	-2.452725
	41.200000	-2.446279
	41.205000	-2.452725
	41.210000	-2.455949
	41.215000	-2.449502
	41.220000	-2.439832
	41.225000	-2.446279
	41.230000	-2.452725
	41.235000	-2.446279
	41.240000	-2.443055
	41.245000	-2.446279
	41.250000	-2.452725
	41.255000	-2.443055
	41.260000	-2.446279
	41.265000	-2.439832
	41.270000	-2.449502
	41.275000	-2.443055
	41.280000	-2.449502
	41.285000	-2.443055
	41.290000	-2.452725
	41.295000	-2.449502
	41.300000	-2.443055
	41.305000	-2.449502
	41.310000	-2.455949
	41.315000	-2.446279
	41.320000	-2.449502
	41.325000	-2.452725
	41.330000	-2.449502
	41.335000	-2.449502
	41.340000	-2.449502
	41.345000	-2.446279
	41.350000	-2.449502
	41.355000	-2.446279
	41.360000	-2.446279
	41.365000	-2.452725
	41.370000	-2.446279
	41.375000	-2.446279
	41.380000	-2.443055
	41.385000	-2.446279
	41.390000	-2.446279
	41.395000	-2.446279
	41.400000	-2.446279
	41.405000	-2.446279
	41.410000	-2.449502
	41.415000	-2.449502
	41.420000	-2.449502
	41.425000	-2.446279
	41.430000	-2.449502
	41.435000	-2.452725
	41.440000	-2.449502
	41.445000	-2.449502
	41.450000	-2.455949
	41.455000	-2.443055
	41.460000	-2.449502
	41.465000	-2.449502
	41.470000	-2.449502
	41.475000	-2.446279
	41.480000	-2.455949
	41.485000	-2.449502
	41.490000	-2.446279
	41.495000	-2.443055
	41.500000	-2.449502
	41.505000	-2.449502
	41.510000	-2.449502
	41.515000	-2.446279
	41.520000	-2.449502
	41.525000	-2.449502
	41.530000	-2.446279
	41.535000	-2.449502
	41.540000	-2.452725
	41.545000	-2.449502
	41.550000	-2.446279
	41.555000	-2.449502
	41.560000	-2.443055
	41.565000	-2.449502
	41.570000	-2.449502
	41.575000	-2.449502
	41.580000	-2.439832
	41.585000	-2.449502
	41.590000	-2.446279
	41.595000	-2.449502
	41.600000	-2.443055
	41.605000	-2.449502
	41.610000	-2.446279
	41.615000	-2.449502
	41.620000	-2.446279
	41.625000	-2.449502
	41.630000	-2.452725
	41.635000	-2.449502
	41.640000	-2.446279
	41.645000	-2.452725
	41.650000	-2.449502
	41.655000	-2.452725
	41.660000	-2.446279
	41.665000	-2.455949
	41.670000	-2.455949
	41.675000	-2.452725
	41.680000	-2.446279
	41.685000	-2.449502
	41.690000	-2.452725
	41.695000	-2.449502
	41.700000	-2.443055
	41.705000	-2.449502
	41.710000	-2.452725
	41.715000	-2.449502
	41.720000	-2.443055
	41.725000	-2.449502
	41.730000	-2.449502
	41.735000	-2.443055
	41.740000	-2.443055
	41.745000	-2.452725
	41.750000	-2.449502
	41.755000	-2.446279
	41.760000	-2.443055
	41.765000	-2.449502
	41.770000	-2.452725
	41.775000	-2.452725
	41.780000	-2.443055
	41.785000	-2.449502
	41.790000	-2.452725
	41.795000	-2.449502
	41.800000	-2.446279
	41.805000	-2.449502
	41.810000	-2.452725
	41.815000	-2.446279
	41.820000	-2.443055
	41.825000	-2.446279
	41.830000	-2.452725
	41.835000	-2.449502
	41.840000	-2.449502
	41.845000	-2.446279
	41.850000	-2.449502
	41.855000	-2.443055
	41.860000	-2.439832
	41.865000	-2.443055
	41.870000	-2.449502
	41.875000	-2.449502
	41.880000	-2.446279
	41.885000	-2.446279
	41.890000	-2.446279
	41.895000	-2.449502
	41.900000	-2.449502
	41.905000	-2.449502
	41.910000	-2.449502
	41.915000	-2.449502
	41.920000	-2.439832
	41.925000	-2.449502
	41.930000	-2.449502
	41.935000	-2.443055
	41.940000	-2.446279
	41.945000	-2.443055
	41.950000	-2.452725
	41.955000	-2.446279
	41.960000	-2.446279
	41.965000	-2.443055
