2024/7/10 	 20:49:49 
 This file comes from Vt only measurement 	 1.000000E-1 
 Voltage Sensitivity 	 0.000000E+0 
 Sampling rate 	 200 
 Number of samples per channel 	 -1 
 No filter from Labview 	 	 	 
 	 
 ***End_of_Header*** 
 	 Time 	  Voltage 	 Filtered Voltage 	 
	0.000000	-1.666226
	0.005000	-1.495388
	0.010000	-1.521175
	0.015000	-1.688789
	0.020000	-1.666226
	0.025000	-1.488941
	0.030000	-1.508281
	0.035000	-1.695236
	0.040000	-1.663002
	0.045000	-1.488941
	0.050000	-1.511505
	0.055000	-1.692013
	0.060000	-1.669449
	0.065000	-1.495388
	0.070000	-1.514728
	0.075000	-1.688789
	0.080000	-1.659779
	0.085000	-1.488941
	0.090000	-1.511505
	0.095000	-1.692013
	0.100000	-1.663002
	0.105000	-1.492164
	0.110000	-1.514728
	0.115000	-1.682343
	0.120000	-1.659779
	0.125000	-1.485718
	0.130000	-1.514728
	0.135000	-1.685566
	0.140000	-1.646886
	0.145000	-1.479271
	0.150000	-1.505058
	0.155000	-1.675896
	0.160000	-1.659779
	0.165000	-1.482494
	0.170000	-1.498611
	0.175000	-1.675896
	0.180000	-1.650109
	0.185000	-1.472824
	0.190000	-1.495388
	0.195000	-1.666226
	0.200000	-1.646886
	0.205000	-1.463154
	0.210000	-1.492164
	0.215000	-1.666226
	0.220000	-1.633992
	0.225000	-1.459931
	0.230000	-1.479271
	0.235000	-1.663002
	0.240000	-1.640439
	0.245000	-1.466378
	0.250000	-1.482494
	0.255000	-1.659779
	0.260000	-1.640439
	0.265000	-1.463154
	0.270000	-1.488941
	0.275000	-1.653332
	0.280000	-1.633992
	0.285000	-1.459931
	0.290000	-1.485718
	0.295000	-1.659779
	0.300000	-1.627546
	0.305000	-1.456707
	0.310000	-1.479271
	0.315000	-1.650109
	0.320000	-1.630769
	0.325000	-1.453484
	0.330000	-1.472824
	0.335000	-1.650109
	0.340000	-1.624322
	0.345000	-1.450261
	0.350000	-1.466378
	0.355000	-1.640439
	0.360000	-1.617875
	0.365000	-1.440591
	0.370000	-1.459931
	0.375000	-1.640439
	0.380000	-1.614652
	0.385000	-1.434144
	0.390000	-1.453484
	0.395000	-1.633992
	0.400000	-1.604982
	0.405000	-1.434144
	0.410000	-1.453484
	0.415000	-1.627546
	0.420000	-1.604982
	0.425000	-1.430921
	0.430000	-1.450261
	0.435000	-1.627546
	0.440000	-1.598535
	0.445000	-1.424474
	0.450000	-1.443814
	0.455000	-1.614652
	0.460000	-1.595312
	0.465000	-1.414804
	0.470000	-1.447037
	0.475000	-1.614652
	0.480000	-1.598535
	0.485000	-1.414804
	0.490000	-1.434144
	0.495000	-1.614652
	0.500000	-1.585642
	0.505000	-1.408357
	0.510000	-1.430921
	0.515000	-1.608205
	0.520000	-1.585642
	0.525000	-1.405134
	0.530000	-1.424474
	0.535000	-1.598535
	0.540000	-1.579195
	0.545000	-1.395464
	0.550000	-1.424474
	0.555000	-1.595312
	0.560000	-1.569525
	0.565000	-1.401910
	0.570000	-1.418027
	0.575000	-1.595312
	0.580000	-1.563078
	0.585000	-1.389017
	0.590000	-1.401910
	0.595000	-1.588865
	0.600000	-1.559855
	0.605000	-1.385794
	0.610000	-1.405134
	0.615000	-1.582418
	0.620000	-1.556632
	0.625000	-1.385794
	0.630000	-1.401910
	0.635000	-1.572748
	0.640000	-1.553408
	0.645000	-1.376124
	0.650000	-1.395464
	0.655000	-1.566302
	0.660000	-1.543738
	0.665000	-1.366453
	0.670000	-1.385794
	0.675000	-1.563078
	0.680000	-1.534068
	0.685000	-1.356783
	0.690000	-1.376124
	0.695000	-1.550185
	0.700000	-1.521175
	0.705000	-1.350337
	0.710000	-1.366453
	0.715000	-1.543738
	0.720000	-1.524398
	0.725000	-1.350337
	0.730000	-1.363230
	0.735000	-1.543738
	0.740000	-1.524398
	0.745000	-1.343890
	0.750000	-1.356783
	0.755000	-1.537291
	0.760000	-1.517951
	0.765000	-1.337443
	0.770000	-1.366453
	0.775000	-1.530845
	0.780000	-1.514728
	0.785000	-1.343890
	0.790000	-1.360007
	0.795000	-1.527621
	0.800000	-1.514728
	0.805000	-1.334220
	0.810000	-1.353560
	0.815000	-1.524398
	0.820000	-1.511505
	0.825000	-1.337443
	0.830000	-1.356783
	0.835000	-1.521175
	0.840000	-1.505058
	0.845000	-1.330996
	0.850000	-1.347113
	0.855000	-1.524398
	0.860000	-1.508281
	0.865000	-1.327773
	0.870000	-1.343890
	0.875000	-1.530845
	0.880000	-1.508281
	0.885000	-1.334220
	0.890000	-1.350337
	0.895000	-1.521175
	0.900000	-1.505058
	0.905000	-1.330996
	0.910000	-1.343890
	0.915000	-1.521175
	0.920000	-1.505058
	0.925000	-1.327773
	0.930000	-1.347113
	0.935000	-1.521175
	0.940000	-1.501835
	0.945000	-1.334220
	0.950000	-1.340667
	0.955000	-1.521175
	0.960000	-1.508281
	0.965000	-1.330996
	0.970000	-1.347113
	0.975000	-1.521175
	0.980000	-1.505058
	0.985000	-1.330996
	0.990000	-1.347113
	0.995000	-1.527621
	1.000000	-1.505058
	1.005000	-1.330996
	1.010000	-1.356783
	1.015000	-1.521175
	1.020000	-1.495388
	1.025000	-1.327773
	1.030000	-1.343890
	1.035000	-1.524398
	1.040000	-1.505058
	1.045000	-1.324550
	1.050000	-1.353560
	1.055000	-1.517951
	1.060000	-1.505058
	1.065000	-1.321326
	1.070000	-1.347113
	1.075000	-1.521175
	1.080000	-1.498611
	1.085000	-1.327773
	1.090000	-1.347113
	1.095000	-1.514728
	1.100000	-1.501835
	1.105000	-1.327773
	1.110000	-1.340667
	1.115000	-1.521175
	1.120000	-1.501835
	1.125000	-1.324550
	1.130000	-1.340667
	1.135000	-1.514728
	1.140000	-1.505058
	1.145000	-1.321326
	1.150000	-1.337443
	1.155000	-1.514728
	1.160000	-1.505058
	1.165000	-1.324550
	1.170000	-1.343890
	1.175000	-1.517951
	1.180000	-1.498611
	1.185000	-1.327773
	1.190000	-1.337443
	1.195000	-1.517951
	1.200000	-1.501835
	1.205000	-1.327773
	1.210000	-1.347113
	1.215000	-1.524398
	1.220000	-1.505058
	1.225000	-1.334220
	1.230000	-1.350337
	1.235000	-1.530845
	1.240000	-1.514728
	1.245000	-1.340667
	1.250000	-1.356783
	1.255000	-1.534068
	1.260000	-1.514728
	1.265000	-1.340667
	1.270000	-1.356783
	1.275000	-1.534068
	1.280000	-1.524398
	1.285000	-1.343890
	1.290000	-1.363230
	1.295000	-1.534068
	1.300000	-1.514728
	1.305000	-1.343890
	1.310000	-1.356783
	1.315000	-1.534068
	1.320000	-1.514728
	1.325000	-1.334220
	1.330000	-1.350337
	1.335000	-1.527621
	1.340000	-1.505058
	1.345000	-1.327773
	1.350000	-1.337443
	1.355000	-1.514728
	1.360000	-1.492164
	1.365000	-1.314880
	1.370000	-1.321326
	1.375000	-1.498611
	1.380000	-1.472824
	1.385000	-1.301986
	1.390000	-1.308433
	1.395000	-1.472824
	1.400000	-1.453484
	1.405000	-1.272976
	1.410000	-1.279423
	1.415000	-1.447037
	1.420000	-1.421251
	1.425000	-1.237519
	1.430000	-1.240742
	1.435000	-1.408357
	1.440000	-1.382570
	1.445000	-1.198839
	1.450000	-1.202062
	1.455000	-1.363230
	1.460000	-1.343890
	1.465000	-1.156935
	1.470000	-1.156935
	1.475000	-1.321326
	1.480000	-1.298763
	1.485000	-1.115031
	1.490000	-1.124702
	1.495000	-1.298763
	1.500000	-1.266529
	1.505000	-1.092468
	1.510000	-1.095691
	1.515000	-1.272976
	1.520000	-1.256859
	1.525000	-1.073128
	1.530000	-1.086021
	1.535000	-1.247189
	1.540000	-1.234296
	1.545000	-1.063458
	1.550000	-1.069904
	1.555000	-1.240742
	1.560000	-1.221402
	1.565000	-1.053788
	1.570000	-1.057011
	1.575000	-1.224626
	1.580000	-1.208509
	1.585000	-1.034447
	1.590000	-1.044118
	1.595000	-1.214956
	1.600000	-1.202062
	1.605000	-1.021554
	1.610000	-1.028001
	1.615000	-1.192392
	1.620000	-1.185945
	1.625000	-1.011884
	1.630000	-1.018331
	1.635000	-1.182722
	1.640000	-1.160158
	1.645000	-0.995767
	1.650000	-1.002214
	1.655000	-1.166605
	1.660000	-1.153712
	1.665000	-0.979650
	1.670000	-0.986097
	1.675000	-1.156935
	1.680000	-1.140818
	1.685000	-0.973204
	1.690000	-0.982874
	1.695000	-1.144042
	1.700000	-1.127925
	1.705000	-0.957087
	1.710000	-0.960310
	1.715000	-1.134372
	1.720000	-1.111808
	1.725000	-0.947417
	1.730000	-0.950640
	1.735000	-1.111808
	1.740000	-1.105361
	1.745000	-0.937747
	1.750000	-0.947417
	1.755000	-1.098915
	1.760000	-1.089245
	1.765000	-0.928077
	1.770000	-0.937747
	1.775000	-1.102138
	1.780000	-1.092468
	1.785000	-0.928077
	1.790000	-0.924853
	1.795000	-1.102138
	1.800000	-1.089245
	1.805000	-0.924853
	1.810000	-0.934523
	1.815000	-1.102138
	1.820000	-1.089245
	1.825000	-0.928077
	1.830000	-0.940970
	1.835000	-1.102138
	1.840000	-1.095691
	1.845000	-0.934523
	1.850000	-0.940970
	1.855000	-1.108585
	1.860000	-1.095691
	1.865000	-0.937747
	1.870000	-0.940970
	1.875000	-1.108585
	1.880000	-1.111808
	1.885000	-0.940970
	1.890000	-0.953863
	1.895000	-1.115031
	1.900000	-1.105361
	1.905000	-0.944193
	1.910000	-0.960310
	1.915000	-1.118255
	1.920000	-1.111808
	1.925000	-0.953863
	1.930000	-0.953863
	1.935000	-1.124702
	1.940000	-1.121478
	1.945000	-0.960310
	1.950000	-0.960310
	1.955000	-1.137595
	1.960000	-1.124702
	1.965000	-0.960310
	1.970000	-0.969980
	1.975000	-1.140818
	1.980000	-1.134372
	1.985000	-0.976427
	1.990000	-0.982874
	1.995000	-1.150488
	2.000000	-1.147265
	2.005000	-0.989320
	2.010000	-1.002214
	2.015000	-1.160158
	2.020000	-1.156935
	2.025000	-0.995767
	2.030000	-1.002214
	2.035000	-1.173052
	2.040000	-1.169829
	2.045000	-0.998991
	2.050000	-1.015107
	2.055000	-1.185945
	2.060000	-1.176275
	2.065000	-1.005437
	2.070000	-1.008661
	2.075000	-1.173052
	2.080000	-1.166605
	2.085000	-0.995767
	2.090000	-0.995767
	2.095000	-1.160158
	2.100000	-1.156935
	2.105000	-0.982874
	2.110000	-0.986097
	2.115000	-1.156935
	2.120000	-1.150488
	2.125000	-0.989320
	2.130000	-0.986097
	2.135000	-1.160158
	2.140000	-1.153712
	2.145000	-0.992544
	2.150000	-1.005437
	2.155000	-1.173052
	2.160000	-1.179499
	2.165000	-1.015107
	2.170000	-1.028001
	2.175000	-1.205285
	2.180000	-1.205285
	2.185000	-1.047341
	2.190000	-1.069904
	2.195000	-1.253636
	2.200000	-1.269753
	2.205000	-1.105361
	2.210000	-1.127925
	2.215000	-1.308433
	2.220000	-1.321326
	2.225000	-1.166605
	2.230000	-1.189169
	2.235000	-1.376124
	2.240000	-1.379347
	2.245000	-1.208509
	2.250000	-1.221402
	2.255000	-1.398687
	2.260000	-1.392240
	2.265000	-1.224626
	2.270000	-1.221402
	2.275000	-1.389017
	2.280000	-1.379347
	2.285000	-1.221402
	2.290000	-1.221402
	2.295000	-1.385794
	2.300000	-1.376124
	2.305000	-1.202062
	2.310000	-1.192392
	2.315000	-1.360007
	2.320000	-1.330996
	2.325000	-1.156935
	2.330000	-1.134372
	2.335000	-1.282646
	2.340000	-1.250413
	2.345000	-1.063458
	2.350000	-1.028001
	2.355000	-1.160158
	2.360000	-1.127925
	2.365000	-0.931300
	2.370000	-0.902290
	2.375000	-1.037671
	2.380000	-1.005437
	2.385000	-0.818482
	2.390000	-0.786249
	2.395000	-0.928077
	2.400000	-0.908736
	2.405000	-0.728228
	2.410000	-0.715335
	2.415000	-0.863609
	2.420000	-0.850716
	2.425000	-0.676655
	2.430000	-0.673431
	2.435000	-0.841046
	2.440000	-0.824929
	2.445000	-0.666985
	2.450000	-0.663761
	2.455000	-0.824929
	2.460000	-0.818482
	2.465000	-0.663761
	2.470000	-0.663761
	2.475000	-0.821706
	2.480000	-0.824929
	2.485000	-0.663761
	2.490000	-0.666985
	2.495000	-0.831376
	2.500000	-0.831376
	2.505000	-0.666985
	2.510000	-0.663761
	2.515000	-0.834599
	2.520000	-0.831376
	2.525000	-0.673431
	2.530000	-0.676655
	2.535000	-0.847493
	2.540000	-0.841046
	2.545000	-0.683101
	2.550000	-0.683101
	2.555000	-0.847493
	2.560000	-0.850716
	2.565000	-0.679878
	2.570000	-0.689548
	2.575000	-0.863609
	2.580000	-0.863609
	2.585000	-0.705665
	2.590000	-0.712112
	2.595000	-0.876503
	2.600000	-0.873280
	2.605000	-0.721782
	2.610000	-0.728228
	2.615000	-0.892620
	2.620000	-0.895843
	2.625000	-0.731452
	2.630000	-0.731452
	2.635000	-0.905513
	2.640000	-0.908736
	2.645000	-0.744345
	2.650000	-0.754015
	2.655000	-0.915183
	2.660000	-0.924853
	2.665000	-0.763685
	2.670000	-0.773355
	2.675000	-0.937747
	2.680000	-0.940970
	2.685000	-0.786249
	2.690000	-0.792696
	2.695000	-0.966757
	2.700000	-0.966757
	2.705000	-0.812036
	2.710000	-0.808812
	2.715000	-0.979650
	2.720000	-0.986097
	2.725000	-0.828152
	2.730000	-0.831376
	2.735000	-1.008661
	2.740000	-1.005437
	2.745000	-0.847493
	2.750000	-0.857163
	2.755000	-1.024777
	2.760000	-1.028001
	2.765000	-0.863609
	2.770000	-0.866833
	2.775000	-1.037671
	2.780000	-1.031224
	2.785000	-0.879726
	2.790000	-0.876503
	2.795000	-1.040894
	2.800000	-1.053788
	2.805000	-0.886173
	2.810000	-0.879726
	2.815000	-1.060234
	2.820000	-1.057011
	2.825000	-0.895843
	2.830000	-0.895843
	2.835000	-1.057011
	2.840000	-1.069904
	2.845000	-0.908736
	2.850000	-0.908736
	2.855000	-1.066681
	2.860000	-1.076351
	2.865000	-0.915183
	2.870000	-0.908736
	2.875000	-1.076351
	2.880000	-1.082798
	2.885000	-0.915183
	2.890000	-0.911960
	2.895000	-1.082798
	2.900000	-1.086021
	2.905000	-0.921630
	2.910000	-0.921630
	2.915000	-1.082798
	2.920000	-1.089245
	2.925000	-0.921630
	2.930000	-0.924853
	2.935000	-1.082798
	2.940000	-1.089245
	2.945000	-0.921630
	2.950000	-0.921630
	2.955000	-1.082798
	2.960000	-1.082798
	2.965000	-0.918407
	2.970000	-0.911960
	2.975000	-1.082798
	2.980000	-1.082798
	2.985000	-0.918407
	2.990000	-0.915183
	2.995000	-1.079574
	3.000000	-1.089245
	3.005000	-0.921630
	3.010000	-0.915183
	3.015000	-1.082798
	3.020000	-1.092468
	3.025000	-0.918407
	3.030000	-0.918407
	3.035000	-1.089245
	3.040000	-1.089245
	3.045000	-0.921630
	3.050000	-0.915183
	3.055000	-1.086021
	3.060000	-1.095691
	3.065000	-0.931300
	3.070000	-0.921630
	3.075000	-1.092468
	3.080000	-1.098915
	3.085000	-0.921630
	3.090000	-0.921630
	3.095000	-1.092468
	3.100000	-1.095691
	3.105000	-0.934523
	3.110000	-0.921630
	3.115000	-1.092468
	3.120000	-1.105361
	3.125000	-0.934523
	3.130000	-0.928077
	3.135000	-1.089245
	3.140000	-1.102138
	3.145000	-0.931300
	3.150000	-0.924853
	3.155000	-1.092468
	3.160000	-1.095691
	3.165000	-0.924853
	3.170000	-0.921630
	3.175000	-1.086021
	3.180000	-1.092468
	3.185000	-0.924853
	3.190000	-0.924853
	3.195000	-1.082798
	3.200000	-1.098915
	3.205000	-0.921630
	3.210000	-0.915183
	3.215000	-1.086021
	3.220000	-1.092468
	3.225000	-0.928077
	3.230000	-0.924853
	3.235000	-1.079574
	3.240000	-1.092468
	3.245000	-0.921630
	3.250000	-0.918407
	3.255000	-1.086021
	3.260000	-1.095691
	3.265000	-0.915183
	3.270000	-0.908736
	3.275000	-1.086021
	3.280000	-1.092468
	3.285000	-0.915183
	3.290000	-0.908736
	3.295000	-1.086021
	3.300000	-1.089245
	3.305000	-0.918407
	3.310000	-0.908736
	3.315000	-1.076351
	3.320000	-1.086021
	3.325000	-0.911960
	3.330000	-0.905513
	3.335000	-1.079574
	3.340000	-1.092468
	3.345000	-0.918407
	3.350000	-0.908736
	3.355000	-1.076351
	3.360000	-1.082798
	3.365000	-0.908736
	3.370000	-0.908736
	3.375000	-1.069904
	3.380000	-1.082798
	3.385000	-0.908736
	3.390000	-0.905513
	3.395000	-1.073128
	3.400000	-1.082798
	3.405000	-0.915183
	3.410000	-0.895843
	3.415000	-1.073128
	3.420000	-1.082798
	3.425000	-0.905513
	3.430000	-0.902290
	3.435000	-1.069904
	3.440000	-1.073128
	3.445000	-0.902290
	3.450000	-0.895843
	3.455000	-1.066681
	3.460000	-1.073128
	3.465000	-0.899066
	3.470000	-0.886173
	3.475000	-1.057011
	3.480000	-1.066681
	3.485000	-0.899066
	3.490000	-0.886173
	3.495000	-1.050564
	3.500000	-1.066681
	3.505000	-0.895843
	3.510000	-0.879726
	3.515000	-1.044118
	3.520000	-1.053788
	3.525000	-0.886173
	3.530000	-0.876503
	3.535000	-1.047341
	3.540000	-1.050564
	3.545000	-0.889396
	3.550000	-0.876503
	3.555000	-1.037671
	3.560000	-1.053788
	3.565000	-0.886173
	3.570000	-0.870056
	3.575000	-1.037671
	3.580000	-1.050564
	3.585000	-0.879726
	3.590000	-0.866833
	3.595000	-1.034447
	3.600000	-1.047341
	3.605000	-0.879726
	3.610000	-0.863609
	3.615000	-1.031224
	3.620000	-1.047341
	3.625000	-0.876503
	3.630000	-0.863609
	3.635000	-1.034447
	3.640000	-1.044118
	3.645000	-0.876503
	3.650000	-0.857163
	3.655000	-1.028001
	3.660000	-1.040894
	3.665000	-0.876503
	3.670000	-0.850716
	3.675000	-1.031224
	3.680000	-1.044118
	3.685000	-0.870056
	3.690000	-0.863609
	3.695000	-1.028001
	3.700000	-1.044118
	3.705000	-0.870056
	3.710000	-0.857163
	3.715000	-1.024777
	3.720000	-1.034447
	3.725000	-0.870056
	3.730000	-0.850716
	3.735000	-1.015107
	3.740000	-1.031224
	3.745000	-0.863609
	3.750000	-0.850716
	3.755000	-1.011884
	3.760000	-1.024777
	3.765000	-0.863609
	3.770000	-0.847493
	3.775000	-1.011884
	3.780000	-1.031224
	3.785000	-0.863609
	3.790000	-0.841046
	3.795000	-1.011884
	3.800000	-1.024777
	3.805000	-0.853939
	3.810000	-0.837823
	3.815000	-1.011884
	3.820000	-1.011884
	3.825000	-0.847493
	3.830000	-0.831376
	3.835000	-1.002214
	3.840000	-1.018331
	3.845000	-0.850716
	3.850000	-0.834599
	3.855000	-0.998991
	3.860000	-1.008661
	3.865000	-0.850716
	3.870000	-0.828152
	3.875000	-0.995767
	3.880000	-1.005437
	3.885000	-0.847493
	3.890000	-0.824929
	3.895000	-0.998991
	3.900000	-1.018331
	3.905000	-0.844269
	3.910000	-0.828152
	3.915000	-1.002214
	3.920000	-1.011884
	3.925000	-0.847493
	3.930000	-0.831376
	3.935000	-0.998991
	3.940000	-1.011884
	3.945000	-0.850716
	3.950000	-0.828152
	3.955000	-0.992544
	3.960000	-1.024777
	3.965000	-0.850716
	3.970000	-0.834599
	3.975000	-1.002214
	3.980000	-1.018331
	3.985000	-0.847493
	3.990000	-0.824929
	3.995000	-0.998991
	4.000000	-1.011884
	4.005000	-0.844269
	4.010000	-0.828152
	4.015000	-0.995767
	4.020000	-1.015107
	4.025000	-0.841046
	4.030000	-0.821706
	4.035000	-0.998991
	4.040000	-1.015107
	4.045000	-0.850716
	4.050000	-0.831376
	4.055000	-0.992544
	4.060000	-1.021554
	4.065000	-0.847493
	4.070000	-0.828152
	4.075000	-0.992544
	4.080000	-1.005437
	4.085000	-0.844269
	4.090000	-0.828152
	4.095000	-0.992544
	4.100000	-1.015107
	4.105000	-0.847493
	4.110000	-0.831376
	4.115000	-0.992544
	4.120000	-1.015107
	4.125000	-0.847493
	4.130000	-0.821706
	4.135000	-0.998991
	4.140000	-1.015107
	4.145000	-0.844269
	4.150000	-0.821706
	4.155000	-0.989320
	4.160000	-1.015107
	4.165000	-0.847493
	4.170000	-0.824929
	4.175000	-0.989320
	4.180000	-1.008661
	4.185000	-0.841046
	4.190000	-0.821706
	4.195000	-0.986097
	4.200000	-1.015107
	4.205000	-0.844269
	4.210000	-0.824929
	4.215000	-0.989320
	4.220000	-1.018331
	4.225000	-0.837823
	4.230000	-0.824929
	4.235000	-0.989320
	4.240000	-1.005437
	4.245000	-0.841046
	4.250000	-0.821706
	4.255000	-0.995767
	4.260000	-1.005437
	4.265000	-0.847493
	4.270000	-0.815259
	4.275000	-0.982874
	4.280000	-1.005437
	4.285000	-0.844269
	4.290000	-0.815259
	4.295000	-0.982874
	4.300000	-1.008661
	4.305000	-0.841046
	4.310000	-0.818482
	4.315000	-0.982874
	4.320000	-1.005437
	4.325000	-0.841046
	4.330000	-0.812036
	4.335000	-0.979650
	4.340000	-1.005437
	4.345000	-0.837823
	4.350000	-0.818482
	4.355000	-0.979650
	4.360000	-1.005437
	4.365000	-0.847493
	4.370000	-0.808812
	4.375000	-0.979650
	4.380000	-1.011884
	4.385000	-0.841046
	4.390000	-0.812036
	4.395000	-0.986097
	4.400000	-1.002214
	4.405000	-0.841046
	4.410000	-0.812036
	4.415000	-0.979650
	4.420000	-1.005437
	4.425000	-0.831376
	4.430000	-0.812036
	4.435000	-0.976427
	4.440000	-0.995767
	4.445000	-0.834599
	4.450000	-0.805589
	4.455000	-0.973204
	4.460000	-0.989320
	4.465000	-0.824929
	4.470000	-0.792696
	4.475000	-0.960310
	4.480000	-0.986097
	4.485000	-0.815259
	4.490000	-0.795919
	4.495000	-0.953863
	4.500000	-0.976427
	4.505000	-0.812036
	4.510000	-0.779802
	4.515000	-0.944193
	4.520000	-0.973204
	4.525000	-0.812036
	4.530000	-0.776579
	4.535000	-0.950640
	4.540000	-0.969980
	4.545000	-0.805589
	4.550000	-0.779802
	4.555000	-0.947417
	4.560000	-0.976427
	4.565000	-0.805589
	4.570000	-0.776579
	4.575000	-0.944193
	4.580000	-0.966757
	4.585000	-0.808812
	4.590000	-0.776579
	4.595000	-0.953863
	4.600000	-0.976427
	4.605000	-0.799142
	4.610000	-0.779802
	4.615000	-0.944193
	4.620000	-0.976427
	4.625000	-0.808812
	4.630000	-0.773355
	4.635000	-0.937747
	4.640000	-0.969980
	4.645000	-0.799142
	4.650000	-0.773355
	4.655000	-0.944193
	4.660000	-0.963534
	4.665000	-0.805589
	4.670000	-0.773355
	4.675000	-0.940970
	4.680000	-0.966757
	4.685000	-0.805589
	4.690000	-0.776579
	4.695000	-0.944193
	4.700000	-0.966757
	4.705000	-0.805589
	4.710000	-0.779802
	4.715000	-0.944193
	4.720000	-0.982874
	4.725000	-0.805589
	4.730000	-0.783025
	4.735000	-0.947417
	4.740000	-0.976427
	4.745000	-0.812036
	4.750000	-0.792696
	4.755000	-0.953863
	4.760000	-0.986097
	4.765000	-0.824929
	4.770000	-0.786249
	4.775000	-0.960310
	4.780000	-0.989320
	4.785000	-0.824929
	4.790000	-0.795919
	4.795000	-0.963534
	4.800000	-0.992544
	4.805000	-0.824929
	4.810000	-0.792696
	4.815000	-0.960310
	4.820000	-0.992544
	4.825000	-0.828152
	4.830000	-0.792696
	4.835000	-0.960310
	4.840000	-0.992544
	4.845000	-0.821706
	4.850000	-0.792696
	4.855000	-0.963534
	4.860000	-0.992544
	4.865000	-0.821706
	4.870000	-0.792696
	4.875000	-0.963534
	4.880000	-0.992544
	4.885000	-0.821706
	4.890000	-0.792696
	4.895000	-0.960310
	4.900000	-0.986097
	4.905000	-0.818482
	4.910000	-0.792696
	4.915000	-0.960310
	4.920000	-0.986097
	4.925000	-0.824929
	4.930000	-0.789472
	4.935000	-0.947417
	4.940000	-0.989320
	4.945000	-0.815259
	4.950000	-0.786249
	4.955000	-0.957087
	4.960000	-0.979650
	4.965000	-0.818482
	4.970000	-0.786249
	4.975000	-0.950640
	4.980000	-0.986097
	4.985000	-0.805589
	4.990000	-0.779802
	4.995000	-0.944193
	5.000000	-0.979650
	5.005000	-0.808812
	5.010000	-0.779802
	5.015000	-0.937747
	5.020000	-0.973204
	5.025000	-0.805589
	5.030000	-0.770132
	5.035000	-0.931300
	5.040000	-0.966757
	5.045000	-0.799142
	5.050000	-0.766909
	5.055000	-0.924853
	5.060000	-0.960310
	5.065000	-0.795919
	5.070000	-0.754015
	5.075000	-0.924853
	5.080000	-0.950640
	5.085000	-0.786249
	5.090000	-0.750792
	5.095000	-0.911960
	5.100000	-0.940970
	5.105000	-0.786249
	5.110000	-0.737898
	5.115000	-0.908736
	5.120000	-0.944193
	5.125000	-0.773355
	5.130000	-0.734675
	5.135000	-0.895843
	5.140000	-0.934523
	5.145000	-0.770132
	5.150000	-0.728228
	5.155000	-0.892620
	5.160000	-0.928077
	5.165000	-0.760462
	5.170000	-0.721782
	5.175000	-0.889396
	5.180000	-0.928077
	5.185000	-0.757239
	5.190000	-0.718558
	5.195000	-0.882950
	5.200000	-0.918407
	5.205000	-0.754015
	5.210000	-0.721782
	5.215000	-0.879726
	5.220000	-0.908736
	5.225000	-0.747569
	5.230000	-0.715335
	5.235000	-0.876503
	5.240000	-0.911960
	5.245000	-0.747569
	5.250000	-0.708888
	5.255000	-0.873280
	5.260000	-0.908736
	5.265000	-0.734675
	5.270000	-0.705665
	5.275000	-0.870056
	5.280000	-0.902290
	5.285000	-0.744345
	5.290000	-0.699218
	5.295000	-0.860386
	5.300000	-0.892620
	5.305000	-0.734675
	5.310000	-0.692771
	5.315000	-0.857163
	5.320000	-0.892620
	5.325000	-0.731452
	5.330000	-0.686325
	5.335000	-0.847493
	5.340000	-0.892620
	5.345000	-0.728228
	5.350000	-0.679878
	5.355000	-0.847493
	5.360000	-0.879726
	5.365000	-0.715335
	5.370000	-0.673431
	5.375000	-0.844269
	5.380000	-0.879726
	5.385000	-0.712112
	5.390000	-0.670208
	5.395000	-0.837823
	5.400000	-0.863609
	5.405000	-0.705665
	5.410000	-0.666985
	5.415000	-0.821706
	5.420000	-0.857163
	5.425000	-0.699218
	5.430000	-0.654091
	5.435000	-0.818482
	5.440000	-0.853939
	5.445000	-0.695995
	5.450000	-0.650868
	5.455000	-0.812036
	5.460000	-0.850716
	5.465000	-0.692771
	5.470000	-0.641198
	5.475000	-0.799142
	5.480000	-0.837823
	5.485000	-0.676655
	5.490000	-0.631528
	5.495000	-0.795919
	5.500000	-0.834599
	5.505000	-0.670208
	5.510000	-0.631528
	5.515000	-0.786249
	5.520000	-0.821706
	5.525000	-0.663761
	5.530000	-0.625081
	5.535000	-0.786249
	5.540000	-0.828152
	5.545000	-0.666985
	5.550000	-0.628304
	5.555000	-0.786249
	5.560000	-0.834599
	5.565000	-0.670208
	5.570000	-0.634751
	5.575000	-0.795919
	5.580000	-0.837823
	5.585000	-0.679878
	5.590000	-0.641198
	5.595000	-0.812036
	5.600000	-0.850716
	5.605000	-0.689548
	5.610000	-0.650868
	5.615000	-0.815259
	5.620000	-0.863609
	5.625000	-0.708888
	5.630000	-0.670208
	5.635000	-0.834599
	5.640000	-0.882950
	5.645000	-0.715335
	5.650000	-0.676655
	5.655000	-0.834599
	5.660000	-0.879726
	5.665000	-0.718558
	5.670000	-0.666985
	5.675000	-0.828152
	5.680000	-0.870056
	5.685000	-0.705665
	5.690000	-0.663761
	5.695000	-0.815259
	5.700000	-0.850716
	5.705000	-0.699218
	5.710000	-0.650868
	5.715000	-0.815259
	5.720000	-0.853939
	5.725000	-0.692771
	5.730000	-0.650868
	5.735000	-0.818482
	5.740000	-0.863609
	5.745000	-0.695995
	5.750000	-0.666985
	5.755000	-0.824929
	5.760000	-0.870056
	5.765000	-0.721782
	5.770000	-0.679878
	5.775000	-0.841046
	5.780000	-0.895843
	5.785000	-0.741122
	5.790000	-0.702441
	5.795000	-0.866833
	5.800000	-0.918407
	5.805000	-0.773355
	5.810000	-0.744345
	5.815000	-0.915183
	5.820000	-0.966757
	5.825000	-0.818482
	5.830000	-0.789472
	5.835000	-0.963534
	5.840000	-1.031224
	5.845000	-0.886173
	5.850000	-0.863609
	5.855000	-1.037671
	5.860000	-1.105361
	5.865000	-0.947417
	5.870000	-0.905513
	5.875000	-1.079574
	5.880000	-1.127925
	5.885000	-0.960310
	5.890000	-0.911960
	5.895000	-1.079574
	5.900000	-1.134372
	5.905000	-0.966757
	5.910000	-0.911960
	5.915000	-1.086021
	5.920000	-1.121478
	5.925000	-0.953863
	5.930000	-0.905513
	5.935000	-1.060234
	5.940000	-1.095691
	5.945000	-0.924853
	5.950000	-0.860386
	5.955000	-1.005437
	5.960000	-1.040894
	5.965000	-0.853939
	5.970000	-0.795919
	5.975000	-0.931300
	5.980000	-0.957087
	5.985000	-0.779802
	5.990000	-0.721782
	5.995000	-0.866833
	6.000000	-0.905513
	6.005000	-0.737898
	6.010000	-0.679878
	6.015000	-0.828152
	6.020000	-0.873280
	6.025000	-0.695995
	6.030000	-0.650868
	6.035000	-0.802366
	6.040000	-0.850716
	6.045000	-0.679878
	6.050000	-0.628304
	6.055000	-0.779802
	6.060000	-0.831376
	6.065000	-0.660538
	6.070000	-0.612187
	6.075000	-0.760462
	6.080000	-0.815259
	6.085000	-0.650868
	6.090000	-0.592847
	6.095000	-0.754015
	6.100000	-0.805589
	6.105000	-0.644421
	6.110000	-0.586401
	6.115000	-0.741122
	6.120000	-0.786249
	6.125000	-0.628304
	6.130000	-0.576730
	6.135000	-0.731452
	6.140000	-0.783025
	6.145000	-0.618634
	6.150000	-0.560614
	6.155000	-0.715335
	6.160000	-0.766909
	6.165000	-0.608964
	6.170000	-0.554167
	6.175000	-0.715335
	6.180000	-0.770132
	6.185000	-0.615411
	6.190000	-0.550944
	6.195000	-0.708888
	6.200000	-0.766909
	6.205000	-0.605741
	6.210000	-0.554167
	6.215000	-0.708888
	6.220000	-0.763685
	6.225000	-0.596071
	6.230000	-0.550944
	6.235000	-0.702441
	6.240000	-0.750792
	6.245000	-0.605741
	6.250000	-0.544497
	6.255000	-0.702441
	6.260000	-0.763685
	6.265000	-0.605741
	6.270000	-0.547720
	6.275000	-0.708888
	6.280000	-0.763685
	6.285000	-0.608964
	6.290000	-0.557390
	6.295000	-0.712112
	6.300000	-0.773355
	6.305000	-0.612187
	6.310000	-0.560614
	6.315000	-0.731452
	6.320000	-0.786249
	6.325000	-0.625081
	6.330000	-0.576730
	6.335000	-0.734675
	6.340000	-0.795919
	6.345000	-0.637974
	6.350000	-0.592847
	6.355000	-0.757239
	6.360000	-0.805589
	6.365000	-0.660538
	6.370000	-0.608964
	6.375000	-0.766909
	6.380000	-0.831376
	6.385000	-0.679878
	6.390000	-0.628304
	6.395000	-0.792696
	6.400000	-0.834599
	6.405000	-0.683101
	6.410000	-0.634751
	6.415000	-0.799142
	6.420000	-0.863609
	6.425000	-0.699218
	6.430000	-0.657314
	6.435000	-0.815259
	6.440000	-0.876503
	6.445000	-0.721782
	6.450000	-0.673431
	6.455000	-0.828152
	6.460000	-0.886173
	6.465000	-0.731452
	6.470000	-0.673431
	6.475000	-0.834599
	6.480000	-0.899066
	6.485000	-0.741122
	6.490000	-0.686325
	6.495000	-0.847493
	6.500000	-0.895843
	6.505000	-0.747569
	6.510000	-0.689548
	6.515000	-0.847493
	6.520000	-0.915183
	6.525000	-0.757239
	6.530000	-0.699218
	6.535000	-0.857163
	6.540000	-0.918407
	6.545000	-0.760462
	6.550000	-0.699218
	6.555000	-0.860386
	6.560000	-0.921630
	6.565000	-0.760462
	6.570000	-0.702441
	6.575000	-0.866833
	6.580000	-0.918407
	6.585000	-0.766909
	6.590000	-0.718558
	6.595000	-0.866833
	6.600000	-0.918407
	6.605000	-0.773355
	6.610000	-0.708888
	6.615000	-0.870056
	6.620000	-0.928077
	6.625000	-0.773355
	6.630000	-0.708888
	6.635000	-0.873280
	6.640000	-0.934523
	6.645000	-0.779802
	6.650000	-0.708888
	6.655000	-0.863609
	6.660000	-0.937747
	6.665000	-0.779802
	6.670000	-0.712112
	6.675000	-0.876503
	6.680000	-0.931300
	6.685000	-0.783025
	6.690000	-0.718558
	6.695000	-0.873280
	6.700000	-0.937747
	6.705000	-0.783025
	6.710000	-0.721782
	6.715000	-0.873280
	6.720000	-0.937747
	6.725000	-0.783025
	6.730000	-0.715335
	6.735000	-0.876503
	6.740000	-0.937747
	6.745000	-0.779802
	6.750000	-0.718558
	6.755000	-0.873280
	6.760000	-0.937747
	6.765000	-0.776579
	6.770000	-0.715335
	6.775000	-0.870056
	6.780000	-0.944193
	6.785000	-0.776579
	6.790000	-0.721782
	6.795000	-0.873280
	6.800000	-0.940970
	6.805000	-0.773355
	6.810000	-0.715335
	6.815000	-0.873280
	6.820000	-0.934523
	6.825000	-0.770132
	6.830000	-0.712112
	6.835000	-0.873280
	6.840000	-0.934523
	6.845000	-0.773355
	6.850000	-0.712112
	6.855000	-0.857163
	6.860000	-0.928077
	6.865000	-0.773355
	6.870000	-0.712112
	6.875000	-0.863609
	6.880000	-0.928077
	6.885000	-0.773355
	6.890000	-0.705665
	6.895000	-0.863609
	6.900000	-0.928077
	6.905000	-0.763685
	6.910000	-0.705665
	6.915000	-0.853939
	6.920000	-0.921630
	6.925000	-0.766909
	6.930000	-0.702441
	6.935000	-0.853939
	6.940000	-0.915183
	6.945000	-0.760462
	6.950000	-0.692771
	6.955000	-0.844269
	6.960000	-0.915183
	6.965000	-0.757239
	6.970000	-0.692771
	6.975000	-0.841046
	6.980000	-0.905513
	6.985000	-0.757239
	6.990000	-0.689548
	6.995000	-0.841046
	7.000000	-0.911960
	7.005000	-0.757239
	7.010000	-0.689548
	7.015000	-0.837823
	7.020000	-0.905513
	7.025000	-0.754015
	7.030000	-0.679878
	7.035000	-0.834599
	7.040000	-0.902290
	7.045000	-0.750792
	7.050000	-0.679878
	7.055000	-0.831376
	7.060000	-0.902290
	7.065000	-0.747569
	7.070000	-0.683101
	7.075000	-0.831376
	7.080000	-0.905513
	7.085000	-0.744345
	7.090000	-0.676655
	7.095000	-0.828152
	7.100000	-0.899066
	7.105000	-0.747569
	7.110000	-0.676655
	7.115000	-0.821706
	7.120000	-0.892620
	7.125000	-0.734675
	7.130000	-0.670208
	7.135000	-0.818482
	7.140000	-0.895843
	7.145000	-0.741122
	7.150000	-0.670208
	7.155000	-0.824929
	7.160000	-0.892620
	7.165000	-0.744345
	7.170000	-0.663761
	7.175000	-0.821706
	7.180000	-0.889396
	7.185000	-0.737898
	7.190000	-0.666985
	7.195000	-0.812036
	7.200000	-0.886173
	7.205000	-0.728228
	7.210000	-0.670208
	7.215000	-0.812036
	7.220000	-0.879726
	7.225000	-0.737898
	7.230000	-0.666985
	7.235000	-0.808812
	7.240000	-0.882950
	7.245000	-0.731452
	7.250000	-0.663761
	7.255000	-0.805589
	7.260000	-0.879726
	7.265000	-0.734675
	7.270000	-0.657314
	7.275000	-0.812036
	7.280000	-0.879726
	7.285000	-0.737898
	7.290000	-0.657314
	7.295000	-0.808812
	7.300000	-0.889396
	7.305000	-0.734675
	7.310000	-0.663761
	7.315000	-0.808812
	7.320000	-0.892620
	7.325000	-0.737898
	7.330000	-0.657314
	7.335000	-0.805589
	7.340000	-0.876503
	7.345000	-0.728228
	7.350000	-0.660538
	7.355000	-0.808812
	7.360000	-0.882950
	7.365000	-0.728228
	7.370000	-0.657314
	7.375000	-0.805589
	7.380000	-0.889396
	7.385000	-0.731452
	7.390000	-0.647644
	7.395000	-0.799142
	7.400000	-0.879726
	7.405000	-0.728228
	7.410000	-0.657314
	7.415000	-0.802366
	7.420000	-0.879726
	7.425000	-0.728228
	7.430000	-0.654091
	7.435000	-0.799142
	7.440000	-0.876503
	7.445000	-0.728228
	7.450000	-0.650868
	7.455000	-0.786249
	7.460000	-0.876503
	7.465000	-0.728228
	7.470000	-0.650868
	7.475000	-0.799142
	7.480000	-0.870056
	7.485000	-0.718558
	7.490000	-0.650868
	7.495000	-0.792696
	7.500000	-0.873280
	7.505000	-0.721782
	7.510000	-0.637974
	7.515000	-0.789472
	7.520000	-0.870056
	7.525000	-0.721782
	7.530000	-0.641198
	7.535000	-0.792696
	7.540000	-0.870056
	7.545000	-0.715335
	7.550000	-0.644421
	7.555000	-0.786249
	7.560000	-0.870056
	7.565000	-0.715335
	7.570000	-0.641198
	7.575000	-0.783025
	7.580000	-0.860386
	7.585000	-0.715335
	7.590000	-0.644421
	7.595000	-0.789472
	7.600000	-0.860386
	7.605000	-0.715335
	7.610000	-0.641198
	7.615000	-0.783025
	7.620000	-0.860386
	7.625000	-0.718558
	7.630000	-0.637974
	7.635000	-0.786249
	7.640000	-0.853939
	7.645000	-0.715335
	7.650000	-0.631528
	7.655000	-0.779802
	7.660000	-0.857163
	7.665000	-0.708888
	7.670000	-0.631528
	7.675000	-0.766909
	7.680000	-0.857163
	7.685000	-0.708888
	7.690000	-0.621858
	7.695000	-0.773355
	7.700000	-0.857163
	7.705000	-0.712112
	7.710000	-0.621858
	7.715000	-0.770132
	7.720000	-0.850716
	7.725000	-0.708888
	7.730000	-0.618634
	7.735000	-0.773355
	7.740000	-0.847493
	7.745000	-0.705665
	7.750000	-0.621858
	7.755000	-0.770132
	7.760000	-0.850716
	7.765000	-0.705665
	7.770000	-0.625081
	7.775000	-0.760462
	7.780000	-0.850716
	7.785000	-0.702441
	7.790000	-0.618634
	7.795000	-0.754015
	7.800000	-0.847493
	7.805000	-0.699218
	7.810000	-0.612187
	7.815000	-0.750792
	7.820000	-0.834599
	7.825000	-0.699218
	7.830000	-0.615411
	7.835000	-0.754015
	7.840000	-0.844269
	7.845000	-0.695995
	7.850000	-0.605741
	7.855000	-0.750792
	7.860000	-0.847493
	7.865000	-0.695995
	7.870000	-0.618634
	7.875000	-0.754015
	7.880000	-0.828152
	7.885000	-0.695995
	7.890000	-0.618634
	7.895000	-0.750792
	7.900000	-0.837823
	7.905000	-0.692771
	7.910000	-0.608964
	7.915000	-0.754015
	7.920000	-0.834599
	7.925000	-0.695995
	7.930000	-0.605741
	7.935000	-0.750792
	7.940000	-0.834599
	7.945000	-0.692771
	7.950000	-0.605741
	7.955000	-0.747569
	7.960000	-0.831376
	7.965000	-0.689548
	7.970000	-0.602517
	7.975000	-0.741122
	7.980000	-0.831376
	7.985000	-0.692771
	7.990000	-0.596071
	7.995000	-0.741122
	8.000000	-0.831376
	8.005000	-0.686325
	8.010000	-0.599294
	8.015000	-0.741122
	8.020000	-0.821706
	8.025000	-0.683101
	8.030000	-0.596071
	8.035000	-0.731452
	8.040000	-0.828152
	8.045000	-0.686325
	8.050000	-0.592847
	8.055000	-0.734675
	8.060000	-0.821706
	8.065000	-0.679878
	8.070000	-0.592847
	8.075000	-0.728228
	8.080000	-0.824929
	8.085000	-0.679878
	8.090000	-0.589624
	8.095000	-0.728228
	8.100000	-0.815259
	8.105000	-0.673431
	8.110000	-0.586401
	8.115000	-0.721782
	8.120000	-0.821706
	8.125000	-0.676655
	8.130000	-0.579954
	8.135000	-0.721782
	8.140000	-0.821706
	8.145000	-0.676655
	8.150000	-0.589624
	8.155000	-0.718558
	8.160000	-0.812036
	8.165000	-0.673431
	8.170000	-0.576730
	8.175000	-0.715335
	8.180000	-0.812036
	8.185000	-0.670208
	8.190000	-0.576730
	8.195000	-0.705665
	8.200000	-0.799142
	8.205000	-0.660538
	8.210000	-0.563837
	8.215000	-0.695995
	8.220000	-0.783025
	8.225000	-0.650868
	8.230000	-0.554167
	8.235000	-0.689548
	8.240000	-0.783025
	8.245000	-0.641198
	8.250000	-0.544497
	8.255000	-0.686325
	8.260000	-0.776579
	8.265000	-0.637974
	8.270000	-0.541274
	8.275000	-0.673431
	8.280000	-0.773355
	8.285000	-0.634751
	8.290000	-0.547720
	8.295000	-0.666985
	8.300000	-0.766909
	8.305000	-0.634751
	8.310000	-0.541274
	8.315000	-0.676655
	8.320000	-0.770132
	8.325000	-0.637974
	8.330000	-0.541274
	8.335000	-0.673431
	8.340000	-0.773355
	8.345000	-0.641198
	8.350000	-0.541274
	8.355000	-0.676655
	8.360000	-0.776579
	8.365000	-0.647644
	8.370000	-0.557390
	8.375000	-0.689548
	8.380000	-0.789472
	8.385000	-0.660538
	8.390000	-0.560614
	8.395000	-0.695995
	8.400000	-0.802366
	8.405000	-0.663761
	8.410000	-0.563837
	8.415000	-0.692771
	8.420000	-0.795919
	8.425000	-0.660538
	8.430000	-0.567060
	8.435000	-0.699218
	8.440000	-0.795919
	8.445000	-0.663761
	8.450000	-0.567060
	8.455000	-0.695995
	8.460000	-0.795919
	8.465000	-0.663761
	8.470000	-0.567060
	8.475000	-0.689548
	8.480000	-0.795919
	8.485000	-0.654091
	8.490000	-0.573507
	8.495000	-0.692771
	8.500000	-0.795919
	8.505000	-0.657314
	8.510000	-0.563837
	8.515000	-0.695995
	8.520000	-0.792696
	8.525000	-0.657314
	8.530000	-0.563837
	8.535000	-0.695995
	8.540000	-0.799142
	8.545000	-0.670208
	8.550000	-0.567060
	8.555000	-0.695995
	8.560000	-0.795919
	8.565000	-0.663761
	8.570000	-0.563837
	8.575000	-0.689548
	8.580000	-0.799142
	8.585000	-0.666985
	8.590000	-0.563837
	8.595000	-0.686325
	8.600000	-0.805589
	8.605000	-0.670208
	8.610000	-0.567060
	8.615000	-0.699218
	8.620000	-0.795919
	8.625000	-0.663761
	8.630000	-0.570284
	8.635000	-0.692771
	8.640000	-0.802366
	8.645000	-0.670208
	8.650000	-0.567060
	8.655000	-0.686325
	8.660000	-0.805589
	8.665000	-0.666985
	8.670000	-0.570284
	8.675000	-0.699218
	8.680000	-0.805589
	8.685000	-0.676655
	8.690000	-0.570284
	8.695000	-0.702441
	8.700000	-0.802366
	8.705000	-0.679878
	8.710000	-0.573507
	8.715000	-0.695995
	8.720000	-0.802366
	8.725000	-0.679878
	8.730000	-0.570284
	8.735000	-0.699218
	8.740000	-0.802366
	8.745000	-0.679878
	8.750000	-0.563837
	8.755000	-0.692771
	8.760000	-0.799142
	8.765000	-0.676655
	8.770000	-0.573507
	8.775000	-0.692771
	8.780000	-0.795919
	8.785000	-0.676655
	8.790000	-0.570284
	8.795000	-0.692771
	8.800000	-0.802366
	8.805000	-0.676655
	8.810000	-0.570284
	8.815000	-0.695995
	8.820000	-0.805589
	8.825000	-0.676655
	8.830000	-0.570284
	8.835000	-0.692771
	8.840000	-0.805589
	8.845000	-0.673431
	8.850000	-0.576730
	8.855000	-0.689548
	8.860000	-0.808812
	8.865000	-0.689548
	8.870000	-0.579954
	8.875000	-0.695995
	8.880000	-0.808812
	8.885000	-0.686325
	8.890000	-0.573507
	8.895000	-0.702441
	8.900000	-0.815259
	8.905000	-0.683101
	8.910000	-0.579954
	8.915000	-0.705665
	8.920000	-0.805589
	8.925000	-0.692771
	8.930000	-0.579954
	8.935000	-0.699218
	8.940000	-0.808812
	8.945000	-0.686325
	8.950000	-0.570284
	8.955000	-0.705665
	8.960000	-0.812036
	8.965000	-0.689548
	8.970000	-0.579954
	8.975000	-0.705665
	8.980000	-0.812036
	8.985000	-0.692771
	8.990000	-0.583177
	8.995000	-0.702441
	9.000000	-0.815259
	9.005000	-0.695995
	9.010000	-0.579954
	9.015000	-0.702441
	9.020000	-0.818482
	9.025000	-0.692771
	9.030000	-0.579954
	9.035000	-0.705665
	9.040000	-0.821706
	9.045000	-0.695995
	9.050000	-0.589624
	9.055000	-0.705665
	9.060000	-0.815259
	9.065000	-0.695995
	9.070000	-0.583177
	9.075000	-0.705665
	9.080000	-0.808812
	9.085000	-0.689548
	9.090000	-0.579954
	9.095000	-0.695995
	9.100000	-0.812036
	9.105000	-0.683101
	9.110000	-0.570284
	9.115000	-0.699218
	9.120000	-0.805589
	9.125000	-0.686325
	9.130000	-0.576730
	9.135000	-0.686325
	9.140000	-0.799142
	9.145000	-0.676655
	9.150000	-0.570284
	9.155000	-0.683101
	9.160000	-0.802366
	9.165000	-0.679878
	9.170000	-0.573507
	9.175000	-0.683101
	9.180000	-0.799142
	9.185000	-0.683101
	9.190000	-0.563837
	9.195000	-0.679878
	9.200000	-0.799142
	9.205000	-0.676655
	9.210000	-0.560614
	9.215000	-0.683101
	9.220000	-0.792696
	9.225000	-0.676655
	9.230000	-0.557390
	9.235000	-0.676655
	9.240000	-0.795919
	9.245000	-0.679878
	9.250000	-0.560614
	9.255000	-0.679878
	9.260000	-0.786249
	9.265000	-0.673431
	9.270000	-0.560614
	9.275000	-0.670208
	9.280000	-0.789472
	9.285000	-0.670208
	9.290000	-0.563837
	9.295000	-0.673431
	9.300000	-0.795919
	9.305000	-0.676655
	9.310000	-0.560614
	9.315000	-0.670208
	9.320000	-0.786249
	9.325000	-0.673431
	9.330000	-0.557390
	9.335000	-0.670208
	9.340000	-0.792696
	9.345000	-0.670208
	9.350000	-0.554167
	9.355000	-0.663761
	9.360000	-0.786249
	9.365000	-0.666985
	9.370000	-0.557390
	9.375000	-0.666985
	9.380000	-0.779802
	9.385000	-0.670208
	9.390000	-0.547720
	9.395000	-0.663761
	9.400000	-0.773355
	9.405000	-0.666985
	9.410000	-0.544497
	9.415000	-0.660538
	9.420000	-0.776579
	9.425000	-0.663761
	9.430000	-0.541274
	9.435000	-0.660538
	9.440000	-0.776579
	9.445000	-0.663761
	9.450000	-0.538050
	9.455000	-0.647644
	9.460000	-0.776579
	9.465000	-0.663761
	9.470000	-0.538050
	9.475000	-0.644421
	9.480000	-0.766909
	9.485000	-0.660538
	9.490000	-0.534827
	9.495000	-0.641198
	9.500000	-0.757239
	9.505000	-0.644421
	9.510000	-0.531603
	9.515000	-0.631528
	9.520000	-0.757239
	9.525000	-0.641198
	9.530000	-0.525157
	9.535000	-0.637974
	9.540000	-0.757239
	9.545000	-0.650868
	9.550000	-0.525157
	9.555000	-0.631528
	9.560000	-0.750792
	9.565000	-0.647644
	9.570000	-0.521933
	9.575000	-0.625081
	9.580000	-0.747569
	9.585000	-0.641198
	9.590000	-0.521933
	9.595000	-0.628304
	9.600000	-0.754015
	9.605000	-0.641198
	9.610000	-0.518710
	9.615000	-0.631528
	9.620000	-0.750792
	9.625000	-0.644421
	9.630000	-0.521933
	9.635000	-0.631528
	9.640000	-0.757239
	9.645000	-0.650868
	9.650000	-0.521933
	9.655000	-0.625081
	9.660000	-0.750792
	9.665000	-0.647644
	9.670000	-0.531603
	9.675000	-0.628304
	9.680000	-0.757239
	9.685000	-0.650868
	9.690000	-0.525157
	9.695000	-0.631528
	9.700000	-0.750792
	9.705000	-0.654091
	9.710000	-0.531603
	9.715000	-0.634751
	9.720000	-0.754015
	9.725000	-0.657314
	9.730000	-0.525157
	9.735000	-0.628304
	9.740000	-0.760462
	9.745000	-0.650868
	9.750000	-0.534827
	9.755000	-0.631528
	9.760000	-0.757239
	9.765000	-0.654091
	9.770000	-0.528380
	9.775000	-0.631528
	9.780000	-0.760462
	9.785000	-0.654091
	9.790000	-0.538050
	9.795000	-0.628304
	9.800000	-0.760462
	9.805000	-0.657314
	9.810000	-0.531603
	9.815000	-0.637974
	9.820000	-0.760462
	9.825000	-0.663761
	9.830000	-0.531603
	9.835000	-0.634751
	9.840000	-0.760462
	9.845000	-0.657314
	9.850000	-0.528380
	9.855000	-0.631528
	9.860000	-0.760462
	9.865000	-0.663761
	9.870000	-0.531603
	9.875000	-0.628304
	9.880000	-0.763685
	9.885000	-0.660538
	9.890000	-0.538050
	9.895000	-0.631528
	9.900000	-0.763685
	9.905000	-0.663761
	9.910000	-0.534827
	9.915000	-0.634751
	9.920000	-0.770132
	9.925000	-0.666985
	9.930000	-0.541274
	9.935000	-0.637974
	9.940000	-0.766909
	9.945000	-0.666985
	9.950000	-0.544497
	9.955000	-0.634751
	9.960000	-0.770132
	9.965000	-0.673431
	9.970000	-0.547720
	9.975000	-0.637974
	9.980000	-0.779802
	9.985000	-0.679878
	9.990000	-0.554167
	9.995000	-0.650868
	10.000000	-0.783025
	10.005000	-0.692771
	10.010000	-0.563837
	10.015000	-0.657314
	10.020000	-0.795919
	10.025000	-0.705665
	10.030000	-0.570284
	10.035000	-0.666985
	10.040000	-0.802366
	10.045000	-0.705665
	10.050000	-0.576730
	10.055000	-0.676655
	10.060000	-0.812036
	10.065000	-0.721782
	10.070000	-0.586401
	10.075000	-0.686325
	10.080000	-0.818482
	10.085000	-0.728228
	10.090000	-0.596071
	10.095000	-0.689548
	10.100000	-0.824929
	10.105000	-0.731452
	10.110000	-0.599294
	10.115000	-0.695995
	10.120000	-0.841046
	10.125000	-0.737898
	10.130000	-0.605741
	10.135000	-0.699218
	10.140000	-0.841046
	10.145000	-0.750792
	10.150000	-0.618634
	10.155000	-0.715335
	10.160000	-0.850716
	10.165000	-0.757239
	10.170000	-0.628304
	10.175000	-0.718558
	10.180000	-0.857163
	10.185000	-0.770132
	10.190000	-0.641198
	10.195000	-0.725005
	10.200000	-0.860386
	10.205000	-0.773355
	10.210000	-0.637974
	10.215000	-0.737898
	10.220000	-0.873280
	10.225000	-0.776579
	10.230000	-0.657314
	10.235000	-0.741122
	10.240000	-0.876503
	10.245000	-0.779802
	10.250000	-0.650868
	10.255000	-0.747569
	10.260000	-0.876503
	10.265000	-0.786249
	10.270000	-0.654091
	10.275000	-0.741122
	10.280000	-0.886173
	10.285000	-0.792696
	10.290000	-0.657314
	10.295000	-0.737898
	10.300000	-0.886173
	10.305000	-0.786249
	10.310000	-0.657314
	10.315000	-0.744345
	10.320000	-0.879726
	10.325000	-0.786249
	10.330000	-0.654091
	10.335000	-0.737898
	10.340000	-0.876503
	10.345000	-0.789472
	10.350000	-0.654091
	10.355000	-0.734675
	10.360000	-0.876503
	10.365000	-0.776579
	10.370000	-0.647644
	10.375000	-0.728228
	10.380000	-0.863609
	10.385000	-0.773355
	10.390000	-0.631528
	10.395000	-0.721782
	10.400000	-0.857163
	10.405000	-0.770132
	10.410000	-0.625081
	10.415000	-0.705665
	10.420000	-0.841046
	10.425000	-0.757239
	10.430000	-0.618634
	10.435000	-0.699218
	10.440000	-0.841046
	10.445000	-0.747569
	10.450000	-0.605741
	10.455000	-0.686325
	10.460000	-0.824929
	10.465000	-0.744345
	10.470000	-0.605741
	10.475000	-0.683101
	10.480000	-0.821706
	10.485000	-0.747569
	10.490000	-0.605741
	10.495000	-0.683101
	10.500000	-0.824929
	10.505000	-0.741122
	10.510000	-0.602517
	10.515000	-0.686325
	10.520000	-0.821706
	10.525000	-0.734675
	10.530000	-0.605741
	10.535000	-0.679878
	10.540000	-0.818482
	10.545000	-0.734675
	10.550000	-0.596071
	10.555000	-0.676655
	10.560000	-0.815259
	10.565000	-0.731452
	10.570000	-0.589624
	10.575000	-0.666985
	10.580000	-0.815259
	10.585000	-0.728228
	10.590000	-0.586401
	10.595000	-0.670208
	10.600000	-0.799142
	10.605000	-0.725005
	10.610000	-0.583177
	10.615000	-0.654091
	10.620000	-0.795919
	10.625000	-0.721782
	10.630000	-0.570284
	10.635000	-0.650868
	10.640000	-0.792696
	10.645000	-0.702441
	10.650000	-0.567060
	10.655000	-0.644421
	10.660000	-0.786249
	10.665000	-0.705665
	10.670000	-0.560614
	10.675000	-0.641198
	10.680000	-0.779802
	10.685000	-0.702441
	10.690000	-0.557390
	10.695000	-0.634751
	10.700000	-0.776579
	10.705000	-0.695995
	10.710000	-0.550944
	10.715000	-0.628304
	10.720000	-0.770132
	10.725000	-0.683101
	10.730000	-0.541274
	10.735000	-0.612187
	10.740000	-0.757239
	10.745000	-0.683101
	10.750000	-0.534827
	10.755000	-0.605741
	10.760000	-0.750792
	10.765000	-0.670208
	10.770000	-0.531603
	10.775000	-0.596071
	10.780000	-0.741122
	10.785000	-0.663761
	10.790000	-0.525157
	10.795000	-0.589624
	10.800000	-0.731452
	10.805000	-0.666985
	10.810000	-0.518710
	10.815000	-0.583177
	10.820000	-0.725005
	10.825000	-0.654091
	10.830000	-0.512263
	10.835000	-0.583177
	10.840000	-0.721782
	10.845000	-0.654091
	10.850000	-0.502593
	10.855000	-0.576730
	10.860000	-0.715335
	10.865000	-0.650868
	10.870000	-0.502593
	10.875000	-0.560614
	10.880000	-0.715335
	10.885000	-0.641198
	10.890000	-0.496147
	10.895000	-0.563837
	10.900000	-0.705665
	10.905000	-0.637974
	10.910000	-0.489700
	10.915000	-0.557390
	10.920000	-0.705665
	10.925000	-0.634751
	10.930000	-0.489700
	10.935000	-0.560614
	10.940000	-0.705665
	10.945000	-0.631528
	10.950000	-0.492923
	10.955000	-0.563837
	10.960000	-0.699218
	10.965000	-0.634751
	10.970000	-0.483253
	10.975000	-0.550944
	10.980000	-0.699218
	10.985000	-0.628304
	10.990000	-0.476806
	10.995000	-0.547720
	11.000000	-0.695995
	11.005000	-0.628304
	11.010000	-0.480030
	11.015000	-0.550944
	11.020000	-0.695995
	11.025000	-0.634751
	11.030000	-0.480030
	11.035000	-0.544497
	11.040000	-0.692771
	11.045000	-0.628304
	11.050000	-0.476806
	11.055000	-0.547720
	11.060000	-0.689548
	11.065000	-0.628304
	11.070000	-0.486476
	11.075000	-0.547720
	11.080000	-0.689548
	11.085000	-0.625081
	11.090000	-0.476806
	11.095000	-0.538050
	11.100000	-0.689548
	11.105000	-0.628304
	11.110000	-0.486476
	11.115000	-0.538050
	11.120000	-0.689548
	11.125000	-0.621858
	11.130000	-0.480030
	11.135000	-0.547720
	11.140000	-0.686325
	11.145000	-0.631528
	11.150000	-0.483253
	11.155000	-0.550944
	11.160000	-0.695995
	11.165000	-0.628304
	11.170000	-0.489700
	11.175000	-0.547720
	11.180000	-0.699218
	11.185000	-0.634751
	11.190000	-0.499370
	11.195000	-0.560614
	11.200000	-0.705665
	11.205000	-0.641198
	11.210000	-0.496147
	11.215000	-0.560614
	11.220000	-0.708888
	11.225000	-0.647644
	11.230000	-0.505817
	11.235000	-0.563837
	11.240000	-0.708888
	11.245000	-0.650868
	11.250000	-0.505817
	11.255000	-0.567060
	11.260000	-0.715335
	11.265000	-0.660538
	11.270000	-0.515487
	11.275000	-0.576730
	11.280000	-0.734675
	11.285000	-0.676655
	11.290000	-0.528380
	11.295000	-0.592847
	11.300000	-0.747569
	11.305000	-0.692771
	11.310000	-0.547720
	11.315000	-0.612187
	11.320000	-0.763685
	11.325000	-0.715335
	11.330000	-0.570284
	11.335000	-0.634751
	11.340000	-0.792696
	11.345000	-0.747569
	11.350000	-0.605741
	11.355000	-0.666985
	11.360000	-0.831376
	11.365000	-0.779802
	11.370000	-0.641198
	11.375000	-0.705665
	11.380000	-0.870056
	11.385000	-0.818482
	11.390000	-0.686325
	11.395000	-0.747569
	11.400000	-0.915183
	11.405000	-0.863609
	11.410000	-0.715335
	11.415000	-0.789472
	11.420000	-0.957087
	11.425000	-0.915183
	11.430000	-0.776579
	11.435000	-0.850716
	11.440000	-1.028001
	11.445000	-0.986097
	11.450000	-0.844269
	11.455000	-0.905513
	11.460000	-1.079574
	11.465000	-1.044118
	11.470000	-0.895843
	11.475000	-0.973204
	11.480000	-1.140818
	11.485000	-1.095691
	11.490000	-0.947417
	11.495000	-0.998991
	11.500000	-1.160158
	11.505000	-1.089245
	11.510000	-0.915183
	11.515000	-0.944193
	11.520000	-1.082798
	11.525000	-1.011884
	11.530000	-0.808812
	11.535000	-0.821706
	11.540000	-0.953863
	11.545000	-0.870056
	11.550000	-0.686325
	11.555000	-0.718558
	11.560000	-0.860386
	11.565000	-0.802366
	11.570000	-0.631528
	11.575000	-0.683101
	11.580000	-0.844269
	11.585000	-0.789472
	11.590000	-0.634751
	11.595000	-0.695995
	11.600000	-0.863609
	11.605000	-0.815259
	11.610000	-0.666985
	11.615000	-0.721782
	11.620000	-0.889396
	11.625000	-0.844269
	11.630000	-0.679878
	11.635000	-0.728228
	11.640000	-0.873280
	11.645000	-0.818482
	11.650000	-0.634751
	11.655000	-0.666985
	11.660000	-0.805589
	11.665000	-0.734675
	11.670000	-0.550944
	11.675000	-0.573507
	11.680000	-0.708888
	11.685000	-0.650868
	11.690000	-0.467136
	11.695000	-0.505817
	11.700000	-0.654091
	11.705000	-0.583177
	11.710000	-0.418786
	11.715000	-0.457466
	11.720000	-0.612187
	11.725000	-0.557390
	11.730000	-0.389776
	11.735000	-0.428456
	11.740000	-0.583177
	11.745000	-0.534827
	11.750000	-0.360765
	11.755000	-0.399446
	11.760000	-0.560614
	11.765000	-0.502593
	11.770000	-0.341425
	11.775000	-0.380106
	11.780000	-0.541274
	11.785000	-0.492923
	11.790000	-0.322085
	11.795000	-0.363989
	11.800000	-0.525157
	11.805000	-0.463913
	11.810000	-0.305968
	11.815000	-0.341425
	11.820000	-0.496147
	11.825000	-0.451019
	11.830000	-0.289852
	11.835000	-0.322085
	11.840000	-0.486476
	11.845000	-0.441349
	11.850000	-0.273735
	11.855000	-0.318862
	11.860000	-0.476806
	11.865000	-0.428456
	11.870000	-0.264065
	11.875000	-0.305968
	11.880000	-0.460690
	11.885000	-0.412339
	11.890000	-0.260841
	11.895000	-0.293075
	11.900000	-0.444573
	11.905000	-0.399446
	11.910000	-0.247948
	11.915000	-0.273735
	11.920000	-0.428456
	11.925000	-0.380106
	11.930000	-0.222161
	11.935000	-0.257618
	11.940000	-0.402669
	11.945000	-0.360765
	11.950000	-0.202821
	11.955000	-0.222161
	11.960000	-0.383329
	11.965000	-0.341425
	11.970000	-0.173811
	11.975000	-0.202821
	11.980000	-0.357542
	11.985000	-0.315638
	11.990000	-0.141577
	11.995000	-0.177034
	12.000000	-0.334979
	12.005000	-0.289852
	12.010000	-0.125460
	12.015000	-0.164141
	12.020000	-0.322085
	12.025000	-0.283405
	12.030000	-0.125460
	12.035000	-0.160917
	12.040000	-0.318862
	12.045000	-0.280181
	12.050000	-0.122237
	12.055000	-0.151247
	12.060000	-0.318862
	12.065000	-0.283405
	12.070000	-0.122237
	12.075000	-0.164141
	12.080000	-0.312415
	12.085000	-0.283405
	12.090000	-0.131907
	12.095000	-0.160917
	12.100000	-0.322085
	12.105000	-0.286628
	12.110000	-0.131907
	12.115000	-0.160917
	12.120000	-0.322085
	12.125000	-0.283405
	12.130000	-0.128684
	12.135000	-0.164141
	12.140000	-0.318862
	12.145000	-0.280181
	12.150000	-0.125460
	12.155000	-0.164141
	12.160000	-0.322085
	12.165000	-0.296298
	12.170000	-0.138354
	12.175000	-0.167364
	12.180000	-0.328532
	12.185000	-0.302745
	12.190000	-0.144800
	12.195000	-0.170587
	12.200000	-0.341425
	12.205000	-0.302745
	12.210000	-0.160917
	12.215000	-0.193151
	12.220000	-0.347872
	12.225000	-0.322085
	12.230000	-0.170587
	12.235000	-0.196374
	12.240000	-0.357542
	12.245000	-0.334979
	12.250000	-0.180257
	12.255000	-0.206044
	12.260000	-0.363989
	12.265000	-0.344649
	12.270000	-0.183481
	12.275000	-0.212491
	12.280000	-0.373659
	12.285000	-0.354319
	12.290000	-0.196374
	12.295000	-0.225384
	12.300000	-0.389776
	12.305000	-0.360765
	12.310000	-0.212491
	12.315000	-0.231831
	12.320000	-0.396222
	12.325000	-0.373659
	12.330000	-0.225384
	12.335000	-0.247948
	12.340000	-0.418786
	12.345000	-0.386552
	12.350000	-0.235054
	12.355000	-0.254395
	12.360000	-0.422009
	12.365000	-0.402669
	12.370000	-0.244725
	12.375000	-0.267288
	12.380000	-0.425233
	12.385000	-0.405892
	12.390000	-0.257618
	12.395000	-0.276958
	12.400000	-0.438126
	12.405000	-0.422009
	12.410000	-0.260841
	12.415000	-0.283405
	12.420000	-0.454243
	12.425000	-0.431679
	12.430000	-0.276958
	12.435000	-0.299522
	12.440000	-0.463913
	12.445000	-0.444573
	12.450000	-0.286628
	12.455000	-0.312415
	12.460000	-0.476806
	12.465000	-0.454243
	12.470000	-0.296298
	12.475000	-0.315638
	12.480000	-0.486476
	12.485000	-0.463913
	12.490000	-0.305968
	12.495000	-0.328532
	12.500000	-0.492923
	12.505000	-0.476806
	12.510000	-0.318862
	12.515000	-0.334979
	12.520000	-0.505817
	12.525000	-0.480030
	12.530000	-0.331755
	12.535000	-0.351095
	12.540000	-0.505817
	12.545000	-0.492923
	12.550000	-0.338202
	12.555000	-0.357542
	12.560000	-0.521933
	12.565000	-0.502593
	12.570000	-0.347872
	12.575000	-0.363989
	12.580000	-0.534827
	12.585000	-0.512263
	12.590000	-0.351095
	12.595000	-0.373659
	12.600000	-0.531603
	12.605000	-0.518710
	12.610000	-0.363989
	12.615000	-0.383329
	12.620000	-0.544497
	12.625000	-0.531603
	12.630000	-0.367212
	12.635000	-0.389776
	12.640000	-0.547720
	12.645000	-0.538050
	12.650000	-0.383329
	12.655000	-0.389776
	12.660000	-0.554167
	12.665000	-0.544497
	12.670000	-0.383329
	12.675000	-0.396222
	12.680000	-0.560614
	12.685000	-0.544497
	12.690000	-0.386552
	12.695000	-0.399446
	12.700000	-0.563837
	12.705000	-0.557390
	12.710000	-0.386552
	12.715000	-0.405892
	12.720000	-0.573507
	12.725000	-0.554167
	12.730000	-0.399446
	12.735000	-0.412339
	12.740000	-0.576730
	12.745000	-0.560614
	12.750000	-0.409116
	12.755000	-0.412339
	12.760000	-0.583177
	12.765000	-0.567060
	12.770000	-0.409116
	12.775000	-0.415563
	12.780000	-0.589624
	12.785000	-0.570284
	12.790000	-0.409116
	12.795000	-0.425233
	12.800000	-0.579954
	12.805000	-0.573507
	12.810000	-0.409116
	12.815000	-0.425233
	12.820000	-0.586401
	12.825000	-0.576730
	12.830000	-0.412339
	12.835000	-0.418786
	12.840000	-0.579954
	12.845000	-0.586401
	12.850000	-0.415563
	12.855000	-0.418786
	12.860000	-0.583177
	12.865000	-0.576730
	12.870000	-0.415563
	12.875000	-0.425233
	12.880000	-0.586401
	12.885000	-0.583177
	12.890000	-0.412339
	12.895000	-0.425233
	12.900000	-0.583177
	12.905000	-0.589624
	12.910000	-0.422009
	12.915000	-0.431679
	12.920000	-0.599294
	12.925000	-0.592847
	12.930000	-0.425233
	12.935000	-0.434903
	12.940000	-0.599294
	12.945000	-0.599294
	12.950000	-0.428456
	12.955000	-0.434903
	12.960000	-0.599294
	12.965000	-0.596071
	12.970000	-0.434903
	12.975000	-0.441349
	12.980000	-0.608964
	12.985000	-0.602517
	12.990000	-0.431679
	12.995000	-0.441349
	13.000000	-0.608964
	13.005000	-0.608964
	13.010000	-0.438126
	13.015000	-0.441349
	13.020000	-0.612187
	13.025000	-0.608964
	13.030000	-0.444573
	13.035000	-0.451019
	13.040000	-0.612187
	13.045000	-0.618634
	13.050000	-0.454243
	13.055000	-0.451019
	13.060000	-0.615411
	13.065000	-0.625081
	13.070000	-0.451019
	13.075000	-0.454243
	13.080000	-0.625081
	13.085000	-0.621858
	13.090000	-0.460690
	13.095000	-0.460690
	13.100000	-0.628304
	13.105000	-0.628304
	13.110000	-0.463913
	13.115000	-0.457466
	13.120000	-0.625081
	13.125000	-0.628304
	13.130000	-0.463913
	13.135000	-0.463913
	13.140000	-0.628304
	13.145000	-0.631528
	13.150000	-0.470360
	13.155000	-0.467136
	13.160000	-0.631528
	13.165000	-0.637974
	13.170000	-0.467136
	13.175000	-0.470360
	13.180000	-0.637974
	13.185000	-0.634751
	13.190000	-0.476806
	13.195000	-0.473583
	13.200000	-0.631528
	13.205000	-0.644421
	13.210000	-0.473583
	13.215000	-0.467136
	13.220000	-0.644421
	13.225000	-0.644421
	13.230000	-0.480030
	13.235000	-0.470360
	13.240000	-0.637974
	13.245000	-0.650868
	13.250000	-0.483253
	13.255000	-0.470360
	13.260000	-0.637974
	13.265000	-0.650868
	13.270000	-0.480030
	13.275000	-0.476806
	13.280000	-0.644421
	13.285000	-0.650868
	13.290000	-0.480030
	13.295000	-0.480030
	13.300000	-0.647644
	13.305000	-0.654091
	13.310000	-0.480030
	13.315000	-0.476806
	13.320000	-0.644421
	13.325000	-0.650868
	13.330000	-0.489700
	13.335000	-0.470360
	13.340000	-0.647644
	13.345000	-0.660538
	13.350000	-0.486476
	13.355000	-0.476806
	13.360000	-0.650868
	13.365000	-0.654091
	13.370000	-0.492923
	13.375000	-0.476806
	13.380000	-0.647644
	13.385000	-0.660538
	13.390000	-0.486476
	13.395000	-0.483253
	13.400000	-0.647644
	13.405000	-0.660538
	13.410000	-0.492923
	13.415000	-0.486476
	13.420000	-0.644421
	13.425000	-0.663761
	13.430000	-0.492923
	13.435000	-0.476806
	13.440000	-0.650868
	13.445000	-0.657314
	13.450000	-0.486476
	13.455000	-0.486476
	13.460000	-0.647644
	13.465000	-0.660538
	13.470000	-0.492923
	13.475000	-0.483253
	13.480000	-0.647644
	13.485000	-0.657314
	13.490000	-0.502593
	13.495000	-0.489700
	13.500000	-0.647644
	13.505000	-0.666985
	13.510000	-0.496147
	13.515000	-0.486476
	13.520000	-0.650868
	13.525000	-0.660538
	13.530000	-0.502593
	13.535000	-0.476806
	13.540000	-0.654091
	13.545000	-0.666985
	13.550000	-0.502593
	13.555000	-0.483253
	13.560000	-0.644421
	13.565000	-0.663761
	13.570000	-0.505817
	13.575000	-0.483253
	13.580000	-0.647644
	13.585000	-0.670208
	13.590000	-0.502593
	13.595000	-0.480030
	13.600000	-0.650868
	13.605000	-0.663761
	13.610000	-0.499370
	13.615000	-0.473583
	13.620000	-0.644421
	13.625000	-0.670208
	13.630000	-0.505817
	13.635000	-0.480030
	13.640000	-0.644421
	13.645000	-0.666985
	13.650000	-0.502593
	13.655000	-0.483253
	13.660000	-0.647644
	13.665000	-0.670208
	13.670000	-0.509040
	13.675000	-0.483253
	13.680000	-0.647644
	13.685000	-0.676655
	13.690000	-0.512263
	13.695000	-0.489700
	13.700000	-0.654091
	13.705000	-0.679878
	13.710000	-0.518710
	13.715000	-0.483253
	13.720000	-0.654091
	13.725000	-0.679878
	13.730000	-0.515487
	13.735000	-0.486476
	13.740000	-0.657314
	13.745000	-0.676655
	13.750000	-0.512263
	13.755000	-0.496147
	13.760000	-0.657314
	13.765000	-0.683101
	13.770000	-0.512263
	13.775000	-0.492923
	13.780000	-0.657314
	13.785000	-0.679878
	13.790000	-0.515487
	13.795000	-0.492923
	13.800000	-0.654091
	13.805000	-0.689548
	13.810000	-0.515487
	13.815000	-0.492923
	13.820000	-0.654091
	13.825000	-0.686325
	13.830000	-0.518710
	13.835000	-0.489700
	13.840000	-0.660538
	13.845000	-0.689548
	13.850000	-0.521933
	13.855000	-0.496147
	13.860000	-0.654091
	13.865000	-0.689548
	13.870000	-0.525157
	13.875000	-0.489700
	13.880000	-0.660538
	13.885000	-0.692771
	13.890000	-0.518710
	13.895000	-0.496147
	13.900000	-0.657314
	13.905000	-0.689548
	13.910000	-0.528380
	13.915000	-0.492923
	13.920000	-0.670208
	13.925000	-0.689548
	13.930000	-0.525157
	13.935000	-0.492923
	13.940000	-0.657314
	13.945000	-0.689548
	13.950000	-0.531603
	13.955000	-0.496147
	13.960000	-0.666985
	13.965000	-0.695995
	13.970000	-0.528380
	13.975000	-0.499370
	13.980000	-0.670208
	13.985000	-0.695995
	13.990000	-0.528380
	13.995000	-0.496147
	14.000000	-0.666985
	14.005000	-0.695995
	14.010000	-0.538050
	14.015000	-0.505817
	14.020000	-0.670208
	14.025000	-0.699218
	14.030000	-0.534827
	14.035000	-0.502593
	14.040000	-0.673431
	14.045000	-0.699218
	14.050000	-0.531603
	14.055000	-0.502593
	14.060000	-0.663761
	14.065000	-0.699218
	14.070000	-0.544497
	14.075000	-0.509040
	14.080000	-0.670208
	14.085000	-0.702441
	14.090000	-0.541274
	14.095000	-0.502593
	14.100000	-0.666985
	14.105000	-0.705665
	14.110000	-0.538050
	14.115000	-0.512263
	14.120000	-0.663761
	14.125000	-0.708888
	14.130000	-0.544497
	14.135000	-0.505817
	14.140000	-0.670208
	14.145000	-0.705665
	14.150000	-0.541274
	14.155000	-0.502593
	14.160000	-0.666985
	14.165000	-0.705665
	14.170000	-0.550944
	14.175000	-0.499370
	14.180000	-0.670208
	14.185000	-0.715335
	14.190000	-0.541274
	14.195000	-0.505817
	14.200000	-0.663761
	14.205000	-0.705665
	14.210000	-0.547720
	14.215000	-0.502593
	14.220000	-0.670208
	14.225000	-0.708888
	14.230000	-0.544497
	14.235000	-0.505817
	14.240000	-0.666985
	14.245000	-0.708888
	14.250000	-0.557390
	14.255000	-0.512263
	14.260000	-0.666985
	14.265000	-0.708888
	14.270000	-0.541274
	14.275000	-0.512263
	14.280000	-0.670208
	14.285000	-0.715335
	14.290000	-0.550944
	14.295000	-0.512263
	14.300000	-0.679878
	14.305000	-0.712112
	14.310000	-0.547720
	14.315000	-0.505817
	14.320000	-0.670208
	14.325000	-0.721782
	14.330000	-0.550944
	14.335000	-0.502593
	14.340000	-0.670208
	14.345000	-0.715335
	14.350000	-0.554167
	14.355000	-0.505817
	14.360000	-0.673431
	14.365000	-0.712112
	14.370000	-0.560614
	14.375000	-0.509040
	14.380000	-0.670208
	14.385000	-0.721782
	14.390000	-0.560614
	14.395000	-0.515487
	14.400000	-0.663761
	14.405000	-0.718558
	14.410000	-0.563837
	14.415000	-0.505817
	14.420000	-0.663761
	14.425000	-0.725005
	14.430000	-0.554167
	14.435000	-0.518710
	14.440000	-0.673431
	14.445000	-0.721782
	14.450000	-0.560614
	14.455000	-0.515487
	14.460000	-0.670208
	14.465000	-0.721782
	14.470000	-0.570284
	14.475000	-0.515487
	14.480000	-0.679878
	14.485000	-0.725005
	14.490000	-0.570284
	14.495000	-0.521933
	14.500000	-0.683101
	14.505000	-0.731452
	14.510000	-0.567060
	14.515000	-0.521933
	14.520000	-0.683101
	14.525000	-0.731452
	14.530000	-0.567060
	14.535000	-0.518710
	14.540000	-0.679878
	14.545000	-0.731452
	14.550000	-0.567060
	14.555000	-0.531603
	14.560000	-0.683101
	14.565000	-0.737898
	14.570000	-0.579954
	14.575000	-0.531603
	14.580000	-0.686325
	14.585000	-0.741122
	14.590000	-0.579954
	14.595000	-0.528380
	14.600000	-0.689548
	14.605000	-0.741122
	14.610000	-0.579954
	14.615000	-0.534827
	14.620000	-0.689548
	14.625000	-0.741122
	14.630000	-0.579954
	14.635000	-0.525157
	14.640000	-0.683101
	14.645000	-0.741122
	14.650000	-0.576730
	14.655000	-0.518710
	14.660000	-0.679878
	14.665000	-0.734675
	14.670000	-0.576730
	14.675000	-0.518710
	14.680000	-0.679878
	14.685000	-0.734675
	14.690000	-0.576730
	14.695000	-0.525157
	14.700000	-0.670208
	14.705000	-0.728228
	14.710000	-0.570284
	14.715000	-0.515487
	14.720000	-0.670208
	14.725000	-0.734675
	14.730000	-0.567060
	14.735000	-0.512263
	14.740000	-0.660538
	14.745000	-0.725005
	14.750000	-0.563837
	14.755000	-0.515487
	14.760000	-0.673431
	14.765000	-0.728228
	14.770000	-0.573507
	14.775000	-0.515487
	14.780000	-0.670208
	14.785000	-0.731452
	14.790000	-0.573507
	14.795000	-0.515487
	14.800000	-0.670208
	14.805000	-0.725005
	14.810000	-0.563837
	14.815000	-0.509040
	14.820000	-0.666985
	14.825000	-0.728228
	14.830000	-0.570284
	14.835000	-0.518710
	14.840000	-0.670208
	14.845000	-0.728228
	14.850000	-0.567060
	14.855000	-0.505817
	14.860000	-0.666985
	14.865000	-0.725005
	14.870000	-0.573507
	14.875000	-0.509040
	14.880000	-0.660538
	14.885000	-0.725005
	14.890000	-0.567060
	14.895000	-0.505817
	14.900000	-0.663761
	14.905000	-0.721782
	14.910000	-0.567060
	14.915000	-0.509040
	14.920000	-0.660538
	14.925000	-0.715335
	14.930000	-0.567060
	14.935000	-0.505817
	14.940000	-0.660538
	14.945000	-0.728228
	14.950000	-0.567060
	14.955000	-0.512263
	14.960000	-0.666985
	14.965000	-0.731452
	14.970000	-0.573507
	14.975000	-0.512263
	14.980000	-0.666985
	14.985000	-0.725005
	14.990000	-0.570284
	14.995000	-0.505817
	15.000000	-0.657314
	15.005000	-0.725005
	15.010000	-0.576730
	15.015000	-0.509040
	15.020000	-0.663761
	15.025000	-0.718558
	15.030000	-0.576730
	15.035000	-0.509040
	15.040000	-0.663761
	15.045000	-0.734675
	15.050000	-0.576730
	15.055000	-0.509040
	15.060000	-0.660538
	15.065000	-0.731452
	15.070000	-0.586401
	15.075000	-0.515487
	15.080000	-0.666985
	15.085000	-0.734675
	15.090000	-0.589624
	15.095000	-0.512263
	15.100000	-0.666985
	15.105000	-0.737898
	15.110000	-0.583177
	15.115000	-0.518710
	15.120000	-0.666985
	15.125000	-0.741122
	15.130000	-0.583177
	15.135000	-0.515487
	15.140000	-0.679878
	15.145000	-0.747569
	15.150000	-0.589624
	15.155000	-0.525157
	15.160000	-0.679878
	15.165000	-0.744345
	15.170000	-0.596071
	15.175000	-0.531603
	15.180000	-0.686325
	15.185000	-0.747569
	15.190000	-0.599294
	15.195000	-0.531603
	15.200000	-0.689548
	15.205000	-0.757239
	15.210000	-0.608964
	15.215000	-0.541274
	15.220000	-0.695995
	15.225000	-0.766909
	15.230000	-0.605741
	15.235000	-0.538050
	15.240000	-0.692771
	15.245000	-0.760462
	15.250000	-0.615411
	15.255000	-0.544497
	15.260000	-0.699218
	15.265000	-0.773355
	15.270000	-0.615411
	15.275000	-0.544497
	15.280000	-0.695995
	15.285000	-0.773355
	15.290000	-0.625081
	15.295000	-0.544497
	15.300000	-0.695995
	15.305000	-0.770132
	15.310000	-0.625081
	15.315000	-0.547720
	15.320000	-0.692771
	15.325000	-0.773355
	15.330000	-0.618634
	15.335000	-0.544497
	15.340000	-0.695995
	15.345000	-0.766909
	15.350000	-0.615411
	15.355000	-0.547720
	15.360000	-0.702441
	15.365000	-0.770132
	15.370000	-0.615411
	15.375000	-0.547720
	15.380000	-0.699218
	15.385000	-0.766909
	15.390000	-0.625081
	15.395000	-0.547720
	15.400000	-0.695995
	15.405000	-0.770132
	15.410000	-0.615411
	15.415000	-0.550944
	15.420000	-0.692771
	15.425000	-0.773355
	15.430000	-0.628304
	15.435000	-0.544497
	15.440000	-0.695995
	15.445000	-0.773355
	15.450000	-0.621858
	15.455000	-0.547720
	15.460000	-0.689548
	15.465000	-0.770132
	15.470000	-0.628304
	15.475000	-0.544497
	15.480000	-0.695995
	15.485000	-0.766909
	15.490000	-0.625081
	15.495000	-0.541274
	15.500000	-0.689548
	15.505000	-0.770132
	15.510000	-0.618634
	15.515000	-0.550944
	15.520000	-0.692771
	15.525000	-0.766909
	15.530000	-0.625081
	15.535000	-0.541274
	15.540000	-0.692771
	15.545000	-0.766909
	15.550000	-0.625081
	15.555000	-0.547720
	15.560000	-0.689548
	15.565000	-0.773355
	15.570000	-0.631528
	15.575000	-0.547720
	15.580000	-0.695995
	15.585000	-0.773355
	15.590000	-0.628304
	15.595000	-0.550944
	15.600000	-0.689548
	15.605000	-0.776579
	15.610000	-0.625081
	15.615000	-0.544497
	15.620000	-0.689548
	15.625000	-0.776579
	15.630000	-0.625081
	15.635000	-0.547720
	15.640000	-0.692771
	15.645000	-0.776579
	15.650000	-0.625081
	15.655000	-0.547720
	15.660000	-0.692771
	15.665000	-0.773355
	15.670000	-0.631528
	15.675000	-0.554167
	15.680000	-0.689548
	15.685000	-0.776579
	15.690000	-0.628304
	15.695000	-0.550944
	15.700000	-0.695995
	15.705000	-0.779802
	15.710000	-0.631528
	15.715000	-0.550944
	15.720000	-0.692771
	15.725000	-0.779802
	15.730000	-0.628304
	15.735000	-0.557390
	15.740000	-0.692771
	15.745000	-0.783025
	15.750000	-0.634751
	15.755000	-0.554167
	15.760000	-0.689548
	15.765000	-0.779802
	15.770000	-0.634751
	15.775000	-0.554167
	15.780000	-0.692771
	15.785000	-0.779802
	15.790000	-0.634751
	15.795000	-0.547720
	15.800000	-0.689548
	15.805000	-0.776579
	15.810000	-0.625081
	15.815000	-0.550944
	15.820000	-0.692771
	15.825000	-0.783025
	15.830000	-0.637974
	15.835000	-0.550944
	15.840000	-0.695995
	15.845000	-0.773355
	15.850000	-0.628304
	15.855000	-0.544497
	15.860000	-0.692771
	15.865000	-0.776579
	15.870000	-0.631528
	15.875000	-0.544497
	15.880000	-0.683101
	15.885000	-0.770132
	15.890000	-0.634751
	15.895000	-0.547720
	15.900000	-0.686325
	15.905000	-0.770132
	15.910000	-0.631528
	15.915000	-0.544497
	15.920000	-0.679878
	15.925000	-0.773355
	15.930000	-0.631528
	15.935000	-0.541274
	15.940000	-0.679878
	15.945000	-0.770132
	15.950000	-0.625081
	15.955000	-0.544497
	15.960000	-0.676655
	15.965000	-0.773355
	15.970000	-0.621858
	15.975000	-0.534827
	15.980000	-0.676655
	15.985000	-0.763685
	15.990000	-0.625081
	15.995000	-0.534827
	16.000000	-0.676655
	16.005000	-0.760462
	16.010000	-0.621858
	16.015000	-0.534827
	16.020000	-0.670208
	16.025000	-0.770132
	16.030000	-0.634751
	16.035000	-0.538050
	16.040000	-0.673431
	16.045000	-0.773355
	16.050000	-0.634751
	16.055000	-0.541274
	16.060000	-0.683101
	16.065000	-0.783025
	16.070000	-0.644421
	16.075000	-0.554167
	16.080000	-0.699218
	16.085000	-0.789472
	16.090000	-0.660538
	16.095000	-0.560614
	16.100000	-0.708888
	16.105000	-0.799142
	16.110000	-0.660538
	16.115000	-0.567060
	16.120000	-0.702441
	16.125000	-0.802366
	16.130000	-0.673431
	16.135000	-0.567060
	16.140000	-0.708888
	16.145000	-0.802366
	16.150000	-0.666985
	16.155000	-0.579954
	16.160000	-0.708888
	16.165000	-0.799142
	16.170000	-0.670208
	16.175000	-0.567060
	16.180000	-0.702441
	16.185000	-0.805589
	16.190000	-0.663761
	16.195000	-0.567060
	16.200000	-0.708888
	16.205000	-0.799142
	16.210000	-0.666985
	16.215000	-0.579954
	16.220000	-0.705665
	16.225000	-0.799142
	16.230000	-0.673431
	16.235000	-0.570284
	16.240000	-0.702441
	16.245000	-0.795919
	16.250000	-0.670208
	16.255000	-0.567060
	16.260000	-0.705665
	16.265000	-0.799142
	16.270000	-0.663761
	16.275000	-0.563837
	16.280000	-0.699218
	16.285000	-0.789472
	16.290000	-0.663761
	16.295000	-0.563837
	16.300000	-0.695995
	16.305000	-0.786249
	16.310000	-0.660538
	16.315000	-0.557390
	16.320000	-0.683101
	16.325000	-0.786249
	16.330000	-0.650868
	16.335000	-0.544497
	16.340000	-0.686325
	16.345000	-0.776579
	16.350000	-0.644421
	16.355000	-0.544497
	16.360000	-0.666985
	16.365000	-0.770132
	16.370000	-0.637974
	16.375000	-0.538050
	16.380000	-0.657314
	16.385000	-0.763685
	16.390000	-0.625081
	16.395000	-0.525157
	16.400000	-0.650868
	16.405000	-0.757239
	16.410000	-0.612187
	16.415000	-0.518710
	16.420000	-0.644421
	16.425000	-0.744345
	16.430000	-0.621858
	16.435000	-0.512263
	16.440000	-0.644421
	16.445000	-0.734675
	16.450000	-0.612187
	16.455000	-0.512263
	16.460000	-0.637974
	16.465000	-0.734675
	16.470000	-0.605741
	16.475000	-0.502593
	16.480000	-0.621858
	16.485000	-0.731452
	16.490000	-0.596071
	16.495000	-0.499370
	16.500000	-0.615411
	16.505000	-0.718558
	16.510000	-0.589624
	16.515000	-0.489700
	16.520000	-0.612187
	16.525000	-0.718558
	16.530000	-0.586401
	16.535000	-0.483253
	16.540000	-0.605741
	16.545000	-0.712112
	16.550000	-0.579954
	16.555000	-0.483253
	16.560000	-0.605741
	16.565000	-0.705665
	16.570000	-0.579954
	16.575000	-0.476806
	16.580000	-0.605741
	16.585000	-0.702441
	16.590000	-0.583177
	16.595000	-0.486476
	16.600000	-0.599294
	16.605000	-0.702441
	16.610000	-0.579954
	16.615000	-0.476806
	16.620000	-0.602517
	16.625000	-0.699218
	16.630000	-0.573507
	16.635000	-0.480030
	16.640000	-0.599294
	16.645000	-0.699218
	16.650000	-0.576730
	16.655000	-0.473583
	16.660000	-0.589624
	16.665000	-0.702441
	16.670000	-0.576730
	16.675000	-0.473583
	16.680000	-0.589624
	16.685000	-0.689548
	16.690000	-0.579954
	16.695000	-0.476806
	16.700000	-0.596071
	16.705000	-0.699218
	16.710000	-0.570284
	16.715000	-0.467136
	16.720000	-0.589624
	16.725000	-0.692771
	16.730000	-0.573507
	16.735000	-0.460690
	16.740000	-0.583177
	16.745000	-0.689548
	16.750000	-0.567060
	16.755000	-0.463913
	16.760000	-0.579954
	16.765000	-0.689548
	16.770000	-0.557390
	16.775000	-0.457466
	16.780000	-0.563837
	16.785000	-0.673431
	16.790000	-0.547720
	16.795000	-0.434903
	16.800000	-0.547720
	16.805000	-0.650868
	16.810000	-0.528380
	16.815000	-0.422009
	16.820000	-0.534827
	16.825000	-0.637974
	16.830000	-0.521933
	16.835000	-0.409116
	16.840000	-0.528380
	16.845000	-0.631528
	16.850000	-0.512263
	16.855000	-0.409116
	16.860000	-0.521933
	16.865000	-0.621858
	16.870000	-0.518710
	16.875000	-0.412339
	16.880000	-0.515487
	16.885000	-0.621858
	16.890000	-0.509040
	16.895000	-0.402669
	16.900000	-0.512263
	16.905000	-0.621858
	16.910000	-0.505817
	16.915000	-0.405892
	16.920000	-0.509040
	16.925000	-0.625081
	16.930000	-0.509040
	16.935000	-0.405892
	16.940000	-0.518710
	16.945000	-0.631528
	16.950000	-0.512263
	16.955000	-0.415563
	16.960000	-0.528380
	16.965000	-0.637974
	16.970000	-0.528380
	16.975000	-0.418786
	16.980000	-0.534827
	16.985000	-0.650868
	16.990000	-0.534827
	16.995000	-0.428456
	17.000000	-0.547720
	17.005000	-0.654091
	17.010000	-0.547720
	17.015000	-0.447796
	17.020000	-0.550944
	17.025000	-0.666985
	17.030000	-0.560614
	17.035000	-0.457466
	17.040000	-0.567060
	17.045000	-0.683101
	17.050000	-0.579954
	17.055000	-0.473583
	17.060000	-0.589624
	17.065000	-0.689548
	17.070000	-0.596071
	17.075000	-0.480030
	17.080000	-0.602517
	17.085000	-0.712112
	17.090000	-0.605741
	17.095000	-0.499370
	17.100000	-0.612187
	17.105000	-0.737898
	17.110000	-0.634751
	17.115000	-0.525157
	17.120000	-0.641198
	17.125000	-0.763685
	17.130000	-0.657314
	17.135000	-0.557390
	17.140000	-0.673431
	17.145000	-0.792696
	17.150000	-0.689548
	17.155000	-0.579954
	17.160000	-0.692771
	17.165000	-0.824929
	17.170000	-0.715335
	17.175000	-0.612187
	17.180000	-0.728228
	17.185000	-0.844269
	17.190000	-0.744345
	17.195000	-0.625081
	17.200000	-0.750792
	17.205000	-0.873280
	17.210000	-0.773355
	17.215000	-0.660538
	17.220000	-0.776579
	17.225000	-0.911960
	17.230000	-0.808812
	17.235000	-0.692771
	17.240000	-0.818482
	17.245000	-0.950640
	17.250000	-0.841046
	17.255000	-0.737898
	17.260000	-0.857163
	17.265000	-0.992544
	17.270000	-0.902290
	17.275000	-0.799142
	17.280000	-0.928077
	17.285000	-1.073128
	17.290000	-0.973204
	17.295000	-0.879726
	17.300000	-1.005437
	17.305000	-1.150488
	17.310000	-1.050564
	17.315000	-0.950640
	17.320000	-1.073128
	17.325000	-1.195615
	17.330000	-1.089245
	17.335000	-0.957087
	17.340000	-1.060234
	17.345000	-1.173052
	17.350000	-1.050564
	17.355000	-0.921630
	17.360000	-1.018331
	17.365000	-1.137595
	17.370000	-1.018331
	17.375000	-0.886173
	17.380000	-0.986097
	17.385000	-1.111808
	17.390000	-0.992544
	17.395000	-0.870056
	17.400000	-0.982874
	17.405000	-1.115031
	17.410000	-0.992544
	17.415000	-0.876503
	17.420000	-0.976427
	17.425000	-1.098915
	17.430000	-0.966757
	17.435000	-0.828152
	17.440000	-0.915183
	17.445000	-1.015107
	17.450000	-0.879726
	17.455000	-0.728228
	17.460000	-0.805589
	17.465000	-0.905513
	17.470000	-0.766909
	17.475000	-0.618634
	17.480000	-0.699218
	17.485000	-0.802366
	17.490000	-0.673431
	17.495000	-0.541274
	17.500000	-0.628304
	17.505000	-0.734675
	17.510000	-0.612187
	17.515000	-0.480030
	17.520000	-0.570284
	17.525000	-0.676655
	17.530000	-0.563837
	17.535000	-0.428456
	17.540000	-0.521933
	17.545000	-0.631528
	17.550000	-0.521933
	17.555000	-0.389776
	17.560000	-0.489700
	17.565000	-0.599294
	17.570000	-0.496147
	17.575000	-0.363989
	17.580000	-0.460690
	17.585000	-0.579954
	17.590000	-0.476806
	17.595000	-0.344649
	17.600000	-0.447796
	17.605000	-0.560614
	17.610000	-0.460690
	17.615000	-0.331755
	17.620000	-0.428456
	17.625000	-0.557390
	17.630000	-0.454243
	17.635000	-0.322085
	17.640000	-0.425233
	17.645000	-0.544497
	17.650000	-0.444573
	17.655000	-0.322085
	17.660000	-0.415563
	17.665000	-0.534827
	17.670000	-0.434903
	17.675000	-0.309192
	17.680000	-0.396222
	17.685000	-0.525157
	17.690000	-0.415563
	17.695000	-0.289852
	17.700000	-0.386552
	17.705000	-0.512263
	17.710000	-0.415563
	17.715000	-0.276958
	17.720000	-0.376882
	17.725000	-0.502593
	17.730000	-0.405892
	17.735000	-0.270511
	17.740000	-0.367212
	17.745000	-0.499370
	17.750000	-0.399446
	17.755000	-0.273735
	17.760000	-0.373659
	17.765000	-0.496147
	17.770000	-0.402669
	17.775000	-0.276958
	17.780000	-0.370436
	17.785000	-0.499370
	17.790000	-0.399446
	17.795000	-0.280181
	17.800000	-0.376882
	17.805000	-0.505817
	17.810000	-0.409116
	17.815000	-0.286628
	17.820000	-0.380106
	17.825000	-0.512263
	17.830000	-0.418786
	17.835000	-0.289852
	17.840000	-0.396222
	17.845000	-0.521933
	17.850000	-0.428456
	17.855000	-0.309192
	17.860000	-0.402669
	17.865000	-0.534827
	17.870000	-0.451019
	17.875000	-0.325308
	17.880000	-0.422009
	17.885000	-0.554167
	17.890000	-0.457466
	17.895000	-0.338202
	17.900000	-0.428456
	17.905000	-0.563837
	17.910000	-0.476806
	17.915000	-0.351095
	17.920000	-0.447796
	17.925000	-0.583177
	17.930000	-0.499370
	17.935000	-0.373659
	17.940000	-0.460690
	17.945000	-0.596071
	17.950000	-0.499370
	17.955000	-0.383329
	17.960000	-0.470360
	17.965000	-0.605741
	17.970000	-0.515487
	17.975000	-0.396222
	17.980000	-0.489700
	17.985000	-0.625081
	17.990000	-0.534827
	17.995000	-0.402669
	18.000000	-0.489700
	18.005000	-0.631528
	18.010000	-0.547720
	18.015000	-0.418786
	18.020000	-0.509040
	18.025000	-0.644421
	18.030000	-0.554167
	18.035000	-0.425233
	18.040000	-0.518710
	18.045000	-0.654091
	18.050000	-0.570284
	18.055000	-0.444573
	18.060000	-0.528380
	18.065000	-0.663761
	18.070000	-0.573507
	18.075000	-0.447796
	18.080000	-0.538050
	18.085000	-0.670208
	18.090000	-0.592847
	18.095000	-0.454243
	18.100000	-0.541274
	18.105000	-0.679878
	18.110000	-0.596071
	18.115000	-0.463913
	18.120000	-0.541274
	18.125000	-0.692771
	18.130000	-0.605741
	18.135000	-0.473583
	18.140000	-0.554167
	18.145000	-0.699218
	18.150000	-0.612187
	18.155000	-0.476806
	18.160000	-0.573507
	18.165000	-0.702441
	18.170000	-0.618634
	18.175000	-0.489700
	18.180000	-0.570284
	18.185000	-0.712112
	18.190000	-0.625081
	18.195000	-0.492923
	18.200000	-0.576730
	18.205000	-0.712112
	18.210000	-0.631528
	18.215000	-0.492923
	18.220000	-0.576730
	18.225000	-0.718558
	18.230000	-0.637974
	18.235000	-0.496147
	18.240000	-0.583177
	18.245000	-0.728228
	18.250000	-0.637974
	18.255000	-0.509040
	18.260000	-0.589624
	18.265000	-0.728228
	18.270000	-0.647644
	18.275000	-0.509040
	18.280000	-0.592847
	18.285000	-0.734675
	18.290000	-0.644421
	18.295000	-0.509040
	18.300000	-0.596071
	18.305000	-0.737898
	18.310000	-0.654091
	18.315000	-0.515487
	18.320000	-0.599294
	18.325000	-0.741122
	18.330000	-0.660538
	18.335000	-0.518710
	18.340000	-0.599294
	18.345000	-0.747569
	18.350000	-0.657314
	18.355000	-0.518710
	18.360000	-0.599294
	18.365000	-0.747569
	18.370000	-0.663761
	18.375000	-0.525157
	18.380000	-0.599294
	18.385000	-0.747569
	18.390000	-0.670208
	18.395000	-0.531603
	18.400000	-0.612187
	18.405000	-0.750792
	18.410000	-0.670208
	18.415000	-0.528380
	18.420000	-0.612187
	18.425000	-0.757239
	18.430000	-0.673431
	18.435000	-0.531603
	18.440000	-0.612187
	18.445000	-0.760462
	18.450000	-0.679878
	18.455000	-0.541274
	18.460000	-0.615411
	18.465000	-0.760462
	18.470000	-0.679878
	18.475000	-0.541274
	18.480000	-0.615411
	18.485000	-0.757239
	18.490000	-0.683101
	18.495000	-0.547720
	18.500000	-0.618634
	18.505000	-0.763685
	18.510000	-0.689548
	18.515000	-0.541274
	18.520000	-0.628304
	18.525000	-0.766909
	18.530000	-0.702441
	18.535000	-0.547720
	18.540000	-0.625081
	18.545000	-0.776579
	18.550000	-0.702441
	18.555000	-0.554167
	18.560000	-0.634751
	18.565000	-0.783025
	18.570000	-0.705665
	18.575000	-0.560614
	18.580000	-0.641198
	18.585000	-0.783025
	18.590000	-0.705665
	18.595000	-0.560614
	18.600000	-0.637974
	18.605000	-0.786249
	18.610000	-0.715335
	18.615000	-0.567060
	18.620000	-0.644421
	18.625000	-0.789472
	18.630000	-0.721782
	18.635000	-0.583177
	18.640000	-0.644421
	18.645000	-0.805589
	18.650000	-0.718558
	18.655000	-0.583177
	18.660000	-0.654091
	18.665000	-0.805589
	18.670000	-0.731452
	18.675000	-0.586401
	18.680000	-0.663761
	18.685000	-0.805589
	18.690000	-0.737898
	18.695000	-0.589624
	18.700000	-0.663761
	18.705000	-0.812036
	18.710000	-0.741122
	18.715000	-0.596071
	18.720000	-0.670208
	18.725000	-0.808812
	18.730000	-0.744345
	18.735000	-0.592847
	18.740000	-0.670208
	18.745000	-0.815259
	18.750000	-0.747569
	18.755000	-0.596071
	18.760000	-0.676655
	18.765000	-0.821706
	18.770000	-0.747569
	18.775000	-0.599294
	18.780000	-0.670208
	18.785000	-0.824929
	18.790000	-0.747569
	18.795000	-0.602517
	18.800000	-0.676655
	18.805000	-0.828152
	18.810000	-0.754015
	18.815000	-0.612187
	18.820000	-0.670208
	18.825000	-0.824929
	18.830000	-0.763685
	18.835000	-0.615411
	18.840000	-0.676655
	18.845000	-0.831376
	18.850000	-0.757239
	18.855000	-0.605741
	18.860000	-0.676655
	18.865000	-0.821706
	18.870000	-0.763685
	18.875000	-0.608964
	18.880000	-0.679878
	18.885000	-0.831376
	18.890000	-0.766909
	18.895000	-0.612187
	18.900000	-0.676655
	18.905000	-0.821706
	18.910000	-0.760462
	18.915000	-0.605741
	18.920000	-0.676655
	18.925000	-0.821706
	18.930000	-0.757239
	18.935000	-0.612187
	18.940000	-0.676655
	18.945000	-0.831376
	18.950000	-0.760462
	18.955000	-0.608964
	18.960000	-0.670208
	18.965000	-0.828152
	18.970000	-0.763685
	18.975000	-0.615411
	18.980000	-0.673431
	18.985000	-0.828152
	18.990000	-0.760462
	18.995000	-0.602517
	19.000000	-0.666985
	19.005000	-0.818482
	19.010000	-0.757239
	19.015000	-0.612187
	19.020000	-0.666985
	19.025000	-0.824929
	19.030000	-0.757239
	19.035000	-0.605741
	19.040000	-0.666985
	19.045000	-0.828152
	19.050000	-0.760462
	19.055000	-0.608964
	19.060000	-0.663761
	19.065000	-0.821706
	19.070000	-0.760462
	19.075000	-0.602517
	19.080000	-0.670208
	19.085000	-0.821706
	19.090000	-0.760462
	19.095000	-0.602517
	19.100000	-0.666985
	19.105000	-0.818482
	19.110000	-0.760462
	19.115000	-0.605741
	19.120000	-0.663761
	19.125000	-0.818482
	19.130000	-0.754015
	19.135000	-0.608964
	19.140000	-0.663761
	19.145000	-0.818482
	19.150000	-0.763685
	19.155000	-0.605741
	19.160000	-0.657314
	19.165000	-0.812036
	19.170000	-0.754015
	19.175000	-0.602517
	19.180000	-0.666985
	19.185000	-0.818482
	19.190000	-0.750792
	19.195000	-0.596071
	19.200000	-0.660538
	19.205000	-0.821706
	19.210000	-0.750792
	19.215000	-0.599294
	19.220000	-0.666985
	19.225000	-0.815259
	19.230000	-0.757239
	19.235000	-0.599294
	19.240000	-0.660538
	19.245000	-0.815259
	19.250000	-0.754015
	19.255000	-0.602517
	19.260000	-0.650868
	19.265000	-0.812036
	19.270000	-0.757239
	19.275000	-0.602517
	19.280000	-0.657314
	19.285000	-0.815259
	19.290000	-0.757239
	19.295000	-0.596071
	19.300000	-0.647644
	19.305000	-0.812036
	19.310000	-0.760462
	19.315000	-0.599294
	19.320000	-0.650868
	19.325000	-0.805589
	19.330000	-0.757239
	19.335000	-0.596071
	19.340000	-0.647644
	19.345000	-0.799142
	19.350000	-0.754015
	19.355000	-0.596071
	19.360000	-0.641198
	19.365000	-0.799142
	19.370000	-0.754015
	19.375000	-0.592847
	19.380000	-0.644421
	19.385000	-0.802366
	19.390000	-0.747569
	19.395000	-0.592847
	19.400000	-0.644421
	19.405000	-0.802366
	19.410000	-0.750792
	19.415000	-0.592847
	19.420000	-0.637974
	19.425000	-0.799142
	19.430000	-0.750792
	19.435000	-0.589624
	19.440000	-0.644421
	19.445000	-0.792696
	19.450000	-0.757239
	19.455000	-0.589624
	19.460000	-0.644421
	19.465000	-0.802366
	19.470000	-0.757239
	19.475000	-0.589624
	19.480000	-0.644421
	19.485000	-0.795919
	19.490000	-0.757239
	19.495000	-0.592847
	19.500000	-0.650868
	19.505000	-0.805589
	19.510000	-0.757239
	19.515000	-0.602517
	19.520000	-0.644421
	19.525000	-0.805589
	19.530000	-0.757239
	19.535000	-0.596071
	19.540000	-0.647644
	19.545000	-0.805589
	19.550000	-0.757239
	19.555000	-0.592847
	19.560000	-0.644421
	19.565000	-0.812036
	19.570000	-0.757239
	19.575000	-0.602517
	19.580000	-0.650868
	19.585000	-0.805589
	19.590000	-0.760462
	19.595000	-0.596071
	19.600000	-0.644421
	19.605000	-0.805589
	19.610000	-0.760462
	19.615000	-0.599294
	19.620000	-0.644421
	19.625000	-0.808812
	19.630000	-0.760462
	19.635000	-0.605741
	19.640000	-0.654091
	19.645000	-0.805589
	19.650000	-0.766909
	19.655000	-0.602517
	19.660000	-0.657314
	19.665000	-0.812036
	19.670000	-0.773355
	19.675000	-0.612187
	19.680000	-0.647644
	19.685000	-0.812036
	19.690000	-0.770132
	19.695000	-0.608964
	19.700000	-0.654091
	19.705000	-0.818482
	19.710000	-0.773355
	19.715000	-0.608964
	19.720000	-0.660538
	19.725000	-0.818482
	19.730000	-0.776579
	19.735000	-0.618634
	19.740000	-0.657314
	19.745000	-0.812036
	19.750000	-0.773355
	19.755000	-0.618634
	19.760000	-0.647644
	19.765000	-0.821706
	19.770000	-0.776579
	19.775000	-0.615411
	19.780000	-0.657314
	19.785000	-0.818482
	19.790000	-0.783025
	19.795000	-0.621858
	19.800000	-0.666985
	19.805000	-0.821706
	19.810000	-0.773355
	19.815000	-0.625081
	19.820000	-0.657314
	19.825000	-0.818482
	19.830000	-0.786249
	19.835000	-0.621858
	19.840000	-0.657314
	19.845000	-0.824929
	19.850000	-0.783025
	19.855000	-0.625081
	19.860000	-0.660538
	19.865000	-0.821706
	19.870000	-0.789472
	19.875000	-0.625081
	19.880000	-0.663761
	19.885000	-0.821706
	19.890000	-0.786249
	19.895000	-0.628304
	19.900000	-0.660538
	19.905000	-0.818482
	19.910000	-0.786249
	19.915000	-0.621858
	19.920000	-0.657314
	19.925000	-0.818482
	19.930000	-0.786249
	19.935000	-0.628304
	19.940000	-0.660538
	19.945000	-0.818482
	19.950000	-0.786249
	19.955000	-0.634751
	19.960000	-0.666985
	19.965000	-0.821706
	19.970000	-0.786249
	19.975000	-0.621858
	19.980000	-0.657314
	19.985000	-0.828152
	19.990000	-0.789472
	19.995000	-0.628304
	20.000000	-0.660538
	20.005000	-0.828152
	20.010000	-0.789472
	20.015000	-0.631528
	20.020000	-0.660538
	20.025000	-0.824929
	20.030000	-0.789472
	20.035000	-0.631528
	20.040000	-0.663761
	20.045000	-0.821706
	20.050000	-0.792696
	20.055000	-0.625081
	20.060000	-0.650868
	20.065000	-0.818482
	20.070000	-0.792696
	20.075000	-0.634751
	20.080000	-0.660538
	20.085000	-0.824929
	20.090000	-0.786249
	20.095000	-0.628304
	20.100000	-0.660538
	20.105000	-0.831376
	20.110000	-0.792696
	20.115000	-0.625081
	20.120000	-0.650868
	20.125000	-0.824929
	20.130000	-0.795919
	20.135000	-0.631528
	20.140000	-0.657314
	20.145000	-0.818482
	20.150000	-0.799142
	20.155000	-0.628304
	20.160000	-0.663761
	20.165000	-0.821706
	20.170000	-0.792696
	20.175000	-0.634751
	20.180000	-0.663761
	20.185000	-0.828152
	20.190000	-0.795919
	20.195000	-0.634751
	20.200000	-0.663761
	20.205000	-0.824929
	20.210000	-0.802366
	20.215000	-0.634751
	20.220000	-0.660538
	20.225000	-0.831376
	20.230000	-0.805589
	20.235000	-0.641198
	20.240000	-0.663761
	20.245000	-0.834599
	20.250000	-0.805589
	20.255000	-0.641198
	20.260000	-0.663761
	20.265000	-0.828152
	20.270000	-0.805589
	20.275000	-0.637974
	20.280000	-0.663761
	20.285000	-0.837823
	20.290000	-0.805589
	20.295000	-0.637974
	20.300000	-0.663761
	20.305000	-0.837823
	20.310000	-0.805589
	20.315000	-0.634751
	20.320000	-0.673431
	20.325000	-0.831376
	20.330000	-0.808812
	20.335000	-0.641198
	20.340000	-0.666985
	20.345000	-0.834599
	20.350000	-0.802366
	20.355000	-0.637974
	20.360000	-0.663761
	20.365000	-0.831376
	20.370000	-0.812036
	20.375000	-0.644421
	20.380000	-0.666985
	20.385000	-0.824929
	20.390000	-0.808812
	20.395000	-0.644421
	20.400000	-0.663761
	20.405000	-0.831376
	20.410000	-0.808812
	20.415000	-0.637974
	20.420000	-0.663761
	20.425000	-0.834599
	20.430000	-0.812036
	20.435000	-0.647644
	20.440000	-0.666985
	20.445000	-0.831376
	20.450000	-0.812036
	20.455000	-0.644421
	20.460000	-0.663761
	20.465000	-0.828152
	20.470000	-0.815259
	20.475000	-0.641198
	20.480000	-0.660538
	20.485000	-0.831376
	20.490000	-0.812036
	20.495000	-0.644421
	20.500000	-0.670208
	20.505000	-0.837823
	20.510000	-0.818482
	20.515000	-0.650868
	20.520000	-0.666985
	20.525000	-0.831376
	20.530000	-0.812036
	20.535000	-0.644421
	20.540000	-0.663761
	20.545000	-0.831376
	20.550000	-0.818482
	20.555000	-0.650868
	20.560000	-0.660538
	20.565000	-0.831376
	20.570000	-0.815259
	20.575000	-0.647644
	20.580000	-0.660538
	20.585000	-0.834599
	20.590000	-0.828152
	20.595000	-0.650868
	20.600000	-0.670208
	20.605000	-0.831376
	20.610000	-0.818482
	20.615000	-0.644421
	20.620000	-0.663761
	20.625000	-0.828152
	20.630000	-0.808812
	20.635000	-0.650868
	20.640000	-0.663761
	20.645000	-0.824929
	20.650000	-0.821706
	20.655000	-0.647644
	20.660000	-0.654091
	20.665000	-0.824929
	20.670000	-0.821706
	20.675000	-0.650868
	20.680000	-0.660538
	20.685000	-0.834599
	20.690000	-0.818482
	20.695000	-0.657314
	20.700000	-0.663761
	20.705000	-0.828152
	20.710000	-0.824929
	20.715000	-0.650868
	20.720000	-0.660538
	20.725000	-0.824929
	20.730000	-0.824929
	20.735000	-0.657314
	20.740000	-0.654091
	20.745000	-0.831376
	20.750000	-0.818482
	20.755000	-0.654091
	20.760000	-0.663761
	20.765000	-0.831376
	20.770000	-0.821706
	20.775000	-0.660538
	20.780000	-0.666985
	20.785000	-0.837823
	20.790000	-0.815259
	20.795000	-0.657314
	20.800000	-0.666985
	20.805000	-0.831376
	20.810000	-0.824929
	20.815000	-0.663761
	20.820000	-0.663761
	20.825000	-0.834599
	20.830000	-0.824929
	20.835000	-0.657314
	20.840000	-0.663761
	20.845000	-0.831376
	20.850000	-0.828152
	20.855000	-0.657314
	20.860000	-0.666985
	20.865000	-0.834599
	20.870000	-0.831376
	20.875000	-0.670208
	20.880000	-0.666985
	20.885000	-0.841046
	20.890000	-0.831376
	20.895000	-0.666985
	20.900000	-0.663761
	20.905000	-0.837823
	20.910000	-0.831376
	20.915000	-0.670208
	20.920000	-0.670208
	20.925000	-0.844269
	20.930000	-0.837823
	20.935000	-0.673431
	20.940000	-0.670208
	20.945000	-0.841046
	20.950000	-0.844269
	20.955000	-0.673431
	20.960000	-0.676655
	20.965000	-0.847493
	20.970000	-0.841046
	20.975000	-0.673431
	20.980000	-0.676655
	20.985000	-0.850716
	20.990000	-0.847493
	20.995000	-0.679878
	21.000000	-0.679878
	21.005000	-0.844269
	21.010000	-0.847493
	21.015000	-0.673431
	21.020000	-0.679878
	21.025000	-0.850716
	21.030000	-0.847493
	21.035000	-0.679878
	21.040000	-0.679878
	21.045000	-0.853939
	21.050000	-0.850716
	21.055000	-0.683101
	21.060000	-0.683101
	21.065000	-0.853939
	21.070000	-0.853939
	21.075000	-0.683101
	21.080000	-0.683101
	21.085000	-0.850716
	21.090000	-0.850716
	21.095000	-0.676655
	21.100000	-0.683101
	21.105000	-0.850716
	21.110000	-0.860386
	21.115000	-0.686325
	21.120000	-0.676655
	21.125000	-0.850716
	21.130000	-0.853939
	21.135000	-0.686325
	21.140000	-0.676655
	21.145000	-0.857163
	21.150000	-0.850716
	21.155000	-0.692771
	21.160000	-0.689548
	21.165000	-0.850716
	21.170000	-0.857163
	21.175000	-0.695995
	21.180000	-0.686325
	21.185000	-0.863609
	21.190000	-0.866833
	21.195000	-0.692771
	21.200000	-0.683101
	21.205000	-0.853939
	21.210000	-0.863609
	21.215000	-0.689548
	21.220000	-0.692771
	21.225000	-0.853939
	21.230000	-0.850716
	21.235000	-0.689548
	21.240000	-0.676655
	21.245000	-0.850716
	21.250000	-0.863609
	21.255000	-0.695995
	21.260000	-0.679878
	21.265000	-0.857163
	21.270000	-0.863609
	21.275000	-0.692771
	21.280000	-0.689548
	21.285000	-0.853939
	21.290000	-0.860386
	21.295000	-0.699218
	21.300000	-0.683101
	21.305000	-0.860386
	21.310000	-0.860386
	21.315000	-0.695995
	21.320000	-0.683101
	21.325000	-0.850716
	21.330000	-0.863609
	21.335000	-0.692771
	21.340000	-0.692771
	21.345000	-0.860386
	21.350000	-0.863609
	21.355000	-0.695995
	21.360000	-0.679878
	21.365000	-0.857163
	21.370000	-0.866833
	21.375000	-0.692771
	21.380000	-0.683101
	21.385000	-0.853939
	21.390000	-0.866833
	21.395000	-0.692771
	21.400000	-0.686325
	21.405000	-0.860386
	21.410000	-0.863609
	21.415000	-0.702441
	21.420000	-0.679878
	21.425000	-0.860386
	21.430000	-0.866833
	21.435000	-0.702441
	21.440000	-0.679878
	21.445000	-0.857163
	21.450000	-0.870056
	21.455000	-0.699218
	21.460000	-0.686325
	21.465000	-0.863609
	21.470000	-0.870056
	21.475000	-0.702441
	21.480000	-0.689548
	21.485000	-0.853939
	21.490000	-0.866833
	21.495000	-0.699218
	21.500000	-0.683101
	21.505000	-0.850716
	21.510000	-0.860386
	21.515000	-0.702441
	21.520000	-0.679878
	21.525000	-0.850716
	21.530000	-0.866833
	21.535000	-0.695995
	21.540000	-0.679878
	21.545000	-0.850716
	21.550000	-0.866833
	21.555000	-0.692771
	21.560000	-0.676655
	21.565000	-0.850716
	21.570000	-0.863609
	21.575000	-0.692771
	21.580000	-0.683101
	21.585000	-0.850716
	21.590000	-0.870056
	21.595000	-0.699218
	21.600000	-0.679878
	21.605000	-0.850716
	21.610000	-0.866833
	21.615000	-0.705665
	21.620000	-0.683101
	21.625000	-0.853939
	21.630000	-0.876503
	21.635000	-0.705665
	21.640000	-0.686325
	21.645000	-0.850716
	21.650000	-0.870056
	21.655000	-0.708888
	21.660000	-0.686325
	21.665000	-0.863609
	21.670000	-0.879726
	21.675000	-0.705665
	21.680000	-0.695995
	21.685000	-0.857163
	21.690000	-0.879726
	21.695000	-0.715335
	21.700000	-0.699218
	21.705000	-0.853939
	21.710000	-0.886173
	21.715000	-0.718558
	21.720000	-0.695995
	21.725000	-0.870056
	21.730000	-0.886173
	21.735000	-0.718558
	21.740000	-0.695995
	21.745000	-0.860386
	21.750000	-0.882950
	21.755000	-0.725005
	21.760000	-0.702441
	21.765000	-0.866833
	21.770000	-0.886173
	21.775000	-0.718558
	21.780000	-0.702441
	21.785000	-0.863609
	21.790000	-0.892620
	21.795000	-0.721782
	21.800000	-0.695995
	21.805000	-0.866833
	21.810000	-0.892620
	21.815000	-0.718558
	21.820000	-0.702441
	21.825000	-0.863609
	21.830000	-0.886173
	21.835000	-0.728228
	21.840000	-0.699218
	21.845000	-0.863609
	21.850000	-0.892620
	21.855000	-0.718558
	21.860000	-0.695995
	21.865000	-0.866833
	21.870000	-0.889396
	21.875000	-0.728228
	21.880000	-0.695995
	21.885000	-0.860386
	21.890000	-0.889396
	21.895000	-0.718558
	21.900000	-0.695995
	21.905000	-0.863609
	21.910000	-0.892620
	21.915000	-0.728228
	21.920000	-0.699218
	21.925000	-0.873280
	21.930000	-0.892620
	21.935000	-0.725005
	21.940000	-0.705665
	21.945000	-0.863609
	21.950000	-0.895843
	21.955000	-0.728228
	21.960000	-0.705665
	21.965000	-0.870056
	21.970000	-0.892620
	21.975000	-0.741122
	21.980000	-0.705665
	21.985000	-0.876503
	21.990000	-0.895843
	21.995000	-0.737898
	22.000000	-0.708888
	22.005000	-0.876503
	22.010000	-0.905513
	22.015000	-0.737898
	22.020000	-0.712112
	22.025000	-0.876503
	22.030000	-0.908736
	22.035000	-0.747569
	22.040000	-0.708888
	22.045000	-0.879726
	22.050000	-0.911960
	22.055000	-0.744345
	22.060000	-0.718558
	22.065000	-0.882950
	22.070000	-0.911960
	22.075000	-0.744345
	22.080000	-0.718558
	22.085000	-0.873280
	22.090000	-0.915183
	22.095000	-0.754015
	22.100000	-0.715335
	22.105000	-0.882950
	22.110000	-0.911960
	22.115000	-0.750792
	22.120000	-0.718558
	22.125000	-0.879726
	22.130000	-0.911960
	22.135000	-0.757239
	22.140000	-0.712112
	22.145000	-0.879726
	22.150000	-0.908736
	22.155000	-0.747569
	22.160000	-0.715335
	22.165000	-0.876503
	22.170000	-0.908736
	22.175000	-0.747569
	22.180000	-0.708888
	22.185000	-0.873280
	22.190000	-0.915183
	22.195000	-0.741122
	22.200000	-0.718558
	22.205000	-0.876503
	22.210000	-0.921630
	22.215000	-0.754015
	22.220000	-0.712112
	22.225000	-0.873280
	22.230000	-0.905513
	22.235000	-0.754015
	22.240000	-0.702441
	22.245000	-0.879726
	22.250000	-0.915183
	22.255000	-0.754015
	22.260000	-0.721782
	22.265000	-0.882950
	22.270000	-0.915183
	22.275000	-0.757239
	22.280000	-0.715335
	22.285000	-0.886173
	22.290000	-0.921630
	22.295000	-0.754015
	22.300000	-0.721782
	22.305000	-0.886173
	22.310000	-0.921630
	22.315000	-0.757239
	22.320000	-0.715335
	22.325000	-0.886173
	22.330000	-0.928077
	22.335000	-0.763685
	22.340000	-0.725005
	22.345000	-0.892620
	22.350000	-0.937747
	22.355000	-0.766909
	22.360000	-0.731452
	22.365000	-0.895843
	22.370000	-0.934523
	22.375000	-0.773355
	22.380000	-0.737898
	22.385000	-0.902290
	22.390000	-0.940970
	22.395000	-0.786249
	22.400000	-0.747569
	22.405000	-0.908736
	22.410000	-0.950640
	22.415000	-0.795919
	22.420000	-0.757239
	22.425000	-0.915183
	22.430000	-0.957087
	22.435000	-0.789472
	22.440000	-0.750792
	22.445000	-0.915183
	22.450000	-0.966757
	22.455000	-0.802366
	22.460000	-0.750792
	22.465000	-0.921630
	22.470000	-0.963534
	22.475000	-0.802366
	22.480000	-0.750792
	22.485000	-0.915183
	22.490000	-0.960310
	22.495000	-0.799142
	22.500000	-0.757239
	22.505000	-0.915183
	22.510000	-0.957087
	22.515000	-0.795919
	22.520000	-0.754015
	22.525000	-0.915183
	22.530000	-0.953863
	22.535000	-0.789472
	22.540000	-0.741122
	22.545000	-0.902290
	22.550000	-0.947417
	22.555000	-0.789472
	22.560000	-0.737898
	22.565000	-0.892620
	22.570000	-0.940970
	22.575000	-0.773355
	22.580000	-0.731452
	22.585000	-0.882950
	22.590000	-0.924853
	22.595000	-0.773355
	22.600000	-0.715335
	22.605000	-0.876503
	22.610000	-0.918407
	22.615000	-0.750792
	22.620000	-0.702441
	22.625000	-0.863609
	22.630000	-0.918407
	22.635000	-0.744345
	22.640000	-0.695995
	22.645000	-0.853939
	22.650000	-0.908736
	22.655000	-0.744345
	22.660000	-0.686325
	22.665000	-0.853939
	22.670000	-0.889396
	22.675000	-0.725005
	22.680000	-0.679878
	22.685000	-0.834599
	22.690000	-0.882950
	22.695000	-0.718558
	22.700000	-0.666985
	22.705000	-0.831376
	22.710000	-0.873280
	22.715000	-0.708888
	22.720000	-0.657314
	22.725000	-0.808812
	22.730000	-0.857163
	22.735000	-0.695995
	22.740000	-0.647644
	22.745000	-0.799142
	22.750000	-0.844269
	22.755000	-0.689548
	22.760000	-0.641198
	22.765000	-0.792696
	22.770000	-0.837823
	22.775000	-0.679878
	22.780000	-0.621858
	22.785000	-0.773355
	22.790000	-0.828152
	22.795000	-0.670208
	22.800000	-0.618634
	22.805000	-0.770132
	22.810000	-0.821706
	22.815000	-0.666985
	22.820000	-0.605741
	22.825000	-0.770132
	22.830000	-0.812036
	22.835000	-0.654091
	22.840000	-0.602517
	22.845000	-0.754015
	22.850000	-0.808812
	22.855000	-0.650868
	22.860000	-0.596071
	22.865000	-0.757239
	22.870000	-0.802366
	22.875000	-0.644421
	22.880000	-0.583177
	22.885000	-0.737898
	22.890000	-0.786249
	22.895000	-0.634751
	22.900000	-0.586401
	22.905000	-0.737898
	22.910000	-0.792696
	22.915000	-0.631528
	22.920000	-0.589624
	22.925000	-0.734675
	22.930000	-0.789472
	22.935000	-0.634751
	22.940000	-0.583177
	22.945000	-0.731452
	22.950000	-0.786249
	22.955000	-0.641198
	22.960000	-0.583177
	22.965000	-0.734675
	22.970000	-0.783025
	22.975000	-0.637974
	22.980000	-0.586401
	22.985000	-0.728228
	22.990000	-0.779802
	22.995000	-0.641198
	23.000000	-0.576730
	23.005000	-0.725005
	23.010000	-0.786249
	23.015000	-0.631528
	23.020000	-0.576730
	23.025000	-0.731452
	23.030000	-0.783025
	23.035000	-0.637974
	23.040000	-0.579954
	23.045000	-0.728228
	23.050000	-0.779802
	23.055000	-0.631528
	23.060000	-0.576730
	23.065000	-0.725005
	23.070000	-0.779802
	23.075000	-0.641198
	23.080000	-0.576730
	23.085000	-0.718558
	23.090000	-0.779802
	23.095000	-0.631528
	23.100000	-0.570284
	23.105000	-0.715335
	23.110000	-0.773355
	23.115000	-0.631528
	23.120000	-0.557390
	23.125000	-0.708888
	23.130000	-0.776579
	23.135000	-0.618634
	23.140000	-0.560614
	23.145000	-0.705665
	23.150000	-0.766909
	23.155000	-0.618634
	23.160000	-0.557390
	23.165000	-0.699218
	23.170000	-0.763685
	23.175000	-0.612187
	23.180000	-0.550944
	23.185000	-0.699218
	23.190000	-0.754015
	23.195000	-0.612187
	23.200000	-0.547720
	23.205000	-0.695995
	23.210000	-0.750792
	23.215000	-0.605741
	23.220000	-0.541274
	23.225000	-0.683101
	23.230000	-0.747569
	23.235000	-0.602517
	23.240000	-0.541274
	23.245000	-0.686325
	23.250000	-0.741122
	23.255000	-0.602517
	23.260000	-0.541274
	23.265000	-0.676655
	23.270000	-0.744345
	23.275000	-0.592847
	23.280000	-0.531603
	23.285000	-0.679878
	23.290000	-0.741122
	23.295000	-0.599294
	23.300000	-0.534827
	23.305000	-0.676655
	23.310000	-0.737898
	23.315000	-0.602517
	23.320000	-0.538050
	23.325000	-0.683101
	23.330000	-0.747569
	23.335000	-0.605741
	23.340000	-0.554167
	23.345000	-0.695995
	23.350000	-0.757239
	23.355000	-0.618634
	23.360000	-0.560614
	23.365000	-0.702441
	23.370000	-0.773355
	23.375000	-0.634751
	23.380000	-0.570284
	23.385000	-0.718558
	23.390000	-0.786249
	23.395000	-0.650868
	23.400000	-0.579954
	23.405000	-0.728228
	23.410000	-0.789472
	23.415000	-0.654091
	23.420000	-0.596071
	23.425000	-0.728228
	23.430000	-0.799142
	23.435000	-0.663761
	23.440000	-0.596071
	23.445000	-0.747569
	23.450000	-0.805589
	23.455000	-0.673431
	23.460000	-0.618634
	23.465000	-0.763685
	23.470000	-0.841046
	23.475000	-0.712112
	23.480000	-0.637974
	23.485000	-0.792696
	23.490000	-0.870056
	23.495000	-0.741122
	23.500000	-0.683101
	23.505000	-0.834599
	23.510000	-0.915183
	23.515000	-0.786249
	23.520000	-0.734675
	23.525000	-0.895843
	23.530000	-0.992544
	23.535000	-0.882950
	23.540000	-0.844269
	23.545000	-1.021554
	23.550000	-1.127925
	23.555000	-1.015107
	23.560000	-0.982874
	23.565000	-1.166605
	23.570000	-1.279423
	23.575000	-1.147265
	23.580000	-1.086021
	23.585000	-1.234296
	23.590000	-1.298763
	23.595000	-1.137595
	23.600000	-1.037671
	23.605000	-1.160158
	23.610000	-1.205285
	23.615000	-1.031224
	23.620000	-0.928077
	23.625000	-1.031224
	23.630000	-1.079574
	23.635000	-0.902290
	23.640000	-0.812036
	23.645000	-0.934523
	23.650000	-0.995767
	23.655000	-0.837823
	23.660000	-0.747569
	23.665000	-0.886173
	23.670000	-0.960310
	23.675000	-0.805589
	23.680000	-0.728228
	23.685000	-0.876503
	23.690000	-0.960310
	23.695000	-0.824929
	23.700000	-0.744345
	23.705000	-0.895843
	23.710000	-0.973204
	23.715000	-0.834599
	23.720000	-0.757239
	23.725000	-0.902290
	23.730000	-0.973204
	23.735000	-0.812036
	23.740000	-0.728228
	23.745000	-0.847493
	23.750000	-0.902290
	23.755000	-0.728228
	23.760000	-0.625081
	23.765000	-0.737898
	23.770000	-0.792696
	23.775000	-0.615411
	23.780000	-0.525157
	23.785000	-0.641198
	23.790000	-0.708888
	23.795000	-0.563837
	23.800000	-0.473583
	23.805000	-0.602517
	23.810000	-0.679878
	23.815000	-0.528380
	23.820000	-0.444573
	23.825000	-0.573507
	23.830000	-0.657314
	23.835000	-0.518710
	23.840000	-0.431679
	23.845000	-0.567060
	23.850000	-0.647644
	23.855000	-0.509040
	23.860000	-0.422009
	23.865000	-0.560614
	23.870000	-0.644421
	23.875000	-0.499370
	23.880000	-0.415563
	23.885000	-0.560614
	23.890000	-0.634751
	23.895000	-0.505817
	23.900000	-0.415563
	23.905000	-0.554167
	23.910000	-0.634751
	23.915000	-0.496147
	23.920000	-0.415563
	23.925000	-0.544497
	23.930000	-0.625081
	23.935000	-0.496147
	23.940000	-0.412339
	23.945000	-0.534827
	23.950000	-0.621858
	23.955000	-0.480030
	23.960000	-0.396222
	23.965000	-0.525157
	23.970000	-0.605741
	23.975000	-0.467136
	23.980000	-0.380106
	23.985000	-0.509040
	23.990000	-0.596071
	23.995000	-0.463913
	24.000000	-0.370436
	24.005000	-0.499370
	24.010000	-0.573507
	24.015000	-0.431679
	24.020000	-0.351095
	24.025000	-0.467136
	24.030000	-0.541274
	24.035000	-0.402669
	24.040000	-0.302745
	24.045000	-0.425233
	24.050000	-0.505817
	24.055000	-0.370436
	24.060000	-0.286628
	24.065000	-0.405892
	24.070000	-0.489700
	24.075000	-0.360765
	24.080000	-0.264065
	24.085000	-0.392999
	24.090000	-0.483253
	24.095000	-0.341425
	24.100000	-0.257618
	24.105000	-0.386552
	24.110000	-0.463913
	24.115000	-0.341425
	24.120000	-0.247948
	24.125000	-0.373659
	24.130000	-0.463913
	24.135000	-0.338202
	24.140000	-0.254395
	24.145000	-0.370436
	24.150000	-0.467136
	24.155000	-0.338202
	24.160000	-0.251171
	24.165000	-0.380106
	24.170000	-0.467136
	24.175000	-0.354319
	24.180000	-0.260841
	24.185000	-0.386552
	24.190000	-0.476806
	24.195000	-0.357542
	24.200000	-0.270511
	24.205000	-0.402669
	24.210000	-0.492923
	24.215000	-0.367212
	24.220000	-0.286628
	24.225000	-0.422009
	24.230000	-0.512263
	24.235000	-0.386552
	24.240000	-0.302745
	24.245000	-0.438126
	24.250000	-0.534827
	24.255000	-0.402669
	24.260000	-0.322085
	24.265000	-0.451019
	24.270000	-0.547720
	24.275000	-0.428456
	24.280000	-0.341425
	24.285000	-0.473583
	24.290000	-0.570284
	24.295000	-0.447796
	24.300000	-0.363989
	24.305000	-0.486476
	24.310000	-0.589624
	24.315000	-0.470360
	24.320000	-0.376882
	24.325000	-0.509040
	24.330000	-0.599294
	24.335000	-0.486476
	24.340000	-0.396222
	24.345000	-0.525157
	24.350000	-0.625081
	24.355000	-0.492923
	24.360000	-0.402669
	24.365000	-0.534827
	24.370000	-0.634751
	24.375000	-0.515487
	24.380000	-0.422009
	24.385000	-0.550944
	24.390000	-0.650868
	24.395000	-0.531603
	24.400000	-0.431679
	24.405000	-0.567060
	24.410000	-0.660538
	24.415000	-0.534827
	24.420000	-0.454243
	24.425000	-0.573507
	24.430000	-0.676655
	24.435000	-0.554167
	24.440000	-0.457466
	24.445000	-0.592847
	24.450000	-0.689548
	24.455000	-0.563837
	24.460000	-0.470360
	24.465000	-0.599294
	24.470000	-0.699218
	24.475000	-0.573507
	24.480000	-0.483253
	24.485000	-0.605741
	24.490000	-0.708888
	24.495000	-0.586401
	24.500000	-0.499370
	24.505000	-0.615411
	24.510000	-0.718558
	24.515000	-0.599294
	24.520000	-0.509040
	24.525000	-0.628304
	24.530000	-0.731452
	24.535000	-0.618634
	24.540000	-0.518710
	24.545000	-0.641198
	24.550000	-0.747569
	24.555000	-0.618634
	24.560000	-0.525157
	24.565000	-0.647644
	24.570000	-0.757239
	24.575000	-0.631528
	24.580000	-0.531603
	24.585000	-0.660538
	24.590000	-0.763685
	24.595000	-0.654091
	24.600000	-0.554167
	24.605000	-0.679878
	24.610000	-0.779802
	24.615000	-0.657314
	24.620000	-0.563837
	24.625000	-0.679878
	24.630000	-0.792696
	24.635000	-0.670208
	24.640000	-0.576730
	24.645000	-0.695995
	24.650000	-0.799142
	24.655000	-0.683101
	24.660000	-0.586401
	24.665000	-0.712112
	24.670000	-0.818482
	24.675000	-0.692771
	24.680000	-0.592847
	24.685000	-0.715335
	24.690000	-0.821706
	24.695000	-0.699218
	24.700000	-0.602517
	24.705000	-0.721782
	24.710000	-0.834599
	24.715000	-0.708888
	24.720000	-0.608964
	24.725000	-0.731452
	24.730000	-0.837823
	24.735000	-0.715335
	24.740000	-0.621858
	24.745000	-0.734675
	24.750000	-0.847493
	24.755000	-0.731452
	24.760000	-0.625081
	24.765000	-0.741122
	24.770000	-0.853939
	24.775000	-0.734675
	24.780000	-0.631528
	24.785000	-0.747569
	24.790000	-0.860386
	24.795000	-0.734675
	24.800000	-0.637974
	24.805000	-0.757239
	24.810000	-0.857163
	24.815000	-0.744345
	24.820000	-0.634751
	24.825000	-0.750792
	24.830000	-0.863609
	24.835000	-0.750792
	24.840000	-0.637974
	24.845000	-0.754015
	24.850000	-0.866833
	24.855000	-0.757239
	24.860000	-0.647644
	24.865000	-0.760462
	24.870000	-0.870056
	24.875000	-0.750792
	24.880000	-0.650868
	24.885000	-0.770132
	24.890000	-0.882950
	24.895000	-0.757239
	24.900000	-0.657314
	24.905000	-0.766909
	24.910000	-0.876503
	24.915000	-0.763685
	24.920000	-0.654091
	24.925000	-0.773355
	24.930000	-0.876503
	24.935000	-0.766909
	24.940000	-0.654091
	24.945000	-0.773355
	24.950000	-0.879726
	24.955000	-0.779802
	24.960000	-0.660538
	24.965000	-0.770132
	24.970000	-0.889396
	24.975000	-0.773355
	24.980000	-0.663761
	24.985000	-0.776579
	24.990000	-0.879726
	24.995000	-0.766909
	25.000000	-0.663761
	25.005000	-0.776579
	25.010000	-0.889396
	25.015000	-0.779802
	25.020000	-0.666985
	25.025000	-0.773355
	25.030000	-0.889396
	25.035000	-0.783025
	25.040000	-0.670208
	25.045000	-0.779802
	25.050000	-0.892620
	25.055000	-0.776579
	25.060000	-0.663761
	25.065000	-0.779802
	25.070000	-0.899066
	25.075000	-0.792696
	25.080000	-0.670208
	25.085000	-0.786249
	25.090000	-0.895843
	25.095000	-0.783025
	25.100000	-0.676655
	25.105000	-0.786249
	25.110000	-0.895843
	25.115000	-0.792696
	25.120000	-0.676655
	25.125000	-0.795919
	25.130000	-0.902290
	25.135000	-0.789472
	25.140000	-0.686325
	25.145000	-0.792696
	25.150000	-0.905513
	25.155000	-0.799142
	25.160000	-0.683101
	25.165000	-0.792696
	25.170000	-0.915183
	25.175000	-0.799142
	25.180000	-0.683101
	25.185000	-0.795919
	25.190000	-0.918407
	25.195000	-0.805589
	25.200000	-0.689548
	25.205000	-0.795919
	25.210000	-0.918407
	25.215000	-0.808812
	25.220000	-0.692771
	25.225000	-0.792696
	25.230000	-0.915183
	25.235000	-0.812036
	25.240000	-0.699218
	25.245000	-0.805589
	25.250000	-0.924853
	25.255000	-0.815259
	25.260000	-0.692771
	25.265000	-0.805589
	25.270000	-0.921630
	25.275000	-0.818482
	25.280000	-0.699218
	25.285000	-0.802366
	25.290000	-0.928077
	25.295000	-0.815259
	25.300000	-0.702441
	25.305000	-0.805589
	25.310000	-0.924853
	25.315000	-0.821706
	25.320000	-0.699218
	25.325000	-0.812036
	25.330000	-0.928077
	25.335000	-0.828152
	25.340000	-0.708888
	25.345000	-0.812036
	25.350000	-0.934523
	25.355000	-0.821706
	25.360000	-0.708888
	25.365000	-0.812036
	25.370000	-0.934523
	25.375000	-0.824929
	25.380000	-0.705665
	25.385000	-0.818482
	25.390000	-0.934523
	25.395000	-0.834599
	25.400000	-0.708888
	25.405000	-0.812036
	25.410000	-0.937747
	25.415000	-0.831376
	25.420000	-0.708888
	25.425000	-0.815259
	25.430000	-0.937747
	25.435000	-0.834599
	25.440000	-0.708888
	25.445000	-0.805589
	25.450000	-0.937747
	25.455000	-0.837823
	25.460000	-0.715335
	25.465000	-0.815259
	25.470000	-0.937747
	25.475000	-0.834599
	25.480000	-0.715335
	25.485000	-0.815259
	25.490000	-0.937747
	25.495000	-0.837823
	25.500000	-0.712112
	25.505000	-0.818482
	25.510000	-0.944193
	25.515000	-0.837823
	25.520000	-0.718558
	25.525000	-0.818482
	25.530000	-0.944193
	25.535000	-0.837823
	25.540000	-0.715335
	25.545000	-0.812036
	25.550000	-0.940970
	25.555000	-0.837823
	25.560000	-0.715335
	25.565000	-0.818482
	25.570000	-0.940970
	25.575000	-0.844269
	25.580000	-0.715335
	25.585000	-0.812036
	25.590000	-0.950640
	25.595000	-0.834599
	25.600000	-0.718558
	25.605000	-0.818482
	25.610000	-0.940970
	25.615000	-0.837823
	25.620000	-0.715335
	25.625000	-0.818482
	25.630000	-0.944193
	25.635000	-0.847493
	25.640000	-0.725005
	25.645000	-0.808812
	25.650000	-0.950640
	25.655000	-0.853939
	25.660000	-0.725005
	25.665000	-0.821706
	25.670000	-0.944193
	25.675000	-0.853939
	25.680000	-0.721782
	25.685000	-0.818482
	25.690000	-0.953863
	25.695000	-0.853939
	25.700000	-0.721782
	25.705000	-0.824929
	25.710000	-0.960310
	25.715000	-0.857163
	25.720000	-0.728228
	25.725000	-0.821706
	25.730000	-0.957087
	25.735000	-0.857163
	25.740000	-0.725005
	25.745000	-0.821706
	25.750000	-0.957087
	25.755000	-0.857163
	25.760000	-0.731452
	25.765000	-0.824929
	25.770000	-0.950640
	25.775000	-0.857163
	25.780000	-0.731452
	25.785000	-0.824929
	25.790000	-0.960310
	25.795000	-0.857163
	25.800000	-0.734675
	25.805000	-0.824929
	25.810000	-0.960310
	25.815000	-0.863609
	25.820000	-0.734675
	25.825000	-0.828152
	25.830000	-0.966757
	25.835000	-0.866833
	25.840000	-0.741122
	25.845000	-0.824929
	25.850000	-0.953863
	25.855000	-0.870056
	25.860000	-0.734675
	25.865000	-0.831376
	25.870000	-0.966757
	25.875000	-0.876503
	25.880000	-0.737898
	25.885000	-0.831376
	25.890000	-0.973204
	25.895000	-0.870056
	25.900000	-0.734675
	25.905000	-0.828152
	25.910000	-0.966757
	25.915000	-0.879726
	25.920000	-0.744345
	25.925000	-0.834599
	25.930000	-0.969980
	25.935000	-0.879726
	25.940000	-0.747569
	25.945000	-0.837823
	25.950000	-0.969980
	25.955000	-0.882950
	25.960000	-0.744345
	25.965000	-0.834599
	25.970000	-0.969980
	25.975000	-0.886173
	25.980000	-0.750792
	25.985000	-0.841046
	25.990000	-0.973204
	25.995000	-0.879726
	26.000000	-0.750792
	26.005000	-0.834599
	26.010000	-0.973204
	26.015000	-0.886173
	26.020000	-0.744345
	26.025000	-0.837823
	26.030000	-0.976427
	26.035000	-0.886173
	26.040000	-0.747569
	26.045000	-0.837823
	26.050000	-0.976427
	26.055000	-0.895843
	26.060000	-0.757239
	26.065000	-0.844269
	26.070000	-0.979650
	26.075000	-0.895843
	26.080000	-0.757239
	26.085000	-0.844269
	26.090000	-0.989320
	26.095000	-0.899066
	26.100000	-0.760462
	26.105000	-0.850716
	26.110000	-0.986097
	26.115000	-0.899066
	26.120000	-0.766909
	26.125000	-0.844269
	26.130000	-0.986097
	26.135000	-0.905513
	26.140000	-0.770132
	26.145000	-0.850716
	26.150000	-0.998991
	26.155000	-0.902290
	26.160000	-0.770132
	26.165000	-0.847493
	26.170000	-0.989320
	26.175000	-0.908736
	26.180000	-0.763685
	26.185000	-0.853939
	26.190000	-0.995767
	26.195000	-0.908736
	26.200000	-0.763685
	26.205000	-0.850716
	26.210000	-0.986097
	26.215000	-0.905513
	26.220000	-0.766909
	26.225000	-0.847493
	26.230000	-0.992544
	26.235000	-0.905513
	26.240000	-0.766909
	26.245000	-0.847493
	26.250000	-0.979650
	26.255000	-0.895843
	26.260000	-0.760462
	26.265000	-0.834599
	26.270000	-0.982874
	26.275000	-0.905513
	26.280000	-0.763685
	26.285000	-0.841046
	26.290000	-0.982874
	26.295000	-0.895843
	26.300000	-0.763685
	26.305000	-0.841046
	26.310000	-0.982874
	26.315000	-0.895843
	26.320000	-0.763685
	26.325000	-0.841046
	26.330000	-0.979650
	26.335000	-0.902290
	26.340000	-0.760462
	26.345000	-0.834599
	26.350000	-0.982874
	26.355000	-0.908736
	26.360000	-0.760462
	26.365000	-0.834599
	26.370000	-0.979650
	26.375000	-0.902290
	26.380000	-0.763685
	26.385000	-0.844269
	26.390000	-0.982874
	26.395000	-0.905513
	26.400000	-0.757239
	26.405000	-0.844269
	26.410000	-0.979650
	26.415000	-0.899066
	26.420000	-0.760462
	26.425000	-0.834599
	26.430000	-0.982874
	26.435000	-0.902290
	26.440000	-0.757239
	26.445000	-0.837823
	26.450000	-0.976427
	26.455000	-0.905513
	26.460000	-0.763685
	26.465000	-0.828152
	26.470000	-0.979650
	26.475000	-0.895843
	26.480000	-0.754015
	26.485000	-0.834599
	26.490000	-0.979650
	26.495000	-0.905513
	26.500000	-0.757239
	26.505000	-0.841046
	26.510000	-0.979650
	26.515000	-0.905513
	26.520000	-0.760462
	26.525000	-0.837823
	26.530000	-0.982874
	26.535000	-0.908736
	26.540000	-0.757239
	26.545000	-0.824929
	26.550000	-0.986097
	26.555000	-0.905513
	26.560000	-0.760462
	26.565000	-0.831376
	26.570000	-0.976427
	26.575000	-0.902290
	26.580000	-0.766909
	26.585000	-0.831376
	26.590000	-0.982874
	26.595000	-0.911960
	26.600000	-0.766909
	26.605000	-0.837823
	26.610000	-0.986097
	26.615000	-0.911960
	26.620000	-0.766909
	26.625000	-0.844269
	26.630000	-0.982874
	26.635000	-0.905513
	26.640000	-0.770132
	26.645000	-0.837823
	26.650000	-0.979650
	26.655000	-0.911960
	26.660000	-0.770132
	26.665000	-0.844269
	26.670000	-0.992544
	26.675000	-0.918407
	26.680000	-0.773355
	26.685000	-0.837823
	26.690000	-0.995767
	26.695000	-0.918407
	26.700000	-0.773355
	26.705000	-0.847493
	26.710000	-0.995767
	26.715000	-0.918407
	26.720000	-0.776579
	26.725000	-0.850716
	26.730000	-0.995767
	26.735000	-0.931300
	26.740000	-0.786249
	26.745000	-0.850716
	26.750000	-0.995767
	26.755000	-0.931300
	26.760000	-0.783025
	26.765000	-0.850716
	26.770000	-1.002214
	26.775000	-0.940970
	26.780000	-0.783025
	26.785000	-0.850716
	26.790000	-1.002214
	26.795000	-0.937747
	26.800000	-0.786249
	26.805000	-0.850716
	26.810000	-1.002214
	26.815000	-0.937747
	26.820000	-0.789472
	26.825000	-0.857163
	26.830000	-1.015107
	26.835000	-0.937747
	26.840000	-0.792696
	26.845000	-0.860386
	26.850000	-1.011884
	26.855000	-0.937747
	26.860000	-0.786249
	26.865000	-0.850716
	26.870000	-1.011884
	26.875000	-0.940970
	26.880000	-0.789472
	26.885000	-0.860386
	26.890000	-1.008661
	26.895000	-0.944193
	26.900000	-0.795919
	26.905000	-0.857163
	26.910000	-1.005437
	26.915000	-0.937747
	26.920000	-0.789472
	26.925000	-0.853939
	26.930000	-1.002214
	26.935000	-0.947417
	26.940000	-0.795919
	26.945000	-0.863609
	26.950000	-1.008661
	26.955000	-0.944193
	26.960000	-0.789472
	26.965000	-0.853939
	26.970000	-0.995767
	26.975000	-0.934523
	26.980000	-0.783025
	26.985000	-0.850716
	26.990000	-0.998991
	26.995000	-0.928077
	27.000000	-0.789472
	27.005000	-0.837823
	27.010000	-0.979650
	27.015000	-0.915183
	27.020000	-0.773355
	27.025000	-0.834599
	27.030000	-0.979650
	27.035000	-0.921630
	27.040000	-0.766909
	27.045000	-0.824929
	27.050000	-0.973204
	27.055000	-0.905513
	27.060000	-0.754015
	27.065000	-0.818482
	27.070000	-0.969980
	27.075000	-0.911960
	27.080000	-0.757239
	27.085000	-0.805589
	27.090000	-0.966757
	27.095000	-0.895843
	27.100000	-0.747569
	27.105000	-0.805589
	27.110000	-0.966757
	27.115000	-0.895843
	27.120000	-0.747569
	27.125000	-0.792696
	27.130000	-0.950640
	27.135000	-0.895843
	27.140000	-0.737898
	27.145000	-0.795919
	27.150000	-0.947417
	27.155000	-0.886173
	27.160000	-0.737898
	27.165000	-0.786249
	27.170000	-0.944193
	27.175000	-0.882950
	27.180000	-0.728228
	27.185000	-0.779802
	27.190000	-0.937747
	27.195000	-0.876503
	27.200000	-0.725005
	27.205000	-0.776579
	27.210000	-0.934523
	27.215000	-0.873280
	27.220000	-0.721782
	27.225000	-0.773355
	27.230000	-0.924853
	27.235000	-0.860386
	27.240000	-0.708888
	27.245000	-0.770132
	27.250000	-0.928077
	27.255000	-0.857163
	27.260000	-0.705665
	27.265000	-0.757239
	27.270000	-0.911960
	27.275000	-0.857163
	27.280000	-0.705665
	27.285000	-0.757239
	27.290000	-0.908736
	27.295000	-0.853939
	27.300000	-0.702441
	27.305000	-0.757239
	27.310000	-0.905513
	27.315000	-0.853939
	27.320000	-0.695995
	27.325000	-0.750792
	27.330000	-0.908736
	27.335000	-0.850716
	27.340000	-0.695995
	27.345000	-0.747569
	27.350000	-0.905513
	27.355000	-0.847493
	27.360000	-0.692771
	27.365000	-0.744345
	27.370000	-0.905513
	27.375000	-0.850716
	27.380000	-0.695995
	27.385000	-0.741122
	27.390000	-0.902290
	27.395000	-0.847493
	27.400000	-0.692771
	27.405000	-0.741122
	27.410000	-0.902290
	27.415000	-0.853939
	27.420000	-0.699218
	27.425000	-0.750792
	27.430000	-0.905513
	27.435000	-0.860386
	27.440000	-0.705665
	27.445000	-0.760462
	27.450000	-0.918407
	27.455000	-0.873280
	27.460000	-0.721782
	27.465000	-0.773355
	27.470000	-0.937747
	27.475000	-0.895843
	27.480000	-0.744345
	27.485000	-0.789472
	27.490000	-0.953863
	27.495000	-0.905513
	27.500000	-0.757239
	27.505000	-0.805589
	27.510000	-0.966757
	27.515000	-0.921630
	27.520000	-0.770132
	27.525000	-0.821706
	27.530000	-0.982874
	27.535000	-0.937747
	27.540000	-0.779802
	27.545000	-0.828152
	27.550000	-0.989320
	27.555000	-0.944193
	27.560000	-0.789472
	27.565000	-0.841046
	27.570000	-0.998991
	27.575000	-0.957087
	27.580000	-0.792696
	27.585000	-0.847493
	27.590000	-1.002214
	27.595000	-0.950640
	27.600000	-0.795919
	27.605000	-0.844269
	27.610000	-1.002214
	27.615000	-0.957087
	27.620000	-0.802366
	27.625000	-0.847493
	27.630000	-1.005437
	27.635000	-0.957087
	27.640000	-0.805589
	27.645000	-0.841046
	27.650000	-1.008661
	27.655000	-0.957087
	27.660000	-0.799142
	27.665000	-0.850716
	27.670000	-0.998991
	27.675000	-0.953863
	27.680000	-0.795919
	27.685000	-0.844269
	27.690000	-0.992544
	27.695000	-0.947417
	27.700000	-0.799142
	27.705000	-0.831376
	27.710000	-0.992544
	27.715000	-0.947417
	27.720000	-0.786249
	27.725000	-0.824929
	27.730000	-0.986097
	27.735000	-0.937747
	27.740000	-0.783025
	27.745000	-0.818482
	27.750000	-0.976427
	27.755000	-0.931300
	27.760000	-0.770132
	27.765000	-0.805589
	27.770000	-0.973204
	27.775000	-0.928077
	27.780000	-0.770132
	27.785000	-0.805589
	27.790000	-0.960310
	27.795000	-0.924853
	27.800000	-0.766909
	27.805000	-0.808812
	27.810000	-0.963534
	27.815000	-0.921630
	27.820000	-0.766909
	27.825000	-0.805589
	27.830000	-0.963534
	27.835000	-0.928077
	27.840000	-0.770132
	27.845000	-0.802366
	27.850000	-0.969980
	27.855000	-0.928077
	27.860000	-0.776579
	27.865000	-0.812036
	27.870000	-0.976427
	27.875000	-0.931300
	27.880000	-0.779802
	27.885000	-0.812036
	27.890000	-0.973204
	27.895000	-0.944193
	27.900000	-0.776579
	27.905000	-0.818482
	27.910000	-0.976427
	27.915000	-0.940970
	27.920000	-0.783025
	27.925000	-0.815259
	27.930000	-0.973204
	27.935000	-0.937747
	27.940000	-0.770132
	27.945000	-0.805589
	27.950000	-0.960310
	27.955000	-0.931300
	27.960000	-0.766909
	27.965000	-0.799142
	27.970000	-0.960310
	27.975000	-0.921630
	27.980000	-0.760462
	27.985000	-0.802366
	27.990000	-0.966757
	27.995000	-0.937747
	28.000000	-0.786249
	28.005000	-0.834599
	28.010000	-1.018331
	28.015000	-1.002214
	28.020000	-0.863609
	28.025000	-0.921630
	28.030000	-1.118255
	28.035000	-1.115031
	28.040000	-0.986097
	28.045000	-1.057011
	28.050000	-1.263306
	28.055000	-1.272976
	28.060000	-1.160158
	28.065000	-1.227849
	28.070000	-1.434144
	28.075000	-1.437367
	28.080000	-1.324550
	28.085000	-1.395464
	28.090000	-1.592089
	28.095000	-1.595312
	28.100000	-1.469601
	28.105000	-1.534068
	28.110000	-1.737140
	28.115000	-1.727470
	28.120000	-1.598535
	28.125000	-1.666226
	28.130000	-1.856404
	28.135000	-1.840287
	28.140000	-1.708129
	28.145000	-1.759703
	28.150000	-1.946658
	28.155000	-1.927318
	28.160000	-1.785490
	28.165000	-1.840287
	28.170000	-2.007902
	28.175000	-2.001455
	28.180000	-1.856404
	28.185000	-1.895084
	28.190000	-2.065922
	28.195000	-2.053029
	28.200000	-1.898308
	28.205000	-1.940211
	28.210000	-2.107826
	28.215000	-2.088486
	28.220000	-1.940211
	28.225000	-1.965998
	28.230000	-2.140060
	28.235000	-2.111049
	28.240000	-1.956328
	28.245000	-1.982115
	28.250000	-2.146506
	28.255000	-2.114273
	28.260000	-1.949881
	28.265000	-1.972445
	28.270000	-2.120719
	28.275000	-2.091709
	28.280000	-1.914424
	28.285000	-1.924095
	28.290000	-2.069146
	28.295000	-2.030465
	28.300000	-1.837064
	28.305000	-1.840287
	28.310000	-1.982115
	28.315000	-1.927318
	28.320000	-1.740363
	28.325000	-1.746810
	28.330000	-1.885414
	28.335000	-1.843511
	28.340000	-1.659779
	28.345000	-1.669449
	28.350000	-1.830617
	28.355000	-1.791937
	28.360000	-1.640439
	28.365000	-1.679119
	28.370000	-1.856404
	28.375000	-1.846734
	28.380000	-1.708129
	28.385000	-1.759703
	28.390000	-1.959551
	28.395000	-1.962775
	28.400000	-1.827394
	28.405000	-1.904754
	28.410000	-2.104603
	28.415000	-2.123943
	28.420000	-2.007902
	28.425000	-2.065922
	28.430000	-2.275441
	28.435000	-2.294781
	28.440000	-2.172293
	28.445000	-2.230314
	28.450000	-2.439832
	28.455000	-2.452725
	28.460000	-2.327014
	28.465000	-2.378588
	28.470000	-2.571990
	28.475000	-2.588106
	28.480000	-2.443055
	28.485000	-2.488182
	28.490000	-2.675137
	28.495000	-2.668690
	28.500000	-2.520416
	28.505000	-2.549426
	28.510000	-2.720264
	28.515000	-2.694477
	28.520000	-2.526863
	28.525000	-2.539756
	28.530000	-2.684807
	28.535000	-2.639680
	28.540000	-2.455949
	28.545000	-2.455949
	28.550000	-2.588106
	28.555000	-2.549426
	28.560000	-2.359248
	28.565000	-2.349578
	28.570000	-2.484959
	28.575000	-2.426939
	28.580000	-2.230314
	28.585000	-2.214197
	28.590000	-2.333461
	28.595000	-2.278664
	28.600000	-2.078816
	28.605000	-2.082039
	28.610000	-2.252877
	28.615000	-2.252877
	28.620000	-2.127166
	28.625000	-2.210973
	28.630000	-2.462395
	28.635000	-2.546203
	28.640000	-2.504299
	28.645000	-2.649350
	28.650000	-2.971686
	28.655000	-3.100621
	28.660000	-3.094174
	28.665000	-3.281129
	28.670000	-3.613135
	28.675000	-3.751739
	28.680000	-3.754962
	28.685000	-3.929024
	28.690000	-4.244913
	28.695000	-4.370624
	28.700000	-4.357731
	28.705000	-4.496335
	28.710000	-4.770320
	28.715000	-4.863798
	28.720000	-4.805777
	28.725000	-4.921818
	28.730000	-5.170017
	28.735000	-5.237708
	28.740000	-5.157124
	28.745000	-5.250601
	28.750000	-5.485906
	28.755000	-5.543927
	28.760000	-5.463343
	28.765000	-5.540703
	28.770000	-5.769562
	28.775000	-5.824359
	28.780000	-5.724435
	28.785000	-5.811465
	28.790000	-6.020984
	28.795000	-6.056441
	28.800000	-5.966187
	28.805000	-6.037101
	28.810000	-6.253066
	28.815000	-6.285299
	28.820000	-6.172482
	28.825000	-6.227279
	28.830000	-6.427127
	28.835000	-6.446467
	28.840000	-6.304639
	28.845000	-6.327203
	28.850000	-6.485147
	28.855000	-6.469031
	28.860000	-6.294969
	28.865000	-6.272406
	28.870000	-6.382000
	28.875000	-6.317533
	28.880000	-6.098344
	28.885000	-6.033877
	28.890000	-6.108014
	28.895000	-6.011314
	28.900000	-5.753445
	28.905000	-5.672861
	28.910000	-5.737328
	28.915000	-5.640627
	28.920000	-5.405322
	28.925000	-5.344078
	28.930000	-5.453673
	28.935000	-5.402099
	28.940000	-5.218367
	28.945000	-5.221591
	28.950000	-5.385982
	28.955000	-5.405322
	28.960000	-5.273164
	28.965000	-5.334408
	28.970000	-5.560043
	28.975000	-5.627734
	28.980000	-5.556820
	28.985000	-5.653521
	28.990000	-5.917836
	28.995000	-6.027430
	29.000000	-5.979080
	29.005000	-6.104791
	29.010000	-6.372330
	29.015000	-6.462584
	29.020000	-6.401340
	29.025000	-6.491594
	29.030000	-6.720453
	29.035000	-6.768803
	29.040000	-6.655985
	29.045000	-6.675326
	29.050000	-6.830047
	29.055000	-6.784920
	29.060000	-6.572178
	29.065000	-6.501264
	29.070000	-6.585072
	29.075000	-6.498041
