2024/7/20 	 20:55:53 
 This file comes from Vt only measurement 	 1.000000E-1 
 Voltage Sensitivity 	 0.000000E+0 
 Sampling rate 	 200 
 Number of samples per channel 	 -1 
 No filter from Labview 	 	 	 
 	 
 ***End_of_Header*** 
 	 Time 	  Voltage 	 Filtered Voltage 	 
	0.000000	0.715214
	0.005000	0.787566
	0.010000	0.869784
	0.015000	0.804009
	0.020000	0.731657
	0.025000	0.807298
	0.030000	0.882939
	0.035000	0.823742
	0.040000	0.754679
	0.045000	0.833608
	0.050000	0.919115
	0.055000	0.856629
	0.060000	0.800721
	0.065000	0.879650
	0.070000	0.965157
	0.075000	0.902671
	0.080000	0.843474
	0.085000	0.925692
	0.090000	1.004621
	0.095000	0.948713
	0.100000	0.886227
	0.105000	0.958579
	0.110000	1.037509
	0.115000	0.975023
	0.120000	0.915826
	0.125000	0.988178
	0.130000	1.060530
	0.135000	0.998044
	0.140000	0.938847
	0.145000	1.011199
	0.150000	1.083551
	0.155000	1.017776
	0.160000	0.961868
	0.165000	1.024354
	0.170000	1.096706
	0.175000	1.037509
	0.180000	0.971734
	0.185000	1.050664
	0.190000	1.116438
	0.195000	1.050664
	0.200000	0.988178
	0.205000	1.053952
	0.210000	1.123015
	0.215000	1.063818
	0.220000	1.001333
	0.225000	1.067107
	0.230000	1.132882
	0.235000	1.070396
	0.240000	1.004621
	0.245000	1.080262
	0.250000	1.139459
	0.255000	1.076973
	0.260000	1.021065
	0.265000	1.086840
	0.270000	1.149325
	0.275000	1.083551
	0.280000	1.030931
	0.285000	1.093417
	0.290000	1.155903
	0.295000	1.090128
	0.300000	1.037509
	0.305000	1.103283
	0.310000	1.162480
	0.315000	1.099994
	0.320000	1.044086
	0.325000	1.106572
	0.330000	1.169058
	0.335000	1.109861
	0.340000	1.050664
	0.345000	1.119727
	0.350000	1.172346
	0.355000	1.109861
	0.360000	1.057241
	0.365000	1.126304
	0.370000	1.182212
	0.375000	1.119727
	0.380000	1.060530
	0.385000	1.129593
	0.390000	1.182212
	0.395000	1.123015
	0.400000	1.063818
	0.405000	1.132882
	0.410000	1.188790
	0.415000	1.123015
	0.420000	1.070396
	0.425000	1.139459
	0.430000	1.188790
	0.435000	1.129593
	0.440000	1.076973
	0.445000	1.146037
	0.450000	1.198656
	0.455000	1.136170
	0.460000	1.086840
	0.465000	1.149325
	0.470000	1.205234
	0.475000	1.139459
	0.480000	1.090128
	0.485000	1.155903
	0.490000	1.211811
	0.495000	1.146037
	0.500000	1.090128
	0.505000	1.159191
	0.510000	1.215100
	0.515000	1.149325
	0.520000	1.096706
	0.525000	1.162480
	0.530000	1.218388
	0.535000	1.155903
	0.540000	1.103283
	0.545000	1.169058
	0.550000	1.221677
	0.555000	1.155903
	0.560000	1.106572
	0.565000	1.172346
	0.570000	1.228255
	0.575000	1.159191
	0.580000	1.106572
	0.585000	1.172346
	0.590000	1.224966
	0.595000	1.155903
	0.600000	1.106572
	0.605000	1.172346
	0.610000	1.228255
	0.615000	1.159191
	0.620000	1.103283
	0.625000	1.169058
	0.630000	1.221677
	0.635000	1.155903
	0.640000	1.103283
	0.645000	1.165769
	0.650000	1.218388
	0.655000	1.152614
	0.660000	1.106572
	0.665000	1.169058
	0.670000	1.221677
	0.675000	1.152614
	0.680000	1.099994
	0.685000	1.169058
	0.690000	1.218388
	0.695000	1.152614
	0.700000	1.096706
	0.705000	1.169058
	0.710000	1.215100
	0.715000	1.149325
	0.720000	1.099994
	0.725000	1.162480
	0.730000	1.211811
	0.735000	1.146037
	0.740000	1.096706
	0.745000	1.162480
	0.750000	1.208522
	0.755000	1.149325
	0.760000	1.093417
	0.765000	1.155903
	0.770000	1.208522
	0.775000	1.142748
	0.780000	1.090128
	0.785000	1.159191
	0.790000	1.211811
	0.795000	1.142748
	0.800000	1.096706
	0.805000	1.162480
	0.810000	1.211811
	0.815000	1.142748
	0.820000	1.093417
	0.825000	1.162480
	0.830000	1.215100
	0.835000	1.142748
	0.840000	1.096706
	0.845000	1.162480
	0.850000	1.215100
	0.855000	1.146037
	0.860000	1.099994
	0.865000	1.165769
	0.870000	1.211811
	0.875000	1.146037
	0.880000	1.096706
	0.885000	1.165769
	0.890000	1.215100
	0.895000	1.149325
	0.900000	1.096706
	0.905000	1.169058
	0.910000	1.218388
	0.915000	1.149325
	0.920000	1.096706
	0.925000	1.175635
	0.930000	1.215100
	0.935000	1.149325
	0.940000	1.099994
	0.945000	1.165769
	0.950000	1.218388
	0.955000	1.152614
	0.960000	1.103283
	0.965000	1.172346
	0.970000	1.221677
	0.975000	1.146037
	0.980000	1.099994
	0.985000	1.172346
	0.990000	1.218388
	0.995000	1.149325
	1.000000	1.099994
	1.005000	1.175635
	1.010000	1.221677
	1.015000	1.152614
	1.020000	1.103283
	1.025000	1.178924
	1.030000	1.221677
	1.035000	1.155903
	1.040000	1.099994
	1.045000	1.172346
	1.050000	1.221677
	1.055000	1.146037
	1.060000	1.103283
	1.065000	1.175635
	1.070000	1.218388
	1.075000	1.149325
	1.080000	1.099994
	1.085000	1.175635
	1.090000	1.218388
	1.095000	1.152614
	1.100000	1.106572
	1.105000	1.175635
	1.110000	1.221677
	1.115000	1.149325
	1.120000	1.103283
	1.125000	1.175635
	1.130000	1.221677
	1.135000	1.152614
	1.140000	1.106572
	1.145000	1.175635
	1.150000	1.221677
	1.155000	1.149325
	1.160000	1.103283
	1.165000	1.175635
	1.170000	1.221677
	1.175000	1.152614
	1.180000	1.109861
	1.185000	1.178924
	1.190000	1.218388
	1.195000	1.149325
	1.200000	1.106572
	1.205000	1.178924
	1.210000	1.221677
	1.215000	1.149325
	1.220000	1.103283
	1.225000	1.175635
	1.230000	1.224966
	1.235000	1.149325
	1.240000	1.103283
	1.245000	1.178924
	1.250000	1.215100
	1.255000	1.149325
	1.260000	1.109861
	1.265000	1.182212
	1.270000	1.221677
	1.275000	1.149325
	1.280000	1.106572
	1.285000	1.182212
	1.290000	1.224966
	1.295000	1.152614
	1.300000	1.109861
	1.305000	1.185501
	1.310000	1.224966
	1.315000	1.149325
	1.320000	1.109861
	1.325000	1.185501
	1.330000	1.221677
	1.335000	1.152614
	1.340000	1.113149
	1.345000	1.192079
	1.350000	1.224966
	1.355000	1.155903
	1.360000	1.109861
	1.365000	1.185501
	1.370000	1.231543
	1.375000	1.152614
	1.380000	1.116438
	1.385000	1.188790
	1.390000	1.231543
	1.395000	1.155903
	1.400000	1.116438
	1.405000	1.188790
	1.410000	1.234832
	1.415000	1.155903
	1.420000	1.119727
	1.425000	1.195367
	1.430000	1.231543
	1.435000	1.159191
	1.440000	1.119727
	1.445000	1.195367
	1.450000	1.234832
	1.455000	1.159191
	1.460000	1.119727
	1.465000	1.195367
	1.470000	1.234832
	1.475000	1.165769
	1.480000	1.126304
	1.485000	1.195367
	1.490000	1.238121
	1.495000	1.159191
	1.500000	1.123015
	1.505000	1.192079
	1.510000	1.234832
	1.515000	1.162480
	1.520000	1.119727
	1.525000	1.198656
	1.530000	1.238121
	1.535000	1.159191
	1.540000	1.126304
	1.545000	1.195367
	1.550000	1.234832
	1.555000	1.155903
	1.560000	1.119727
	1.565000	1.192079
	1.570000	1.231543
	1.575000	1.155903
	1.580000	1.123015
	1.585000	1.192079
	1.590000	1.228255
	1.595000	1.155903
	1.600000	1.119727
	1.605000	1.192079
	1.610000	1.234832
	1.615000	1.159191
	1.620000	1.119727
	1.625000	1.195367
	1.630000	1.234832
	1.635000	1.155903
	1.640000	1.119727
	1.645000	1.192079
	1.650000	1.234832
	1.655000	1.155903
	1.660000	1.119727
	1.665000	1.195367
	1.670000	1.231543
	1.675000	1.155903
	1.680000	1.119727
	1.685000	1.198656
	1.690000	1.231543
	1.695000	1.152614
	1.700000	1.119727
	1.705000	1.201945
	1.710000	1.238121
	1.715000	1.159191
	1.720000	1.129593
	1.725000	1.198656
	1.730000	1.238121
	1.735000	1.162480
	1.740000	1.126304
	1.745000	1.198656
	1.750000	1.234832
	1.755000	1.165769
	1.760000	1.129593
	1.765000	1.208522
	1.770000	1.241409
	1.775000	1.169058
	1.780000	1.132882
	1.785000	1.208522
	1.790000	1.247987
	1.795000	1.169058
	1.800000	1.136170
	1.805000	1.211811
	1.810000	1.247987
	1.815000	1.172346
	1.820000	1.136170
	1.825000	1.211811
	1.830000	1.244698
	1.835000	1.172346
	1.840000	1.136170
	1.845000	1.215100
	1.850000	1.247987
	1.855000	1.175635
	1.860000	1.136170
	1.865000	1.215100
	1.870000	1.247987
	1.875000	1.169058
	1.880000	1.136170
	1.885000	1.208522
	1.890000	1.247987
	1.895000	1.172346
	1.900000	1.136170
	1.905000	1.211811
	1.910000	1.241409
	1.915000	1.162480
	1.920000	1.132882
	1.925000	1.215100
	1.930000	1.244698
	1.935000	1.165769
	1.940000	1.136170
	1.945000	1.211811
	1.950000	1.244698
	1.955000	1.169058
	1.960000	1.136170
	1.965000	1.211811
	1.970000	1.241409
	1.975000	1.169058
	1.980000	1.136170
	1.985000	1.208522
	1.990000	1.238121
	1.995000	1.155903
	2.000000	1.123015
	2.005000	1.201945
	2.010000	1.228255
	2.015000	1.149325
	2.020000	1.116438
	2.025000	1.195367
	2.030000	1.221677
	2.035000	1.139459
	2.040000	1.109861
	2.045000	1.188790
	2.050000	1.218388
	2.055000	1.136170
	2.060000	1.106572
	2.065000	1.182212
	2.070000	1.208522
	2.075000	1.129593
	2.080000	1.103283
	2.085000	1.178924
	2.090000	1.205234
	2.095000	1.129593
	2.100000	1.096706
	2.105000	1.172346
	2.110000	1.201945
	2.115000	1.119727
	2.120000	1.096706
	2.125000	1.175635
	2.130000	1.198656
	2.135000	1.116438
	2.140000	1.090128
	2.145000	1.165769
	2.150000	1.195367
	2.155000	1.116438
	2.160000	1.083551
	2.165000	1.165769
	2.170000	1.192079
	2.175000	1.109861
	2.180000	1.080262
	2.185000	1.155903
	2.190000	1.185501
	2.195000	1.103283
	2.200000	1.073685
	2.205000	1.155903
	2.210000	1.178924
	2.215000	1.099994
	2.220000	1.073685
	2.225000	1.152614
	2.230000	1.178924
	2.235000	1.093417
	2.240000	1.073685
	2.245000	1.146037
	2.250000	1.172346
	2.255000	1.096706
	2.260000	1.063818
	2.265000	1.142748
	2.270000	1.169058
	2.275000	1.090128
	2.280000	1.060530
	2.285000	1.142748
	2.290000	1.169058
	2.295000	1.090128
	2.300000	1.060530
	2.305000	1.142748
	2.310000	1.169058
	2.315000	1.086840
	2.320000	1.063818
	2.325000	1.142748
	2.330000	1.162480
	2.335000	1.090128
	2.340000	1.063818
	2.345000	1.146037
	2.350000	1.172346
	2.355000	1.093417
	2.360000	1.067107
	2.365000	1.149325
	2.370000	1.175635
	2.375000	1.093417
	2.380000	1.076973
	2.385000	1.152614
	2.390000	1.182212
	2.395000	1.099994
	2.400000	1.080262
	2.405000	1.162480
	2.410000	1.185501
	2.415000	1.103283
	2.420000	1.080262
	2.425000	1.165769
	2.430000	1.188790
	2.435000	1.106572
	2.440000	1.086840
	2.445000	1.169058
	2.450000	1.188790
	2.455000	1.109861
	2.460000	1.086840
	2.465000	1.169058
	2.470000	1.188790
	2.475000	1.106572
	2.480000	1.083551
	2.485000	1.172346
	2.490000	1.195367
	2.495000	1.113149
	2.500000	1.090128
	2.505000	1.172346
	2.510000	1.198656
	2.515000	1.116438
	2.520000	1.096706
	2.525000	1.175635
	2.530000	1.198656
	2.535000	1.116438
	2.540000	1.096706
	2.545000	1.178924
	2.550000	1.201945
	2.555000	1.119727
	2.560000	1.099994
	2.565000	1.182212
	2.570000	1.205234
	2.575000	1.126304
	2.580000	1.106572
	2.585000	1.188790
	2.590000	1.208522
	2.595000	1.126304
	2.600000	1.113149
	2.605000	1.195367
	2.610000	1.218388
	2.615000	1.146037
	2.620000	1.126304
	2.625000	1.208522
	2.630000	1.234832
	2.635000	1.159191
	2.640000	1.142748
	2.645000	1.234832
	2.650000	1.257853
	2.655000	1.182212
	2.660000	1.169058
	2.665000	1.254564
	2.670000	1.274297
	2.675000	1.198656
	2.680000	1.185501
	2.685000	1.267719
	2.690000	1.287452
	2.695000	1.215100
	2.700000	1.192079
	2.705000	1.277585
	2.710000	1.294029
	2.715000	1.211811
	2.720000	1.195367
	2.725000	1.277585
	2.730000	1.294029
	2.735000	1.205234
	2.740000	1.192079
	2.745000	1.267719
	2.750000	1.287452
	2.755000	1.201945
	2.760000	1.178924
	2.765000	1.261142
	2.770000	1.274297
	2.775000	1.188790
	2.780000	1.172346
	2.785000	1.244698
	2.790000	1.261142
	2.795000	1.178924
	2.800000	1.159191
	2.805000	1.238121
	2.810000	1.251276
	2.815000	1.169058
	2.820000	1.146037
	2.825000	1.224966
	2.830000	1.234832
	2.835000	1.152614
	2.840000	1.132882
	2.845000	1.211811
	2.850000	1.228255
	2.855000	1.142748
	2.860000	1.129593
	2.865000	1.205234
	2.870000	1.221677
	2.875000	1.139459
	2.880000	1.126304
	2.885000	1.211811
	2.890000	1.234832
	2.895000	1.159191
	2.900000	1.142748
	2.905000	1.228255
	2.910000	1.247987
	2.915000	1.159191
	2.920000	1.146037
	2.925000	1.228255
	2.930000	1.238121
	2.935000	1.152614
	2.940000	1.132882
	2.945000	1.211811
	2.950000	1.218388
	2.955000	1.136170
	2.960000	1.119727
	2.965000	1.198656
	2.970000	1.215100
	2.975000	1.132882
	2.980000	1.113149
	2.985000	1.201945
	2.990000	1.211811
	2.995000	1.132882
	3.000000	1.116438
	3.005000	1.198656
	3.010000	1.211811
	3.015000	1.129593
	3.020000	1.116438
	3.025000	1.201945
	3.030000	1.208522
	3.035000	1.129593
	3.040000	1.116438
	3.045000	1.195367
	3.050000	1.211811
	3.055000	1.132882
	3.060000	1.116438
	3.065000	1.195367
	3.070000	1.211811
	3.075000	1.126304
	3.080000	1.119727
	3.085000	1.201945
	3.090000	1.208522
	3.095000	1.123015
	3.100000	1.116438
	3.105000	1.198656
	3.110000	1.205234
	3.115000	1.123015
	3.120000	1.116438
	3.125000	1.198656
	3.130000	1.208522
	3.135000	1.119727
	3.140000	1.116438
	3.145000	1.198656
	3.150000	1.211811
	3.155000	1.126304
	3.160000	1.116438
	3.165000	1.198656
	3.170000	1.211811
	3.175000	1.126304
	3.180000	1.116438
	3.185000	1.198656
	3.190000	1.208522
	3.195000	1.126304
	3.200000	1.116438
	3.205000	1.201945
	3.210000	1.208522
	3.215000	1.123015
	3.220000	1.119727
	3.225000	1.201945
	3.230000	1.208522
	3.235000	1.123015
	3.240000	1.116438
	3.245000	1.198656
	3.250000	1.205234
	3.255000	1.123015
	3.260000	1.109861
	3.265000	1.198656
	3.270000	1.205234
	3.275000	1.123015
	3.280000	1.116438
	3.285000	1.198656
	3.290000	1.208522
	3.295000	1.123015
	3.300000	1.109861
	3.305000	1.198656
	3.310000	1.201945
	3.315000	1.119727
	3.320000	1.116438
	3.325000	1.198656
	3.330000	1.201945
	3.335000	1.119727
	3.340000	1.116438
	3.345000	1.198656
	3.350000	1.208522
	3.355000	1.123015
	3.360000	1.116438
	3.365000	1.201945
	3.370000	1.205234
	3.375000	1.126304
	3.380000	1.119727
	3.385000	1.205234
	3.390000	1.211811
	3.395000	1.123015
	3.400000	1.123015
	3.405000	1.205234
	3.410000	1.215100
	3.415000	1.126304
	3.420000	1.123015
	3.425000	1.205234
	3.430000	1.211811
	3.435000	1.126304
	3.440000	1.126304
	3.445000	1.205234
	3.450000	1.205234
	3.455000	1.129593
	3.460000	1.129593
	3.465000	1.208522
	3.470000	1.215100
	3.475000	1.129593
	3.480000	1.129593
	3.485000	1.208522
	3.490000	1.215100
	3.495000	1.129593
	3.500000	1.129593
	3.505000	1.215100
	3.510000	1.218388
	3.515000	1.132882
	3.520000	1.126304
	3.525000	1.215100
	3.530000	1.218388
	3.535000	1.132882
	3.540000	1.129593
	3.545000	1.211811
	3.550000	1.215100
	3.555000	1.136170
	3.560000	1.129593
	3.565000	1.215100
	3.570000	1.221677
	3.575000	1.129593
	3.580000	1.129593
	3.585000	1.221677
	3.590000	1.215100
	3.595000	1.129593
	3.600000	1.132882
	3.605000	1.211811
	3.610000	1.221677
	3.615000	1.132882
	3.620000	1.132882
	3.625000	1.215100
	3.630000	1.218388
	3.635000	1.129593
	3.640000	1.129593
	3.645000	1.218388
	3.650000	1.218388
	3.655000	1.129593
	3.660000	1.136170
	3.665000	1.215100
	3.670000	1.218388
	3.675000	1.136170
	3.680000	1.136170
	3.685000	1.218388
	3.690000	1.218388
	3.695000	1.132882
	3.700000	1.136170
	3.705000	1.218388
	3.710000	1.218388
	3.715000	1.132882
	3.720000	1.136170
	3.725000	1.218388
	3.730000	1.218388
	3.735000	1.129593
	3.740000	1.136170
	3.745000	1.218388
	3.750000	1.218388
	3.755000	1.132882
	3.760000	1.139459
	3.765000	1.221677
	3.770000	1.211811
	3.775000	1.132882
	3.780000	1.136170
	3.785000	1.221677
	3.790000	1.221677
	3.795000	1.132882
	3.800000	1.139459
	3.805000	1.218388
	3.810000	1.218388
	3.815000	1.136170
	3.820000	1.142748
	3.825000	1.224966
	3.830000	1.218388
	3.835000	1.142748
	3.840000	1.139459
	3.845000	1.224966
	3.850000	1.221677
	3.855000	1.136170
	3.860000	1.139459
	3.865000	1.224966
	3.870000	1.224966
	3.875000	1.136170
	3.880000	1.142748
	3.885000	1.224966
	3.890000	1.221677
	3.895000	1.139459
	3.900000	1.136170
	3.905000	1.228255
	3.910000	1.221677
	3.915000	1.139459
	3.920000	1.139459
	3.925000	1.228255
	3.930000	1.221677
	3.935000	1.136170
	3.940000	1.142748
	3.945000	1.224966
	3.950000	1.218388
	3.955000	1.132882
	3.960000	1.142748
	3.965000	1.228255
	3.970000	1.224966
	3.975000	1.132882
	3.980000	1.142748
	3.985000	1.224966
	3.990000	1.224966
	3.995000	1.136170
	4.000000	1.142748
	4.005000	1.228255
	4.010000	1.221677
	4.015000	1.136170
	4.020000	1.139459
	4.025000	1.224966
	4.030000	1.218388
	4.035000	1.132882
	4.040000	1.142748
	4.045000	1.224966
	4.050000	1.218388
	4.055000	1.136170
	4.060000	1.142748
	4.065000	1.221677
	4.070000	1.218388
	4.075000	1.132882
	4.080000	1.139459
	4.085000	1.231543
	4.090000	1.215100
	4.095000	1.136170
	4.100000	1.139459
	4.105000	1.224966
	4.110000	1.218388
	4.115000	1.129593
	4.120000	1.146037
	4.125000	1.224966
	4.130000	1.215100
	4.135000	1.132882
	4.140000	1.142748
	4.145000	1.228255
	4.150000	1.218388
	4.155000	1.136170
	4.160000	1.139459
	4.165000	1.231543
	4.170000	1.218388
	4.175000	1.139459
	4.180000	1.146037
	4.185000	1.228255
	4.190000	1.218388
	4.195000	1.132882
	4.200000	1.146037
	4.205000	1.228255
	4.210000	1.221677
	4.215000	1.136170
	4.220000	1.146037
	4.225000	1.231543
	4.230000	1.221677
	4.235000	1.136170
	4.240000	1.149325
	4.245000	1.231543
	4.250000	1.221677
	4.255000	1.139459
	4.260000	1.146037
	4.265000	1.231543
	4.270000	1.218388
	4.275000	1.136170
	4.280000	1.149325
	4.285000	1.231543
	4.290000	1.221677
	4.295000	1.136170
	4.300000	1.149325
	4.305000	1.238121
	4.310000	1.221677
	4.315000	1.139459
	4.320000	1.152614
	4.325000	1.234832
	4.330000	1.221677
	4.335000	1.142748
	4.340000	1.152614
	4.345000	1.238121
	4.350000	1.228255
	4.355000	1.142748
	4.360000	1.159191
	4.365000	1.241409
	4.370000	1.228255
	4.375000	1.146037
	4.380000	1.159191
	4.385000	1.244698
	4.390000	1.234832
	4.395000	1.146037
	4.400000	1.165769
	4.405000	1.244698
	4.410000	1.231543
	4.415000	1.146037
	4.420000	1.162480
	4.425000	1.244698
	4.430000	1.234832
	4.435000	1.149325
	4.440000	1.165769
	4.445000	1.244698
	4.450000	1.238121
	4.455000	1.149325
	4.460000	1.162480
	4.465000	1.247987
	4.470000	1.234832
	4.475000	1.149325
	4.480000	1.165769
	4.485000	1.244698
	4.490000	1.234832
	4.495000	1.152614
	4.500000	1.162480
	4.505000	1.244698
	4.510000	1.228255
	4.515000	1.146037
	4.520000	1.162480
	4.525000	1.244698
	4.530000	1.231543
	4.535000	1.146037
	4.540000	1.162480
	4.545000	1.247987
	4.550000	1.234832
	4.555000	1.146037
	4.560000	1.162480
	4.565000	1.247987
	4.570000	1.231543
	4.575000	1.149325
	4.580000	1.162480
	4.585000	1.247987
	4.590000	1.228255
	4.595000	1.146037
	4.600000	1.165769
	4.605000	1.251276
	4.610000	1.234832
	4.615000	1.149325
	4.620000	1.165769
	4.625000	1.251276
	4.630000	1.234832
	4.635000	1.152614
	4.640000	1.169058
	4.645000	1.247987
	4.650000	1.231543
	4.655000	1.149325
	4.660000	1.169058
	4.665000	1.254564
	4.670000	1.234832
	4.675000	1.152614
	4.680000	1.172346
	4.685000	1.254564
	4.690000	1.234832
	4.695000	1.152614
	4.700000	1.175635
	4.705000	1.251276
	4.710000	1.234832
	4.715000	1.155903
	4.720000	1.172346
	4.725000	1.254564
	4.730000	1.234832
	4.735000	1.152614
	4.740000	1.172346
	4.745000	1.257853
	4.750000	1.234832
	4.755000	1.149325
	4.760000	1.172346
	4.765000	1.251276
	4.770000	1.234832
	4.775000	1.152614
	4.780000	1.169058
	4.785000	1.251276
	4.790000	1.231543
	4.795000	1.146037
	4.800000	1.165769
	4.805000	1.244698
	4.810000	1.224966
	4.815000	1.146037
	4.820000	1.162480
	4.825000	1.244698
	4.830000	1.224966
	4.835000	1.146037
	4.840000	1.162480
	4.845000	1.244698
	4.850000	1.224966
	4.855000	1.142748
	4.860000	1.162480
	4.865000	1.241409
	4.870000	1.224966
	4.875000	1.139459
	4.880000	1.162480
	4.885000	1.238121
	4.890000	1.221677
	4.895000	1.139459
	4.900000	1.162480
	4.905000	1.238121
	4.910000	1.215100
	4.915000	1.136170
	4.920000	1.155903
	4.925000	1.238121
	4.930000	1.218388
	4.935000	1.136170
	4.940000	1.159191
	4.945000	1.238121
	4.950000	1.218388
	4.955000	1.132882
	4.960000	1.155903
	4.965000	1.234832
	4.970000	1.215100
	4.975000	1.136170
	4.980000	1.155903
	4.985000	1.241409
	4.990000	1.218388
	4.995000	1.136170
	5.000000	1.159191
	5.005000	1.241409
	5.010000	1.221677
	5.015000	1.139459
	5.020000	1.162480
	5.025000	1.241409
	5.030000	1.221677
	5.035000	1.142748
	5.040000	1.165769
	5.045000	1.244698
	5.050000	1.221677
	5.055000	1.142748
	5.060000	1.169058
	5.065000	1.247987
	5.070000	1.218388
	5.075000	1.142748
	5.080000	1.169058
	5.085000	1.247987
	5.090000	1.224966
	5.095000	1.146037
	5.100000	1.165769
	5.105000	1.244698
	5.110000	1.224966
	5.115000	1.139459
	5.120000	1.172346
	5.125000	1.251276
	5.130000	1.221677
	5.135000	1.142748
	5.140000	1.169058
	5.145000	1.247987
	5.150000	1.221677
	5.155000	1.142748
	5.160000	1.159191
	5.165000	1.234832
	5.170000	1.201945
	5.175000	1.123015
	5.180000	1.146037
	5.185000	1.224966
	5.190000	1.195367
	5.195000	1.113149
	5.200000	1.136170
	5.205000	1.215100
	5.210000	1.188790
	5.215000	1.106572
	5.220000	1.129593
	5.225000	1.208522
	5.230000	1.178924
	5.235000	1.096706
	5.240000	1.129593
	5.245000	1.205234
	5.250000	1.178924
	5.255000	1.093417
	5.260000	1.123015
	5.265000	1.198656
	5.270000	1.169058
	5.275000	1.090128
	5.280000	1.119727
	5.285000	1.195367
	5.290000	1.169058
	5.295000	1.093417
	5.300000	1.119727
	5.305000	1.195367
	5.310000	1.165769
	5.315000	1.090128
	5.320000	1.119727
	5.325000	1.195367
	5.330000	1.169058
	5.335000	1.090128
	5.340000	1.123015
	5.345000	1.192079
	5.350000	1.162480
	5.355000	1.083551
	5.360000	1.109861
	5.365000	1.198656
	5.370000	1.162480
	5.375000	1.086840
	5.380000	1.116438
	5.385000	1.198656
	5.390000	1.169058
	5.395000	1.083551
	5.400000	1.116438
	5.405000	1.195367
	5.410000	1.162480
	5.415000	1.090128
	5.420000	1.119727
	5.425000	1.198656
	5.430000	1.169058
	5.435000	1.090128
	5.440000	1.123015
	5.445000	1.201945
	5.450000	1.172346
	5.455000	1.093417
	5.460000	1.129593
	5.465000	1.205234
	5.470000	1.182212
	5.475000	1.099994
	5.480000	1.136170
	5.485000	1.208522
	5.490000	1.182212
	5.495000	1.103283
	5.500000	1.136170
	5.505000	1.211811
	5.510000	1.188790
	5.515000	1.106572
	5.520000	1.146037
	5.525000	1.221677
	5.530000	1.188790
	5.535000	1.116438
	5.540000	1.146037
	5.545000	1.224966
	5.550000	1.192079
	5.555000	1.119727
	5.560000	1.152614
	5.565000	1.228255
	5.570000	1.195367
	5.575000	1.129593
	5.580000	1.162480
	5.585000	1.241409
	5.590000	1.211811
	5.595000	1.142748
	5.600000	1.178924
	5.605000	1.261142
	5.610000	1.238121
	5.615000	1.162480
	5.620000	1.201945
	5.625000	1.284163
	5.630000	1.254564
	5.635000	1.185501
	5.640000	1.218388
	5.645000	1.300606
	5.650000	1.267719
	5.655000	1.192079
	5.660000	1.228255
	5.665000	1.307184
	5.670000	1.267719
	5.675000	1.192079
	5.680000	1.231543
	5.685000	1.300606
	5.690000	1.271008
	5.695000	1.192079
	5.700000	1.224966
	5.705000	1.294029
	5.710000	1.261142
	5.715000	1.178924
	5.720000	1.211811
	5.725000	1.284163
	5.730000	1.251276
	5.735000	1.169058
	5.740000	1.205234
	5.745000	1.274297
	5.750000	1.238121
	5.755000	1.162480
	5.760000	1.195367
	5.765000	1.267719
	5.770000	1.228255
	5.775000	1.152614
	5.780000	1.185501
	5.785000	1.257853
	5.790000	1.221677
	5.795000	1.146037
	5.800000	1.182212
	5.805000	1.254564
	5.810000	1.224966
	5.815000	1.149325
	5.820000	1.178924
	5.825000	1.264431
	5.830000	1.228255
	5.835000	1.149325
	5.840000	1.192079
	5.845000	1.261142
	5.850000	1.228255
	5.855000	1.149325
	5.860000	1.182212
	5.865000	1.254564
	5.870000	1.205234
	5.875000	1.126304
	5.880000	1.155903
	5.885000	1.231543
	5.890000	1.185501
	5.895000	1.113149
	5.900000	1.146037
	5.905000	1.215100
	5.910000	1.178924
	5.915000	1.103283
	5.920000	1.136170
	5.925000	1.218388
	5.930000	1.182212
	5.935000	1.103283
	5.940000	1.139459
	5.945000	1.211811
	5.950000	1.172346
	5.955000	1.099994
	5.960000	1.136170
	5.965000	1.208522
	5.970000	1.175635
	5.975000	1.096706
	5.980000	1.132882
	5.985000	1.211811
	5.990000	1.169058
	5.995000	1.096706
	6.000000	1.139459
	6.005000	1.211811
	6.010000	1.169058
	6.015000	1.096706
	6.020000	1.139459
	6.025000	1.208522
	6.030000	1.172346
	6.035000	1.099994
	6.040000	1.139459
	6.045000	1.211811
	6.050000	1.175635
	6.055000	1.096706
	6.060000	1.139459
	6.065000	1.215100
	6.070000	1.169058
	6.075000	1.096706
	6.080000	1.142748
	6.085000	1.211811
	6.090000	1.172346
	6.095000	1.096706
	6.100000	1.139459
	6.105000	1.215100
	6.110000	1.172346
	6.115000	1.099994
	6.120000	1.136170
	6.125000	1.215100
	6.130000	1.172346
	6.135000	1.099994
	6.140000	1.139459
	6.145000	1.218388
	6.150000	1.178924
	6.155000	1.099994
	6.160000	1.142748
	6.165000	1.218388
	6.170000	1.175635
	6.175000	1.106572
	6.180000	1.146037
	6.185000	1.221677
	6.190000	1.178924
	6.195000	1.103283
	6.200000	1.146037
	6.205000	1.218388
	6.210000	1.178924
	6.215000	1.106572
	6.220000	1.149325
	6.225000	1.224966
	6.230000	1.182212
	6.235000	1.109861
	6.240000	1.152614
	6.245000	1.228255
	6.250000	1.185501
	6.255000	1.109861
	6.260000	1.152614
	6.265000	1.224966
	6.270000	1.182212
	6.275000	1.116438
	6.280000	1.155903
	6.285000	1.234832
	6.290000	1.185501
	6.295000	1.109861
	6.300000	1.162480
	6.305000	1.231543
	6.310000	1.185501
	6.315000	1.116438
	6.320000	1.159191
	6.325000	1.231543
	6.330000	1.185501
	6.335000	1.116438
	6.340000	1.159191
	6.345000	1.228255
	6.350000	1.182212
	6.355000	1.116438
	6.360000	1.159191
	6.365000	1.234832
	6.370000	1.188790
	6.375000	1.116438
	6.380000	1.159191
	6.385000	1.228255
	6.390000	1.185501
	6.395000	1.116438
	6.400000	1.159191
	6.405000	1.231543
	6.410000	1.182212
	6.415000	1.113149
	6.420000	1.162480
	6.425000	1.228255
	6.430000	1.185501
	6.435000	1.116438
	6.440000	1.162480
	6.445000	1.228255
	6.450000	1.185501
	6.455000	1.116438
	6.460000	1.162480
	6.465000	1.234832
	6.470000	1.185501
	6.475000	1.116438
	6.480000	1.165769
	6.485000	1.238121
	6.490000	1.188790
	6.495000	1.116438
	6.500000	1.162480
	6.505000	1.238121
	6.510000	1.185501
	6.515000	1.116438
	6.520000	1.165769
	6.525000	1.234832
	6.530000	1.185501
	6.535000	1.116438
	6.540000	1.162480
	6.545000	1.234832
	6.550000	1.188790
	6.555000	1.119727
	6.560000	1.165769
	6.565000	1.238121
	6.570000	1.188790
	6.575000	1.116438
	6.580000	1.162480
	6.585000	1.238121
	6.590000	1.185501
	6.595000	1.119727
	6.600000	1.165769
	6.605000	1.238121
	6.610000	1.185501
	6.615000	1.119727
	6.620000	1.169058
	6.625000	1.234832
	6.630000	1.188790
	6.635000	1.123015
	6.640000	1.169058
	6.645000	1.238121
	6.650000	1.188790
	6.655000	1.123015
	6.660000	1.169058
	6.665000	1.238121
	6.670000	1.188790
	6.675000	1.119727
	6.680000	1.165769
	6.685000	1.241409
	6.690000	1.192079
	6.695000	1.123015
	6.700000	1.175635
	6.705000	1.238121
	6.710000	1.185501
	6.715000	1.119727
	6.720000	1.172346
	6.725000	1.241409
	6.730000	1.192079
	6.735000	1.126304
	6.740000	1.172346
	6.745000	1.238121
	6.750000	1.188790
	6.755000	1.126304
	6.760000	1.169058
	6.765000	1.244698
	6.770000	1.192079
	6.775000	1.119727
	6.780000	1.172346
	6.785000	1.241409
	6.790000	1.192079
	6.795000	1.126304
	6.800000	1.175635
	6.805000	1.241409
	6.810000	1.188790
	6.815000	1.126304
	6.820000	1.175635
	6.825000	1.238121
	6.830000	1.188790
	6.835000	1.126304
	6.840000	1.175635
	6.845000	1.244698
	6.850000	1.195367
	6.855000	1.126304
	6.860000	1.175635
	6.865000	1.241409
	6.870000	1.188790
	6.875000	1.123015
	6.880000	1.175635
	6.885000	1.241409
	6.890000	1.195367
	6.895000	1.123015
	6.900000	1.182212
	6.905000	1.241409
	6.910000	1.192079
	6.915000	1.126304
	6.920000	1.178924
	6.925000	1.244698
	6.930000	1.195367
	6.935000	1.129593
	6.940000	1.172346
	6.945000	1.241409
	6.950000	1.192079
	6.955000	1.126304
	6.960000	1.182212
	6.965000	1.244698
	6.970000	1.192079
	6.975000	1.129593
	6.980000	1.175635
	6.985000	1.244698
	6.990000	1.192079
	6.995000	1.126304
	7.000000	1.178924
	7.005000	1.247987
	7.010000	1.192079
	7.015000	1.123015
	7.020000	1.182212
	7.025000	1.247987
	7.030000	1.192079
	7.035000	1.126304
	7.040000	1.178924
	7.045000	1.247987
	7.050000	1.188790
	7.055000	1.126304
	7.060000	1.178924
	7.065000	1.244698
	7.070000	1.188790
	7.075000	1.119727
	7.080000	1.182212
	7.085000	1.241409
	7.090000	1.188790
	7.095000	1.123015
	7.100000	1.182212
	7.105000	1.247987
	7.110000	1.188790
	7.115000	1.123015
	7.120000	1.178924
	7.125000	1.244698
	7.130000	1.192079
	7.135000	1.129593
	7.140000	1.185501
	7.145000	1.244698
	7.150000	1.192079
	7.155000	1.126304
	7.160000	1.185501
	7.165000	1.247987
	7.170000	1.188790
	7.175000	1.132882
	7.180000	1.185501
	7.185000	1.244698
	7.190000	1.182212
	7.195000	1.126304
	7.200000	1.182212
	7.205000	1.247987
	7.210000	1.188790
	7.215000	1.126304
	7.220000	1.182212
	7.225000	1.247987
	7.230000	1.188790
	7.235000	1.126304
	7.240000	1.182212
	7.245000	1.244698
	7.250000	1.188790
	7.255000	1.129593
	7.260000	1.185501
	7.265000	1.244698
	7.270000	1.188790
	7.275000	1.123015
	7.280000	1.185501
	7.285000	1.241409
	7.290000	1.185501
	7.295000	1.119727
	7.300000	1.178924
	7.305000	1.244698
	7.310000	1.178924
	7.315000	1.123015
	7.320000	1.175635
	7.325000	1.241409
	7.330000	1.178924
	7.335000	1.119727
	7.340000	1.178924
	7.345000	1.241409
	7.350000	1.182212
	7.355000	1.119727
	7.360000	1.175635
	7.365000	1.238121
	7.370000	1.175635
	7.375000	1.116438
	7.380000	1.175635
	7.385000	1.234832
	7.390000	1.172346
	7.395000	1.109861
	7.400000	1.169058
	7.405000	1.231543
	7.410000	1.169058
	7.415000	1.106572
	7.420000	1.172346
	7.425000	1.228255
	7.430000	1.169058
	7.435000	1.106572
	7.440000	1.165769
	7.445000	1.221677
	7.450000	1.169058
	7.455000	1.106572
	7.460000	1.165769
	7.465000	1.221677
	7.470000	1.165769
	7.475000	1.109861
	7.480000	1.169058
	7.485000	1.224966
	7.490000	1.169058
	7.495000	1.109861
	7.500000	1.169058
	7.505000	1.228255
	7.510000	1.169058
	7.515000	1.109861
	7.520000	1.169058
	7.525000	1.228255
	7.530000	1.169058
	7.535000	1.106572
	7.540000	1.172346
	7.545000	1.231543
	7.550000	1.172346
	7.555000	1.109861
	7.560000	1.172346
	7.565000	1.231543
	7.570000	1.175635
	7.575000	1.116438
	7.580000	1.175635
	7.585000	1.231543
	7.590000	1.175635
	7.595000	1.113149
	7.600000	1.182212
	7.605000	1.234832
	7.610000	1.178924
	7.615000	1.123015
	7.620000	1.188790
	7.625000	1.241409
	7.630000	1.185501
	7.635000	1.132882
	7.640000	1.198656
	7.645000	1.254564
	7.650000	1.198656
	7.655000	1.142748
	7.660000	1.205234
	7.665000	1.261142
	7.670000	1.201945
	7.675000	1.146037
	7.680000	1.208522
	7.685000	1.264431
	7.690000	1.201945
	7.695000	1.142748
	7.700000	1.201945
	7.705000	1.261142
	7.710000	1.192079
	7.715000	1.136170
	7.720000	1.201945
	7.725000	1.251276
	7.730000	1.188790
	7.735000	1.126304
	7.740000	1.192079
	7.745000	1.244698
	7.750000	1.178924
	7.755000	1.116438
	7.760000	1.182212
	7.765000	1.234832
	7.770000	1.169058
	7.775000	1.116438
	7.780000	1.175635
	7.785000	1.231543
	7.790000	1.165769
	7.795000	1.106572
	7.800000	1.172346
	7.805000	1.221677
	7.810000	1.155903
	7.815000	1.099994
	7.820000	1.162480
	7.825000	1.221677
	7.830000	1.152614
	7.835000	1.099994
	7.840000	1.162480
	7.845000	1.215100
	7.850000	1.155903
	7.855000	1.106572
	7.860000	1.172346
	7.865000	1.224966
	7.870000	1.162480
	7.875000	1.106572
	7.880000	1.175635
	7.885000	1.228255
	7.890000	1.169058
	7.895000	1.119727
	7.900000	1.182212
	7.905000	1.238121
	7.910000	1.178924
	7.915000	1.132882
	7.920000	1.201945
	7.925000	1.257853
	7.930000	1.205234
	7.935000	1.155903
	7.940000	1.224966
	7.945000	1.280874
	7.950000	1.221677
	7.955000	1.175635
	7.960000	1.238121
	7.965000	1.294029
	7.970000	1.221677
	7.975000	1.165769
	7.980000	1.228255
	7.985000	1.274297
	7.990000	1.205234
	7.995000	1.152614
	8.000000	1.211811
	8.005000	1.257853
	8.010000	1.192079
	8.015000	1.136170
	8.020000	1.201945
	8.025000	1.251276
	8.030000	1.178924
	8.035000	1.123015
	8.040000	1.188790
	8.045000	1.238121
	8.050000	1.169058
	8.055000	1.113149
	8.060000	1.182212
	8.065000	1.228255
	8.070000	1.165769
	8.075000	1.109861
	8.080000	1.178924
	8.085000	1.228255
	8.090000	1.155903
	8.095000	1.109861
	8.100000	1.175635
	8.105000	1.228255
	8.110000	1.155903
	8.115000	1.103283
	8.120000	1.172346
	8.125000	1.228255
	8.130000	1.159191
	8.135000	1.113149
	8.140000	1.182212
	8.145000	1.228255
	8.150000	1.165769
	8.155000	1.116438
	8.160000	1.178924
	8.165000	1.234832
	8.170000	1.162480
	8.175000	1.116438
	8.180000	1.182212
	8.185000	1.234832
	8.190000	1.165769
	8.195000	1.119727
	8.200000	1.185501
	8.205000	1.234832
	8.210000	1.169058
	8.215000	1.123015
	8.220000	1.195367
	8.225000	1.238121
	8.230000	1.172346
	8.235000	1.126304
	8.240000	1.192079
	8.245000	1.241409
	8.250000	1.175635
	8.255000	1.126304
	8.260000	1.195367
	8.265000	1.241409
	8.270000	1.175635
	8.275000	1.123015
	8.280000	1.198656
	8.285000	1.247987
	8.290000	1.175635
	8.295000	1.132882
	8.300000	1.198656
	8.305000	1.244698
	8.310000	1.182212
	8.315000	1.132882
	8.320000	1.201945
	8.325000	1.251276
	8.330000	1.185501
	8.335000	1.139459
	8.340000	1.215100
	8.345000	1.261142
	8.350000	1.195367
	8.355000	1.142748
	8.360000	1.221677
	8.365000	1.267719
	8.370000	1.195367
	8.375000	1.152614
	8.380000	1.224966
	8.385000	1.271008
	8.390000	1.201945
	8.395000	1.149325
	8.400000	1.221677
	8.405000	1.267719
	8.410000	1.195367
	8.415000	1.149325
	8.420000	1.221677
	8.425000	1.267719
	8.430000	1.192079
	8.435000	1.142748
	8.440000	1.211811
	8.445000	1.254564
	8.450000	1.178924
	8.455000	1.132882
	8.460000	1.201945
	8.465000	1.247987
	8.470000	1.172346
	8.475000	1.123015
	8.480000	1.195367
	8.485000	1.234832
	8.490000	1.162480
	8.495000	1.119727
	8.500000	1.188790
	8.505000	1.231543
	8.510000	1.162480
	8.515000	1.113149
	8.520000	1.188790
	8.525000	1.231543
	8.530000	1.159191
	8.535000	1.119727
	8.540000	1.192079
	8.545000	1.238121
	8.550000	1.165769
	8.555000	1.123015
	8.560000	1.195367
	8.565000	1.238121
	8.570000	1.159191
	8.575000	1.116438
	8.580000	1.185501
	8.585000	1.224966
	8.590000	1.149325
	8.595000	1.103283
	8.600000	1.172346
	8.605000	1.215100
	8.610000	1.136170
	8.615000	1.096706
	8.620000	1.165769
	8.625000	1.215100
	8.630000	1.136170
	8.635000	1.096706
	8.640000	1.172346
	8.645000	1.215100
	8.650000	1.139459
	8.655000	1.096706
	8.660000	1.172346
	8.665000	1.215100
	8.670000	1.146037
	8.675000	1.103283
	8.680000	1.178924
	8.685000	1.218388
	8.690000	1.146037
	8.695000	1.103283
	8.700000	1.178924
	8.705000	1.221677
	8.710000	1.146037
	8.715000	1.106572
	8.720000	1.178924
	8.725000	1.224966
	8.730000	1.149325
	8.735000	1.106572
	8.740000	1.182212
	8.745000	1.228255
	8.750000	1.146037
	8.755000	1.106572
	8.760000	1.182212
	8.765000	1.221677
	8.770000	1.152614
	8.775000	1.109861
	8.780000	1.188790
	8.785000	1.221677
	8.790000	1.149325
	8.795000	1.113149
	8.800000	1.185501
	8.805000	1.228255
	8.810000	1.152614
	8.815000	1.113149
	8.820000	1.185501
	8.825000	1.221677
	8.830000	1.142748
	8.835000	1.106572
	8.840000	1.182212
	8.845000	1.221677
	8.850000	1.149325
	8.855000	1.109861
	8.860000	1.185501
	8.865000	1.221677
	8.870000	1.146037
	8.875000	1.106572
	8.880000	1.182212
	8.885000	1.221677
	8.890000	1.146037
	8.895000	1.113149
	8.900000	1.188790
	8.905000	1.221677
	8.910000	1.146037
	8.915000	1.116438
	8.920000	1.178924
	8.925000	1.224966
	8.930000	1.146037
	8.935000	1.109861
	8.940000	1.185501
	8.945000	1.221677
	8.950000	1.149325
	8.955000	1.109861
	8.960000	1.185501
	8.965000	1.224966
	8.970000	1.149325
	8.975000	1.113149
	8.980000	1.185501
	8.985000	1.221677
	8.990000	1.152614
	8.995000	1.116438
	9.000000	1.188790
	9.005000	1.224966
	9.010000	1.152614
	9.015000	1.116438
	9.020000	1.185501
	9.025000	1.224966
	9.030000	1.146037
	9.035000	1.113149
	9.040000	1.188790
	9.045000	1.228255
	9.050000	1.152614
	9.055000	1.116438
	9.060000	1.192079
	9.065000	1.228255
	9.070000	1.146037
	9.075000	1.113149
	9.080000	1.188790
	9.085000	1.228255
	9.090000	1.152614
	9.095000	1.109861
	9.100000	1.192079
	9.105000	1.228255
	9.110000	1.146037
	9.115000	1.116438
	9.120000	1.195367
	9.125000	1.228255
	9.130000	1.152614
	9.135000	1.119727
	9.140000	1.192079
	9.145000	1.228255
	9.150000	1.152614
	9.155000	1.116438
	9.160000	1.192079
	9.165000	1.228255
	9.170000	1.146037
	9.175000	1.113149
	9.180000	1.192079
	9.185000	1.224966
	9.190000	1.146037
	9.195000	1.116438
	9.200000	1.195367
	9.205000	1.228255
	9.210000	1.149325
	9.215000	1.116438
	9.220000	1.192079
	9.225000	1.228255
	9.230000	1.149325
	9.235000	1.116438
	9.240000	1.195367
	9.245000	1.228255
	9.250000	1.146037
	9.255000	1.119727
	9.260000	1.195367
	9.265000	1.228255
	9.270000	1.149325
	9.275000	1.119727
	9.280000	1.195367
	9.285000	1.228255
	9.290000	1.149325
	9.295000	1.123015
	9.300000	1.198656
	9.305000	1.224966
	9.310000	1.149325
	9.315000	1.119727
	9.320000	1.195367
	9.325000	1.228255
	9.330000	1.149325
	9.335000	1.119727
	9.340000	1.195367
	9.345000	1.231543
	9.350000	1.149325
	9.355000	1.123015
	9.360000	1.195367
	9.365000	1.228255
	9.370000	1.152614
	9.375000	1.123015
	9.380000	1.205234
	9.385000	1.231543
	9.390000	1.152614
	9.395000	1.119727
	9.400000	1.205234
	9.405000	1.234832
	9.410000	1.152614
	9.415000	1.126304
	9.420000	1.198656
	9.425000	1.234832
	9.430000	1.155903
	9.435000	1.123015
	9.440000	1.201945
	9.445000	1.231543
	9.450000	1.152614
	9.455000	1.123015
	9.460000	1.201945
	9.465000	1.234832
	9.470000	1.152614
	9.475000	1.123015
	9.480000	1.205234
	9.485000	1.234832
	9.490000	1.152614
	9.495000	1.123015
	9.500000	1.201945
	9.505000	1.234832
	9.510000	1.149325
	9.515000	1.119727
	9.520000	1.205234
	9.525000	1.234832
	9.530000	1.149325
	9.535000	1.123015
	9.540000	1.205234
	9.545000	1.228255
	9.550000	1.152614
	9.555000	1.126304
	9.560000	1.205234
	9.565000	1.231543
	9.570000	1.149325
	9.575000	1.123015
	9.580000	1.208522
	9.585000	1.231543
	9.590000	1.152614
	9.595000	1.123015
	9.600000	1.198656
	9.605000	1.234832
	9.610000	1.149325
	9.615000	1.123015
	9.620000	1.201945
	9.625000	1.234832
	9.630000	1.149325
	9.635000	1.123015
	9.640000	1.205234
	9.645000	1.228255
	9.650000	1.152614
	9.655000	1.123015
	9.660000	1.201945
	9.665000	1.231543
	9.670000	1.149325
	9.675000	1.126304
	9.680000	1.211811
	9.685000	1.231543
	9.690000	1.152614
	9.695000	1.123015
	9.700000	1.205234
	9.705000	1.231543
	9.710000	1.149325
	9.715000	1.129593
	9.720000	1.208522
	9.725000	1.231543
	9.730000	1.152614
	9.735000	1.126304
	9.740000	1.205234
	9.745000	1.234832
	9.750000	1.149325
	9.755000	1.126304
	9.760000	1.211811
	9.765000	1.234832
	9.770000	1.152614
	9.775000	1.126304
	9.780000	1.208522
	9.785000	1.234832
	9.790000	1.152614
	9.795000	1.129593
	9.800000	1.205234
	9.805000	1.234832
	9.810000	1.152614
	9.815000	1.129593
	9.820000	1.208522
	9.825000	1.234832
	9.830000	1.146037
	9.835000	1.129593
	9.840000	1.211811
	9.845000	1.234832
	9.850000	1.152614
	9.855000	1.129593
	9.860000	1.208522
	9.865000	1.231543
	9.870000	1.155903
	9.875000	1.132882
	9.880000	1.211811
	9.885000	1.228255
	9.890000	1.149325
	9.895000	1.129593
	9.900000	1.208522
	9.905000	1.234832
	9.910000	1.149325
	9.915000	1.132882
	9.920000	1.211811
	9.925000	1.234832
	9.930000	1.152614
	9.935000	1.132882
	9.940000	1.211811
	9.945000	1.231543
	9.950000	1.149325
	9.955000	1.129593
	9.960000	1.211811
	9.965000	1.231543
	9.970000	1.149325
	9.975000	1.129593
	9.980000	1.211811
	9.985000	1.231543
	9.990000	1.142748
	9.995000	1.129593
	10.000000	1.211811
	10.005000	1.228255
	10.010000	1.149325
	10.015000	1.129593
	10.020000	1.208522
	10.025000	1.228255
	10.030000	1.152614
	10.035000	1.126304
	10.040000	1.208522
	10.045000	1.231543
	10.050000	1.149325
	10.055000	1.129593
	10.060000	1.208522
	10.065000	1.231543
	10.070000	1.149325
	10.075000	1.132882
	10.080000	1.211811
	10.085000	1.231543
	10.090000	1.149325
	10.095000	1.129593
	10.100000	1.215100
	10.105000	1.234832
	10.110000	1.149325
	10.115000	1.132882
	10.120000	1.211811
	10.125000	1.231543
	10.130000	1.149325
	10.135000	1.132882
	10.140000	1.215100
	10.145000	1.231543
	10.150000	1.149325
	10.155000	1.129593
	10.160000	1.211811
	10.165000	1.228255
	10.170000	1.149325
	10.175000	1.129593
	10.180000	1.208522
	10.185000	1.231543
	10.190000	1.146037
	10.195000	1.129593
	10.200000	1.211811
	10.205000	1.231543
	10.210000	1.149325
	10.215000	1.129593
	10.220000	1.215100
	10.225000	1.228255
	10.230000	1.146037
	10.235000	1.132882
	10.240000	1.218388
	10.245000	1.228255
	10.250000	1.149325
	10.255000	1.136170
	10.260000	1.215100
	10.265000	1.234832
	10.270000	1.149325
	10.275000	1.136170
	10.280000	1.218388
	10.285000	1.234832
	10.290000	1.152614
	10.295000	1.136170
	10.300000	1.215100
	10.305000	1.234832
	10.310000	1.149325
	10.315000	1.136170
	10.320000	1.215100
	10.325000	1.231543
	10.330000	1.149325
	10.335000	1.136170
	10.340000	1.211811
	10.345000	1.231543
	10.350000	1.149325
	10.355000	1.132882
	10.360000	1.218388
	10.365000	1.231543
	10.370000	1.149325
	10.375000	1.132882
	10.380000	1.218388
	10.385000	1.234832
	10.390000	1.149325
	10.395000	1.132882
	10.400000	1.221677
	10.405000	1.234832
	10.410000	1.146037
	10.415000	1.136170
	10.420000	1.218388
	10.425000	1.231543
	10.430000	1.149325
	10.435000	1.132882
	10.440000	1.218388
	10.445000	1.234832
	10.450000	1.152614
	10.455000	1.139459
	10.460000	1.221677
	10.465000	1.231543
	10.470000	1.149325
	10.475000	1.136170
	10.480000	1.218388
	10.485000	1.228255
	10.490000	1.146037
	10.495000	1.139459
	10.500000	1.221677
	10.505000	1.228255
	10.510000	1.149325
	10.515000	1.136170
	10.520000	1.218388
	10.525000	1.231543
	10.530000	1.149325
	10.535000	1.136170
	10.540000	1.224966
	10.545000	1.231543
	10.550000	1.146037
	10.555000	1.136170
	10.560000	1.221677
	10.565000	1.231543
	10.570000	1.146037
	10.575000	1.136170
	10.580000	1.215100
	10.585000	1.231543
	10.590000	1.146037
	10.595000	1.139459
	10.600000	1.218388
	10.605000	1.231543
	10.610000	1.142748
	10.615000	1.132882
	10.620000	1.218388
	10.625000	1.231543
	10.630000	1.142748
	10.635000	1.139459
	10.640000	1.215100
	10.645000	1.231543
	10.650000	1.142748
	10.655000	1.136170
	10.660000	1.221677
	10.665000	1.228255
	10.670000	1.142748
	10.675000	1.136170
	10.680000	1.218388
	10.685000	1.228255
	10.690000	1.142748
	10.695000	1.132882
	10.700000	1.224966
	10.705000	1.228255
	10.710000	1.146037
	10.715000	1.136170
	10.720000	1.224966
	10.725000	1.234832
	10.730000	1.149325
	10.735000	1.146037
	10.740000	1.228255
	10.745000	1.241409
	10.750000	1.155903
	10.755000	1.149325
	10.760000	1.238121
	10.765000	1.244698
	10.770000	1.159191
	10.775000	1.152614
	10.780000	1.244698
	10.785000	1.257853
	10.790000	1.172346
	10.795000	1.162480
	10.800000	1.251276
	10.805000	1.257853
	10.810000	1.172346
	10.815000	1.165769
	10.820000	1.241409
	10.825000	1.251276
	10.830000	1.169058
	10.835000	1.159191
	10.840000	1.244698
	10.845000	1.251276
	10.850000	1.169058
	10.855000	1.159191
	10.860000	1.241409
	10.865000	1.241409
	10.870000	1.159191
	10.875000	1.149325
	10.880000	1.228255
	10.885000	1.238121
	10.890000	1.152614
	10.895000	1.149325
	10.900000	1.234832
	10.905000	1.238121
	10.910000	1.149325
	10.915000	1.142748
	10.920000	1.231543
	10.925000	1.238121
	10.930000	1.152614
	10.935000	1.146037
	10.940000	1.234832
	10.945000	1.234832
	10.950000	1.152614
	10.955000	1.146037
	10.960000	1.231543
	10.965000	1.234832
	10.970000	1.149325
	10.975000	1.142748
	10.980000	1.228255
	10.985000	1.231543
	10.990000	1.152614
	10.995000	1.149325
	11.000000	1.231543
	11.005000	1.238121
	11.010000	1.152614
	11.015000	1.146037
	11.020000	1.231543
	11.025000	1.238121
	11.030000	1.149325
	11.035000	1.152614
	11.040000	1.234832
	11.045000	1.241409
	11.050000	1.159191
	11.055000	1.162480
	11.060000	1.247987
	11.065000	1.251276
	11.070000	1.169058
	11.075000	1.162480
	11.080000	1.247987
	11.085000	1.244698
	11.090000	1.159191
	11.095000	1.159191
	11.100000	1.238121
	11.105000	1.234832
	11.110000	1.149325
	11.115000	1.142748
	11.120000	1.228255
	11.125000	1.224966
	11.130000	1.139459
	11.135000	1.139459
	11.140000	1.221677
	11.145000	1.218388
	11.150000	1.132882
	11.155000	1.132882
	11.160000	1.211811
	11.165000	1.215100
	11.170000	1.123015
	11.175000	1.119727
	11.180000	1.208522
	11.185000	1.208522
	11.190000	1.123015
	11.195000	1.119727
	11.200000	1.205234
	11.205000	1.201945
	11.210000	1.119727
	11.215000	1.116438
	11.220000	1.198656
	11.225000	1.198656
	11.230000	1.113149
	11.235000	1.109861
	11.240000	1.198656
	11.245000	1.195367
	11.250000	1.109861
	11.255000	1.109861
	11.260000	1.198656
	11.265000	1.195367
	11.270000	1.109861
	11.275000	1.116438
	11.280000	1.201945
	11.285000	1.195367
	11.290000	1.109861
	11.295000	1.113149
	11.300000	1.195367
	11.305000	1.192079
	11.310000	1.109861
	11.315000	1.119727
	11.320000	1.198656
	11.325000	1.198656
	11.330000	1.113149
	11.335000	1.116438
	11.340000	1.198656
	11.345000	1.198656
	11.350000	1.116438
	11.355000	1.116438
	11.360000	1.201945
	11.365000	1.198656
	11.370000	1.116438
	11.375000	1.116438
	11.380000	1.201945
	11.385000	1.201945
	11.390000	1.116438
	11.395000	1.119727
	11.400000	1.205234
	11.405000	1.198656
	11.410000	1.123015
	11.415000	1.126304
	11.420000	1.205234
	11.425000	1.201945
	11.430000	1.116438
	11.435000	1.126304
	11.440000	1.208522
	11.445000	1.205234
	11.450000	1.119727
	11.455000	1.126304
	11.460000	1.211811
	11.465000	1.208522
	11.470000	1.123015
	11.475000	1.129593
	11.480000	1.215100
	11.485000	1.215100
	11.490000	1.126304
	11.495000	1.139459
	11.500000	1.224966
	11.505000	1.218388
	11.510000	1.132882
	11.515000	1.146037
	11.520000	1.231543
	11.525000	1.228255
	11.530000	1.142748
	11.535000	1.146037
	11.540000	1.238121
	11.545000	1.231543
	11.550000	1.152614
	11.555000	1.152614
	11.560000	1.244698
	11.565000	1.234832
	11.570000	1.149325
	11.575000	1.159191
	11.580000	1.241409
	11.585000	1.238121
	11.590000	1.146037
	11.595000	1.159191
	11.600000	1.234832
	11.605000	1.228255
	11.610000	1.142748
	11.615000	1.152614
	11.620000	1.234832
	11.625000	1.221677
	11.630000	1.142748
	11.635000	1.149325
	11.640000	1.224966
	11.645000	1.224966
	11.650000	1.139459
	11.655000	1.149325
	11.660000	1.231543
	11.665000	1.221677
	11.670000	1.136170
	11.675000	1.142748
	11.680000	1.224966
	11.685000	1.221677
	11.690000	1.136170
	11.695000	1.146037
	11.700000	1.228255
	11.705000	1.215100
	11.710000	1.132882
	11.715000	1.146037
	11.720000	1.224966
	11.725000	1.211811
	11.730000	1.132882
	11.735000	1.139459
	11.740000	1.221677
	11.745000	1.215100
	11.750000	1.132882
	11.755000	1.136170
	11.760000	1.221677
	11.765000	1.211811
	11.770000	1.119727
	11.775000	1.132882
	11.780000	1.218388
	11.785000	1.201945
	11.790000	1.119727
	11.795000	1.132882
	11.800000	1.215100
	11.805000	1.201945
	11.810000	1.123015
	11.815000	1.129593
	11.820000	1.211811
	11.825000	1.205234
	11.830000	1.119727
	11.835000	1.129593
	11.840000	1.215100
	11.845000	1.198656
	11.850000	1.116438
	11.855000	1.129593
	11.860000	1.211811
	11.865000	1.198656
	11.870000	1.109861
	11.875000	1.119727
	11.880000	1.211811
	11.885000	1.195367
	11.890000	1.113149
	11.895000	1.123015
	11.900000	1.205234
	11.905000	1.195367
	11.910000	1.106572
	11.915000	1.126304
	11.920000	1.205234
	11.925000	1.192079
	11.930000	1.106572
	11.935000	1.126304
	11.940000	1.201945
	11.945000	1.192079
	11.950000	1.103283
	11.955000	1.123015
	11.960000	1.201945
	11.965000	1.192079
	11.970000	1.113149
	11.975000	1.123015
	11.980000	1.205234
	11.985000	1.188790
	11.990000	1.109861
	11.995000	1.123015
	12.000000	1.205234
	12.005000	1.188790
	12.010000	1.103283
	12.015000	1.119727
	12.020000	1.205234
	12.025000	1.192079
	12.030000	1.106572
	12.035000	1.119727
	12.040000	1.198656
	12.045000	1.188790
	12.050000	1.106572
	12.055000	1.119727
	12.060000	1.201945
	12.065000	1.185501
	12.070000	1.103283
	12.075000	1.119727
	12.080000	1.198656
	12.085000	1.185501
	12.090000	1.099994
	12.095000	1.119727
	12.100000	1.205234
	12.105000	1.188790
	12.110000	1.109861
	12.115000	1.119727
	12.120000	1.205234
	12.125000	1.192079
	12.130000	1.103283
	12.135000	1.123015
	12.140000	1.208522
	12.145000	1.185501
	12.150000	1.103283
	12.155000	1.123015
	12.160000	1.208522
	12.165000	1.192079
	12.170000	1.103283
	12.175000	1.126304
	12.180000	1.205234
	12.185000	1.195367
	12.190000	1.109861
	12.195000	1.126304
	12.200000	1.211811
	12.205000	1.192079
	12.210000	1.106572
	12.215000	1.129593
	12.220000	1.211811
	12.225000	1.188790
	12.230000	1.109861
	12.235000	1.136170
	12.240000	1.215100
	12.245000	1.195367
	12.250000	1.106572
	12.255000	1.129593
	12.260000	1.215100
	12.265000	1.195367
	12.270000	1.106572
	12.275000	1.129593
	12.280000	1.211811
	12.285000	1.195367
	12.290000	1.116438
	12.295000	1.136170
	12.300000	1.218388
	12.305000	1.198656
	12.310000	1.116438
	12.315000	1.132882
	12.320000	1.218388
	12.325000	1.198656
	12.330000	1.116438
	12.335000	1.139459
	12.340000	1.218388
	12.345000	1.195367
	12.350000	1.119727
	12.355000	1.136170
	12.360000	1.221677
	12.365000	1.198656
	12.370000	1.116438
	12.375000	1.136170
	12.380000	1.221677
	12.385000	1.201945
	12.390000	1.116438
	12.395000	1.142748
	12.400000	1.218388
	12.405000	1.201945
	12.410000	1.116438
	12.415000	1.139459
	12.420000	1.218388
	12.425000	1.201945
	12.430000	1.119727
	12.435000	1.136170
	12.440000	1.221677
	12.445000	1.201945
	12.450000	1.119727
	12.455000	1.146037
	12.460000	1.224966
	12.465000	1.201945
	12.470000	1.116438
	12.475000	1.139459
	12.480000	1.224966
	12.485000	1.201945
	12.490000	1.119727
	12.495000	1.139459
	12.500000	1.224966
	12.505000	1.205234
	12.510000	1.119727
	12.515000	1.142748
	12.520000	1.221677
	12.525000	1.205234
	12.530000	1.123015
	12.535000	1.142748
	12.540000	1.224966
	12.545000	1.201945
	12.550000	1.119727
	12.555000	1.142748
	12.560000	1.221677
	12.565000	1.201945
	12.570000	1.116438
	12.575000	1.142748
	12.580000	1.221677
	12.585000	1.201945
	12.590000	1.116438
	12.595000	1.142748
	12.600000	1.224966
	12.605000	1.198656
	12.610000	1.119727
	12.615000	1.142748
	12.620000	1.224966
	12.625000	1.195367
	12.630000	1.119727
	12.635000	1.142748
	12.640000	1.224966
	12.645000	1.201945
	12.650000	1.123015
	12.655000	1.146037
	12.660000	1.221677
	12.665000	1.198656
	12.670000	1.119727
	12.675000	1.146037
	12.680000	1.228255
	12.685000	1.195367
	12.690000	1.119727
	12.695000	1.146037
	12.700000	1.224966
	12.705000	1.201945
	12.710000	1.119727
	12.715000	1.146037
	12.720000	1.228255
	12.725000	1.205234
	12.730000	1.123015
	12.735000	1.142748
	12.740000	1.221677
	12.745000	1.198656
	12.750000	1.119727
	12.755000	1.146037
	12.760000	1.224966
	12.765000	1.201945
	12.770000	1.119727
	12.775000	1.146037
	12.780000	1.228255
	12.785000	1.205234
	12.790000	1.119727
	12.795000	1.142748
	12.800000	1.228255
	12.805000	1.198656
	12.810000	1.116438
	12.815000	1.146037
	12.820000	1.221677
	12.825000	1.205234
	12.830000	1.116438
	12.835000	1.149325
	12.840000	1.228255
	12.845000	1.195367
	12.850000	1.116438
	12.855000	1.146037
	12.860000	1.224966
	12.865000	1.195367
	12.870000	1.116438
	12.875000	1.142748
	12.880000	1.224966
	12.885000	1.195367
	12.890000	1.116438
	12.895000	1.139459
	12.900000	1.221677
	12.905000	1.195367
	12.910000	1.109861
	12.915000	1.142748
	12.920000	1.228255
	12.925000	1.192079
	12.930000	1.116438
	12.935000	1.146037
	12.940000	1.224966
	12.945000	1.195367
	12.950000	1.116438
	12.955000	1.142748
	12.960000	1.228255
	12.965000	1.195367
	12.970000	1.113149
	12.975000	1.146037
	12.980000	1.228255
	12.985000	1.201945
	12.990000	1.116438
	12.995000	1.146037
	13.000000	1.228255
	13.005000	1.201945
	13.010000	1.119727
	13.015000	1.149325
	13.020000	1.231543
	13.025000	1.201945
	13.030000	1.119727
	13.035000	1.149325
	13.040000	1.231543
	13.045000	1.201945
	13.050000	1.119727
	13.055000	1.152614
	13.060000	1.231543
	13.065000	1.195367
	13.070000	1.119727
	13.075000	1.155903
	13.080000	1.224966
	13.085000	1.195367
	13.090000	1.123015
	13.095000	1.152614
	13.100000	1.234832
	13.105000	1.198656
	13.110000	1.116438
	13.115000	1.146037
	13.120000	1.231543
	13.125000	1.198656
	13.130000	1.123015
	13.135000	1.152614
	13.140000	1.231543
	13.145000	1.201945
	13.150000	1.123015
	13.155000	1.152614
	13.160000	1.231543
	13.165000	1.198656
	13.170000	1.119727
	13.175000	1.149325
	13.180000	1.231543
	13.185000	1.198656
	13.190000	1.123015
	13.195000	1.155903
	13.200000	1.231543
	13.205000	1.201945
	13.210000	1.123015
	13.215000	1.155903
	13.220000	1.238121
	13.225000	1.201945
	13.230000	1.119727
	13.235000	1.152614
	13.240000	1.231543
	13.245000	1.195367
	13.250000	1.123015
	13.255000	1.159191
	13.260000	1.228255
	13.265000	1.195367
	13.270000	1.116438
	13.275000	1.149325
	13.280000	1.231543
	13.285000	1.198656
	13.290000	1.116438
	13.295000	1.152614
	13.300000	1.234832
	13.305000	1.195367
	13.310000	1.119727
	13.315000	1.155903
	13.320000	1.234832
	13.325000	1.195367
	13.330000	1.119727
	13.335000	1.152614
	13.340000	1.231543
	13.345000	1.195367
	13.350000	1.116438
	13.355000	1.155903
	13.360000	1.228255
	13.365000	1.195367
	13.370000	1.116438
	13.375000	1.152614
	13.380000	1.228255
	13.385000	1.198656
	13.390000	1.116438
	13.395000	1.152614
	13.400000	1.231543
	13.405000	1.195367
	13.410000	1.119727
	13.415000	1.152614
	13.420000	1.231543
	13.425000	1.195367
	13.430000	1.119727
	13.435000	1.159191
	13.440000	1.231543
	13.445000	1.195367
	13.450000	1.116438
	13.455000	1.155903
	13.460000	1.231543
	13.465000	1.195367
	13.470000	1.119727
	13.475000	1.155903
	13.480000	1.231543
	13.485000	1.192079
	13.490000	1.119727
	13.495000	1.155903
	13.500000	1.231543
	13.505000	1.195367
	13.510000	1.119727
	13.515000	1.152614
	13.520000	1.228255
	13.525000	1.192079
	13.530000	1.116438
	13.535000	1.155903
	13.540000	1.228255
	13.545000	1.195367
	13.550000	1.116438
	13.555000	1.155903
	13.560000	1.231543
	13.565000	1.192079
	13.570000	1.116438
	13.575000	1.155903
	13.580000	1.231543
	13.585000	1.192079
	13.590000	1.116438
	13.595000	1.159191
	13.600000	1.228255
	13.605000	1.195367
	13.610000	1.116438
	13.615000	1.155903
	13.620000	1.231543
	13.625000	1.192079
	13.630000	1.123015
	13.635000	1.155903
	13.640000	1.234832
	13.645000	1.192079
	13.650000	1.119727
	13.655000	1.159191
	13.660000	1.234832
	13.665000	1.192079
	13.670000	1.119727
	13.675000	1.159191
	13.680000	1.231543
	13.685000	1.192079
	13.690000	1.119727
	13.695000	1.162480
	13.700000	1.228255
	13.705000	1.192079
	13.710000	1.119727
	13.715000	1.159191
	13.720000	1.231543
	13.725000	1.195367
	13.730000	1.119727
	13.735000	1.159191
	13.740000	1.234832
	13.745000	1.192079
	13.750000	1.116438
	13.755000	1.159191
	13.760000	1.231543
	13.765000	1.192079
	13.770000	1.119727
	13.775000	1.159191
	13.780000	1.231543
	13.785000	1.192079
	13.790000	1.119727
	13.795000	1.165769
	13.800000	1.234832
	13.805000	1.192079
	13.810000	1.116438
	13.815000	1.165769
	13.820000	1.234832
	13.825000	1.195367
	13.830000	1.119727
	13.835000	1.165769
	13.840000	1.241409
	13.845000	1.192079
	13.850000	1.123015
	13.855000	1.162480
	13.860000	1.234832
	13.865000	1.192079
	13.870000	1.116438
	13.875000	1.162480
	13.880000	1.234832
	13.885000	1.192079
	13.890000	1.119727
	13.895000	1.162480
	13.900000	1.234832
	13.905000	1.188790
	13.910000	1.123015
	13.915000	1.162480
	13.920000	1.234832
	13.925000	1.192079
	13.930000	1.119727
	13.935000	1.162480
	13.940000	1.238121
	13.945000	1.192079
	13.950000	1.116438
	13.955000	1.165769
	13.960000	1.234832
	13.965000	1.188790
	13.970000	1.116438
	13.975000	1.165769
	13.980000	1.231543
	13.985000	1.188790
	13.990000	1.116438
	13.995000	1.165769
	14.000000	1.238121
	14.005000	1.192079
	14.010000	1.119727
	14.015000	1.162480
	14.020000	1.234832
	14.025000	1.188790
	14.030000	1.123015
	14.035000	1.162480
	14.040000	1.234832
	14.045000	1.188790
	14.050000	1.116438
	14.055000	1.162480
	14.060000	1.234832
	14.065000	1.185501
	14.070000	1.119727
	14.075000	1.162480
	14.080000	1.234832
	14.085000	1.192079
	14.090000	1.116438
	14.095000	1.165769
	14.100000	1.234832
	14.105000	1.185501
	14.110000	1.119727
	14.115000	1.165769
	14.120000	1.231543
	14.125000	1.188790
	14.130000	1.116438
	14.135000	1.162480
	14.140000	1.231543
	14.145000	1.182212
	14.150000	1.116438
	14.155000	1.159191
	14.160000	1.228255
	14.165000	1.182212
	14.170000	1.116438
	14.175000	1.162480
	14.180000	1.231543
	14.185000	1.182212
	14.190000	1.113149
	14.195000	1.162480
	14.200000	1.231543
	14.205000	1.182212
	14.210000	1.113149
	14.215000	1.162480
	14.220000	1.231543
	14.225000	1.182212
	14.230000	1.116438
	14.235000	1.162480
	14.240000	1.231543
	14.245000	1.182212
	14.250000	1.116438
	14.255000	1.159191
	14.260000	1.231543
	14.265000	1.185501
	14.270000	1.113149
	14.275000	1.165769
	14.280000	1.231543
	14.285000	1.185501
	14.290000	1.113149
	14.295000	1.162480
	14.300000	1.231543
	14.305000	1.185501
	14.310000	1.119727
	14.315000	1.165769
	14.320000	1.231543
	14.325000	1.185501
	14.330000	1.109861
	14.335000	1.159191
	14.340000	1.231543
	14.345000	1.182212
	14.350000	1.109861
	14.355000	1.159191
	14.360000	1.228255
	14.365000	1.182212
	14.370000	1.109861
	14.375000	1.162480
	14.380000	1.224966
	14.385000	1.178924
	14.390000	1.109861
	14.395000	1.159191
	14.400000	1.228255
	14.405000	1.175635
	14.410000	1.103283
	14.415000	1.162480
	14.420000	1.228255
	14.425000	1.175635
	14.430000	1.109861
	14.435000	1.162480
	14.440000	1.224966
	14.445000	1.178924
	14.450000	1.116438
	14.455000	1.162480
	14.460000	1.228255
	14.465000	1.175635
	14.470000	1.109861
	14.475000	1.162480
	14.480000	1.228255
	14.485000	1.175635
	14.490000	1.109861
	14.495000	1.162480
	14.500000	1.224966
	14.505000	1.175635
	14.510000	1.106572
	14.515000	1.155903
	14.520000	1.224966
	14.525000	1.172346
	14.530000	1.106572
	14.535000	1.162480
	14.540000	1.224966
	14.545000	1.172346
	14.550000	1.106572
	14.555000	1.155903
	14.560000	1.221677
	14.565000	1.175635
	14.570000	1.109861
	14.575000	1.165769
	14.580000	1.231543
	14.585000	1.175635
	14.590000	1.109861
	14.595000	1.165769
	14.600000	1.234832
	14.605000	1.182212
	14.610000	1.113149
	14.615000	1.172346
	14.620000	1.234832
	14.625000	1.182212
	14.630000	1.116438
	14.635000	1.172346
	14.640000	1.238121
	14.645000	1.182212
	14.650000	1.119727
	14.655000	1.172346
	14.660000	1.241409
	14.665000	1.188790
	14.670000	1.126304
	14.675000	1.178924
	14.680000	1.244698
	14.685000	1.192079
	14.690000	1.126304
	14.695000	1.185501
	14.700000	1.247987
	14.705000	1.198656
	14.710000	1.132882
	14.715000	1.188790
	14.720000	1.251276
	14.725000	1.195367
	14.730000	1.136170
	14.735000	1.185501
	14.740000	1.254564
	14.745000	1.201945
	14.750000	1.136170
	14.755000	1.198656
	14.760000	1.257853
	14.765000	1.205234
	14.770000	1.136170
	14.775000	1.192079
	14.780000	1.261142
	14.785000	1.198656
	14.790000	1.136170
	14.795000	1.188790
	14.800000	1.254564
	14.805000	1.195367
	14.810000	1.132882
	14.815000	1.192079
	14.820000	1.254564
	14.825000	1.198656
	14.830000	1.132882
	14.835000	1.185501
	14.840000	1.247987
	14.845000	1.192079
	14.850000	1.126304
	14.855000	1.182212
	14.860000	1.241409
	14.865000	1.185501
	14.870000	1.123015
	14.875000	1.172346
	14.880000	1.238121
	14.885000	1.182212
	14.890000	1.123015
	14.895000	1.175635
	14.900000	1.241409
	14.905000	1.182212
	14.910000	1.119727
	14.915000	1.178924
	14.920000	1.241409
	14.925000	1.188790
	14.930000	1.123015
	14.935000	1.182212
	14.940000	1.238121
	14.945000	1.188790
	14.950000	1.129593
	14.955000	1.188790
	14.960000	1.251276
	14.965000	1.198656
	14.970000	1.139459
	14.975000	1.192079
	14.980000	1.257853
	14.985000	1.198656
	14.990000	1.136170
	14.995000	1.195367
	15.000000	1.254564
	15.005000	1.195367
	15.010000	1.136170
	15.015000	1.188790
	15.020000	1.247987
	15.025000	1.192079
	15.030000	1.129593
	15.035000	1.185501
	15.040000	1.241409
	15.045000	1.182212
	15.050000	1.116438
	15.055000	1.178924
	15.060000	1.238121
	15.065000	1.178924
	15.070000	1.116438
	15.075000	1.172346
	15.080000	1.234832
	15.085000	1.172346
	15.090000	1.109861
	15.095000	1.169058
	15.100000	1.228255
	15.105000	1.165769
	15.110000	1.109861
	15.115000	1.169058
	15.120000	1.228255
	15.125000	1.165769
	15.130000	1.106572
	15.135000	1.165769
	15.140000	1.221677
	15.145000	1.165769
	15.150000	1.106572
	15.155000	1.165769
	15.160000	1.218388
	15.165000	1.162480
	15.170000	1.099994
	15.175000	1.155903
	15.180000	1.218388
	15.185000	1.155903
	15.190000	1.093417
	15.195000	1.155903
	15.200000	1.211811
	15.205000	1.149325
	15.210000	1.090128
	15.215000	1.152614
	15.220000	1.211811
	15.225000	1.152614
	15.230000	1.093417
	15.235000	1.152614
	15.240000	1.208522
	15.245000	1.146037
	15.250000	1.090128
	15.255000	1.152614
	15.260000	1.211811
	15.265000	1.149325
	15.270000	1.090128
	15.275000	1.152614
	15.280000	1.211811
	15.285000	1.149325
	15.290000	1.093417
	15.295000	1.152614
	15.300000	1.211811
	15.305000	1.155903
	15.310000	1.093417
	15.315000	1.155903
	15.320000	1.215100
	15.325000	1.152614
	15.330000	1.099994
	15.335000	1.159191
	15.340000	1.221677
	15.345000	1.155903
	15.350000	1.099994
	15.355000	1.169058
	15.360000	1.224966
	15.365000	1.162480
	15.370000	1.106572
	15.375000	1.172346
	15.380000	1.228255
	15.385000	1.165769
	15.390000	1.113149
	15.395000	1.175635
	15.400000	1.234832
	15.405000	1.175635
	15.410000	1.116438
	15.415000	1.188790
	15.420000	1.241409
	15.425000	1.178924
	15.430000	1.129593
	15.435000	1.195367
	15.440000	1.254564
	15.445000	1.192079
	15.450000	1.139459
	15.455000	1.208522
	15.460000	1.264431
	15.465000	1.201945
	15.470000	1.152614
	15.475000	1.215100
	15.480000	1.271008
	15.485000	1.208522
	15.490000	1.159191
	15.495000	1.221677
	15.500000	1.271008
	15.505000	1.205234
	15.510000	1.155903
	15.515000	1.224966
	15.520000	1.271008
	15.525000	1.205234
	15.530000	1.152614
	15.535000	1.211811
	15.540000	1.267719
	15.545000	1.198656
	15.550000	1.146037
	15.555000	1.208522
	15.560000	1.261142
	15.565000	1.195367
	15.570000	1.142748
	15.575000	1.205234
	15.580000	1.257853
	15.585000	1.192079
	15.590000	1.132882
	15.595000	1.198656
	15.600000	1.251276
	15.605000	1.182212
	15.610000	1.126304
	15.615000	1.195367
	15.620000	1.247987
	15.625000	1.182212
	15.630000	1.123015
	15.635000	1.188790
	15.640000	1.234832
	15.645000	1.169058
	15.650000	1.116438
	15.655000	1.178924
	15.660000	1.224966
	15.665000	1.155903
	15.670000	1.106572
	15.675000	1.169058
	15.680000	1.218388
	15.685000	1.152614
	15.690000	1.099994
	15.695000	1.165769
	15.700000	1.218388
	15.705000	1.146037
	15.710000	1.103283
	15.715000	1.162480
	15.720000	1.211811
	15.725000	1.146037
	15.730000	1.093417
	15.735000	1.155903
	15.740000	1.208522
	15.745000	1.136170
	15.750000	1.086840
	15.755000	1.152614
	15.760000	1.201945
	15.765000	1.129593
	15.770000	1.083551
	15.775000	1.142748
	15.780000	1.195367
	15.785000	1.129593
	15.790000	1.076973
	15.795000	1.146037
	15.800000	1.195367
	15.805000	1.129593
	15.810000	1.076973
	15.815000	1.142748
	15.820000	1.195367
	15.825000	1.132882
	15.830000	1.080262
	15.835000	1.146037
	15.840000	1.195367
	15.845000	1.129593
	15.850000	1.080262
	15.855000	1.149325
	15.860000	1.198656
	15.865000	1.129593
	15.870000	1.080262
	15.875000	1.152614
	15.880000	1.198656
	15.885000	1.132882
	15.890000	1.083551
	15.895000	1.152614
	15.900000	1.205234
	15.905000	1.136170
	15.910000	1.083551
	15.915000	1.152614
	15.920000	1.201945
	15.925000	1.129593
	15.930000	1.083551
	15.935000	1.155903
	15.940000	1.201945
	15.945000	1.136170
	15.950000	1.086840
	15.955000	1.152614
	15.960000	1.205234
	15.965000	1.132882
	15.970000	1.086840
	15.975000	1.152614
	15.980000	1.208522
	15.985000	1.136170
	15.990000	1.090128
	15.995000	1.155903
	16.000000	1.208522
	16.005000	1.139459
	16.010000	1.086840
	16.015000	1.162480
	16.020000	1.208522
	16.025000	1.132882
	16.030000	1.093417
	16.035000	1.165769
	16.040000	1.211811
	16.045000	1.139459
	16.050000	1.093417
	16.055000	1.169058
	16.060000	1.211811
	16.065000	1.142748
	16.070000	1.096706
	16.075000	1.169058
	16.080000	1.211811
	16.085000	1.146037
	16.090000	1.099994
	16.095000	1.175635
	16.100000	1.218388
	16.105000	1.149325
	16.110000	1.099994
	16.115000	1.172346
	16.120000	1.215100
	16.125000	1.146037
	16.130000	1.099994
	16.135000	1.175635
	16.140000	1.218388
	16.145000	1.146037
	16.150000	1.099994
	16.155000	1.175635
	16.160000	1.215100
	16.165000	1.146037
	16.170000	1.106572
	16.175000	1.175635
	16.180000	1.215100
	16.185000	1.149325
	16.190000	1.106572
	16.195000	1.172346
	16.200000	1.218388
	16.205000	1.146037
	16.210000	1.103283
	16.215000	1.175635
	16.220000	1.218388
	16.225000	1.146037
	16.230000	1.103283
	16.235000	1.175635
	16.240000	1.215100
	16.245000	1.146037
	16.250000	1.103283
	16.255000	1.175635
	16.260000	1.218388
	16.265000	1.146037
	16.270000	1.106572
	16.275000	1.178924
	16.280000	1.221677
	16.285000	1.146037
	16.290000	1.103283
	16.295000	1.172346
	16.300000	1.215100
	16.305000	1.146037
	16.310000	1.103283
	16.315000	1.175635
	16.320000	1.218388
	16.325000	1.149325
	16.330000	1.099994
	16.335000	1.175635
	16.340000	1.224966
	16.345000	1.146037
	16.350000	1.109861
	16.355000	1.178924
	16.360000	1.224966
	16.365000	1.142748
	16.370000	1.106572
	16.375000	1.178924
	16.380000	1.221677
	16.385000	1.139459
	16.390000	1.106572
	16.395000	1.178924
	16.400000	1.224966
	16.405000	1.146037
	16.410000	1.106572
	16.415000	1.182212
	16.420000	1.224966
	16.425000	1.146037
	16.430000	1.106572
	16.435000	1.182212
	16.440000	1.221677
	16.445000	1.149325
	16.450000	1.106572
	16.455000	1.182212
	16.460000	1.221677
	16.465000	1.149325
	16.470000	1.106572
	16.475000	1.182212
	16.480000	1.221677
	16.485000	1.149325
	16.490000	1.109861
	16.495000	1.182212
	16.500000	1.221677
	16.505000	1.149325
	16.510000	1.106572
	16.515000	1.182212
	16.520000	1.221677
	16.525000	1.146037
	16.530000	1.109861
	16.535000	1.182212
	16.540000	1.224966
	16.545000	1.146037
	16.550000	1.109861
	16.555000	1.182212
	16.560000	1.221677
	16.565000	1.149325
	16.570000	1.106572
	16.575000	1.182212
	16.580000	1.221677
	16.585000	1.149325
	16.590000	1.106572
	16.595000	1.188790
	16.600000	1.218388
	16.605000	1.146037
	16.610000	1.109861
	16.615000	1.182212
	16.620000	1.221677
	16.625000	1.146037
	16.630000	1.109861
	16.635000	1.188790
	16.640000	1.224966
	16.645000	1.146037
	16.650000	1.106572
	16.655000	1.185501
	16.660000	1.224966
	16.665000	1.146037
	16.670000	1.109861
	16.675000	1.188790
	16.680000	1.224966
	16.685000	1.149325
	16.690000	1.109861
	16.695000	1.185501
	16.700000	1.224966
	16.705000	1.149325
	16.710000	1.113149
	16.715000	1.192079
	16.720000	1.221677
	16.725000	1.146037
	16.730000	1.109861
	16.735000	1.188790
	16.740000	1.221677
	16.745000	1.152614
	16.750000	1.109861
	16.755000	1.188790
	16.760000	1.224966
	16.765000	1.146037
	16.770000	1.106572
	16.775000	1.182212
	16.780000	1.221677
	16.785000	1.149325
	16.790000	1.109861
	16.795000	1.188790
	16.800000	1.224966
	16.805000	1.146037
	16.810000	1.113149
	16.815000	1.188790
	16.820000	1.224966
	16.825000	1.146037
	16.830000	1.109861
	16.835000	1.188790
	16.840000	1.221677
	16.845000	1.146037
	16.850000	1.109861
	16.855000	1.185501
	16.860000	1.221677
	16.865000	1.146037
	16.870000	1.116438
	16.875000	1.188790
	16.880000	1.218388
	16.885000	1.146037
	16.890000	1.109861
	16.895000	1.188790
	16.900000	1.221677
	16.905000	1.142748
	16.910000	1.109861
	16.915000	1.188790
	16.920000	1.228255
	16.925000	1.142748
	16.930000	1.106572
	16.935000	1.188790
	16.940000	1.218388
	16.945000	1.142748
	16.950000	1.109861
	16.955000	1.195367
	16.960000	1.221677
	16.965000	1.139459
	16.970000	1.109861
	16.975000	1.185501
	16.980000	1.221677
	16.985000	1.142748
	16.990000	1.109861
	16.995000	1.185501
	17.000000	1.221677
	17.005000	1.139459
	17.010000	1.106572
	17.015000	1.182212
	17.020000	1.221677
	17.025000	1.139459
	17.030000	1.109861
	17.035000	1.188790
	17.040000	1.221677
	17.045000	1.139459
	17.050000	1.113149
	17.055000	1.188790
	17.060000	1.218388
	17.065000	1.139459
	17.070000	1.109861
	17.075000	1.188790
	17.080000	1.221677
	17.085000	1.142748
	17.090000	1.109861
	17.095000	1.192079
	17.100000	1.221677
	17.105000	1.139459
	17.110000	1.113149
	17.115000	1.185501
	17.120000	1.218388
	17.125000	1.136170
	17.130000	1.106572
	17.135000	1.185501
	17.140000	1.218388
	17.145000	1.139459
	17.150000	1.109861
	17.155000	1.185501
	17.160000	1.218388
	17.165000	1.139459
	17.170000	1.113149
	17.175000	1.188790
	17.180000	1.221677
	17.185000	1.139459
	17.190000	1.109861
	17.195000	1.188790
	17.200000	1.218388
	17.205000	1.136170
	17.210000	1.109861
	17.215000	1.185501
	17.220000	1.218388
	17.225000	1.139459
	17.230000	1.109861
	17.235000	1.182212
	17.240000	1.215100
	17.245000	1.139459
	17.250000	1.109861
	17.255000	1.185501
	17.260000	1.215100
	17.265000	1.132882
	17.270000	1.109861
	17.275000	1.185501
	17.280000	1.211811
	17.285000	1.132882
	17.290000	1.109861
	17.295000	1.188790
	17.300000	1.211811
	17.305000	1.136170
	17.310000	1.109861
	17.315000	1.188790
	17.320000	1.211811
	17.325000	1.132882
	17.330000	1.109861
	17.335000	1.185501
	17.340000	1.215100
	17.345000	1.132882
	17.350000	1.106572
	17.355000	1.192079
	17.360000	1.218388
	17.365000	1.139459
	17.370000	1.106572
	17.375000	1.188790
	17.380000	1.215100
	17.385000	1.132882
	17.390000	1.106572
	17.395000	1.192079
	17.400000	1.221677
	17.405000	1.136170
	17.410000	1.109861
	17.415000	1.188790
	17.420000	1.215100
	17.425000	1.139459
	17.430000	1.109861
	17.435000	1.192079
	17.440000	1.218388
	17.445000	1.136170
	17.450000	1.109861
	17.455000	1.188790
	17.460000	1.215100
	17.465000	1.139459
	17.470000	1.113149
	17.475000	1.195367
	17.480000	1.215100
	17.485000	1.136170
	17.490000	1.113149
	17.495000	1.192079
	17.500000	1.218388
	17.505000	1.132882
	17.510000	1.113149
	17.515000	1.192079
	17.520000	1.215100
	17.525000	1.132882
	17.530000	1.116438
	17.535000	1.192079
	17.540000	1.218388
	17.545000	1.132882
	17.550000	1.113149
	17.555000	1.188790
	17.560000	1.218388
	17.565000	1.139459
	17.570000	1.113149
	17.575000	1.198656
	17.580000	1.218388
	17.585000	1.136170
	17.590000	1.116438
	17.595000	1.198656
	17.600000	1.215100
	17.605000	1.136170
	17.610000	1.116438
	17.615000	1.198656
	17.620000	1.218388
	17.625000	1.142748
	17.630000	1.116438
	17.635000	1.201945
	17.640000	1.218388
	17.645000	1.132882
	17.650000	1.116438
	17.655000	1.198656
	17.660000	1.218388
	17.665000	1.129593
	17.670000	1.119727
	17.675000	1.195367
	17.680000	1.218388
	17.685000	1.139459
	17.690000	1.116438
	17.695000	1.198656
	17.700000	1.215100
	17.705000	1.136170
	17.710000	1.113149
	17.715000	1.198656
	17.720000	1.215100
	17.725000	1.136170
	17.730000	1.116438
	17.735000	1.195367
	17.740000	1.218388
	17.745000	1.132882
	17.750000	1.116438
	17.755000	1.198656
	17.760000	1.215100
	17.765000	1.139459
	17.770000	1.116438
	17.775000	1.198656
	17.780000	1.215100
	17.785000	1.136170
	17.790000	1.116438
	17.795000	1.198656
	17.800000	1.218388
	17.805000	1.136170
	17.810000	1.119727
	17.815000	1.198656
	17.820000	1.215100
	17.825000	1.136170
	17.830000	1.116438
	17.835000	1.198656
	17.840000	1.215100
	17.845000	1.132882
	17.850000	1.116438
	17.855000	1.195367
	17.860000	1.215100
	17.865000	1.136170
	17.870000	1.116438
	17.875000	1.198656
	17.880000	1.218388
	17.885000	1.129593
	17.890000	1.116438
	17.895000	1.201945
	17.900000	1.211811
	17.905000	1.136170
	17.910000	1.119727
	17.915000	1.195367
	17.920000	1.215100
	17.925000	1.129593
	17.930000	1.116438
	17.935000	1.198656
	17.940000	1.215100
	17.945000	1.129593
	17.950000	1.116438
	17.955000	1.198656
	17.960000	1.215100
	17.965000	1.132882
	17.970000	1.113149
	17.975000	1.198656
	17.980000	1.215100
	17.985000	1.132882
	17.990000	1.119727
	17.995000	1.198656
	18.000000	1.215100
	18.005000	1.132882
	18.010000	1.119727
	18.015000	1.201945
	18.020000	1.211811
	18.025000	1.129593
	18.030000	1.119727
	18.035000	1.205234
	18.040000	1.211811
	18.045000	1.136170
	18.050000	1.119727
	18.055000	1.205234
	18.060000	1.215100
	18.065000	1.129593
	18.070000	1.119727
	18.075000	1.205234
	18.080000	1.215100
	18.085000	1.132882
	18.090000	1.116438
	18.095000	1.201945
	18.100000	1.218388
	18.105000	1.132882
	18.110000	1.123015
	18.115000	1.201945
	18.120000	1.221677
	18.125000	1.132882
	18.130000	1.119727
	18.135000	1.198656
	18.140000	1.218388
	18.145000	1.132882
	18.150000	1.123015
	18.155000	1.205234
	18.160000	1.218388
	18.165000	1.132882
	18.170000	1.119727
	18.175000	1.205234
	18.180000	1.215100
	18.185000	1.132882
	18.190000	1.123015
	18.195000	1.205234
	18.200000	1.218388
	18.205000	1.132882
	18.210000	1.123015
	18.215000	1.208522
	18.220000	1.218388
	18.225000	1.139459
	18.230000	1.123015
	18.235000	1.208522
	18.240000	1.221677
	18.245000	1.139459
	18.250000	1.126304
	18.255000	1.211811
	18.260000	1.221677
	18.265000	1.136170
	18.270000	1.126304
	18.275000	1.215100
	18.280000	1.224966
	18.285000	1.139459
	18.290000	1.129593
	18.295000	1.211811
	18.300000	1.228255
	18.305000	1.146037
	18.310000	1.129593
	18.315000	1.215100
	18.320000	1.228255
	18.325000	1.142748
	18.330000	1.136170
	18.335000	1.215100
	18.340000	1.231543
	18.345000	1.149325
	18.350000	1.142748
	18.355000	1.224966
	18.360000	1.231543
	18.365000	1.149325
	18.370000	1.139459
	18.375000	1.228255
	18.380000	1.234832
	18.385000	1.152614
	18.390000	1.142748
	18.395000	1.224966
	18.400000	1.231543
	18.405000	1.146037
	18.410000	1.142748
	18.415000	1.221677
	18.420000	1.231543
	18.425000	1.152614
	18.430000	1.142748
	18.435000	1.221677
	18.440000	1.228255
	18.445000	1.149325
	18.450000	1.142748
	18.455000	1.224966
	18.460000	1.231543
	18.465000	1.142748
	18.470000	1.139459
	18.475000	1.221677
	18.480000	1.231543
	18.485000	1.149325
	18.490000	1.139459
	18.495000	1.221677
	18.500000	1.224966
	18.505000	1.146037
	18.510000	1.139459
	18.515000	1.221677
	18.520000	1.231543
	18.525000	1.139459
	18.530000	1.132882
	18.535000	1.221677
	18.540000	1.224966
	18.545000	1.139459
	18.550000	1.139459
	18.555000	1.221677
	18.560000	1.224966
	18.565000	1.142748
	18.570000	1.139459
	18.575000	1.221677
	18.580000	1.228255
	18.585000	1.146037
	18.590000	1.139459
	18.595000	1.221677
	18.600000	1.231543
	18.605000	1.142748
	18.610000	1.146037
	18.615000	1.221677
	18.620000	1.224966
	18.625000	1.146037
	18.630000	1.139459
	18.635000	1.224966
	18.640000	1.224966
	18.645000	1.146037
	18.650000	1.139459
	18.655000	1.221677
	18.660000	1.228255
	18.665000	1.139459
	18.670000	1.136170
	18.675000	1.215100
	18.680000	1.221677
	18.685000	1.132882
	18.690000	1.129593
	18.695000	1.215100
	18.700000	1.215100
	18.705000	1.123015
	18.710000	1.119727
	18.715000	1.205234
	18.720000	1.201945
	18.725000	1.116438
	18.730000	1.113149
	18.735000	1.201945
	18.740000	1.198656
	18.745000	1.109861
	18.750000	1.106572
	18.755000	1.192079
	18.760000	1.185501
	18.765000	1.103283
	18.770000	1.099994
	18.775000	1.185501
	18.780000	1.182212
	18.785000	1.103283
	18.790000	1.096706
	18.795000	1.182212
	18.800000	1.185501
	18.805000	1.099994
	18.810000	1.099994
	18.815000	1.185501
	18.820000	1.182212
	18.825000	1.096706
	18.830000	1.103283
	18.835000	1.182212
	18.840000	1.188790
	18.845000	1.103283
	18.850000	1.099994
	18.855000	1.188790
	18.860000	1.185501
	18.865000	1.099994
	18.870000	1.103283
	18.875000	1.188790
	18.880000	1.188790
	18.885000	1.103283
	18.890000	1.099994
	18.895000	1.182212
	18.900000	1.185501
	18.905000	1.103283
	18.910000	1.103283
	18.915000	1.185501
	18.920000	1.188790
	18.925000	1.106572
	18.930000	1.106572
	18.935000	1.201945
	18.940000	1.205234
	18.945000	1.126304
	18.950000	1.129593
	18.955000	1.215100
	18.960000	1.224966
	18.965000	1.142748
	18.970000	1.142748
	18.975000	1.228255
	18.980000	1.224966
	18.985000	1.139459
	18.990000	1.142748
	18.995000	1.224966
	19.000000	1.224966
	19.005000	1.139459
	19.010000	1.146037
	19.015000	1.224966
	19.020000	1.221677
	19.025000	1.139459
	19.030000	1.136170
	19.035000	1.221677
	19.040000	1.215100
	19.045000	1.129593
	19.050000	1.129593
	19.055000	1.215100
	19.060000	1.205234
	19.065000	1.123015
	19.070000	1.123015
	19.075000	1.205234
	19.080000	1.198656
	19.085000	1.116438
	19.090000	1.116438
	19.095000	1.198656
	19.100000	1.192079
	19.105000	1.106572
	19.110000	1.106572
	19.115000	1.192079
	19.120000	1.188790
	19.125000	1.096706
	19.130000	1.103283
	19.135000	1.188790
	19.140000	1.185501
	19.145000	1.096706
	19.150000	1.096706
	19.155000	1.185501
	19.160000	1.178924
	19.165000	1.093417
	19.170000	1.096706
	19.175000	1.178924
	19.180000	1.178924
	19.185000	1.093417
	19.190000	1.096706
	19.195000	1.178924
	19.200000	1.175635
	19.205000	1.090128
	19.210000	1.096706
	19.215000	1.178924
	19.220000	1.175635
	19.225000	1.090128
	19.230000	1.096706
	19.235000	1.182212
	19.240000	1.178924
	19.245000	1.093417
	19.250000	1.099994
	19.255000	1.188790
	19.260000	1.182212
	19.265000	1.093417
	19.270000	1.103283
	19.275000	1.182212
	19.280000	1.178924
	19.285000	1.099994
	19.290000	1.106572
	19.295000	1.192079
	19.300000	1.185501
	19.305000	1.096706
	19.310000	1.106572
	19.315000	1.188790
	19.320000	1.182212
	19.325000	1.099994
	19.330000	1.106572
	19.335000	1.198656
	19.340000	1.188790
	19.345000	1.103283
	19.350000	1.113149
	19.355000	1.198656
	19.360000	1.192079
	19.365000	1.109861
	19.370000	1.119727
	19.375000	1.208522
	19.380000	1.195367
	19.385000	1.119727
	19.390000	1.132882
	19.395000	1.221677
	19.400000	1.221677
	19.405000	1.139459
	19.410000	1.152614
	19.415000	1.244698
	19.420000	1.238121
	19.425000	1.155903
	19.430000	1.169058
	19.435000	1.257853
	19.440000	1.247987
	19.445000	1.162480
	19.450000	1.178924
	19.455000	1.267719
	19.460000	1.257853
	19.465000	1.169058
	19.470000	1.178924
	19.475000	1.261142
	19.480000	1.251276
	19.485000	1.172346
	19.490000	1.175635
	19.495000	1.261142
	19.500000	1.247987
	19.505000	1.162480
	19.510000	1.175635
	19.515000	1.254564
	19.520000	1.244698
	19.525000	1.155903
	19.530000	1.165769
	19.535000	1.247987
	19.540000	1.238121
	19.545000	1.152614
	19.550000	1.162480
	19.555000	1.244698
	19.560000	1.228255
	19.565000	1.142748
	19.570000	1.155903
	19.575000	1.241409
	19.580000	1.224966
	19.585000	1.139459
	19.590000	1.149325
	19.595000	1.234832
	19.600000	1.215100
	19.605000	1.136170
	19.610000	1.149325
	19.615000	1.231543
	19.620000	1.218388
	19.625000	1.129593
	19.630000	1.139459
	19.635000	1.224966
	19.640000	1.211811
	19.645000	1.126304
	19.650000	1.132882
	19.655000	1.218388
	19.660000	1.201945
	19.665000	1.123015
	19.670000	1.132882
	19.675000	1.211811
	19.680000	1.205234
	19.685000	1.116438
	19.690000	1.126304
	19.695000	1.208522
	19.700000	1.195367
	19.705000	1.109861
	19.710000	1.123015
	19.715000	1.201945
	19.720000	1.185501
	19.725000	1.099994
	19.730000	1.106572
	19.735000	1.182212
	19.740000	1.165769
	19.745000	1.083551
	19.750000	1.096706
	19.755000	1.175635
	19.760000	1.159191
	19.765000	1.080262
	19.770000	1.093417
	19.775000	1.172346
	19.780000	1.159191
	19.785000	1.076973
	19.790000	1.090128
	19.795000	1.175635
	19.800000	1.165769
	19.805000	1.076973
	19.810000	1.096706
	19.815000	1.182212
	19.820000	1.162480
	19.825000	1.083551
	19.830000	1.099994
	19.835000	1.182212
	19.840000	1.169058
	19.845000	1.083551
	19.850000	1.096706
	19.855000	1.185501
	19.860000	1.165769
	19.865000	1.090128
	19.870000	1.103283
	19.875000	1.185501
	19.880000	1.169058
	19.885000	1.090128
	19.890000	1.106572
	19.895000	1.192079
	19.900000	1.172346
	19.905000	1.090128
	19.910000	1.106572
	19.915000	1.192079
	19.920000	1.175635
	19.925000	1.090128
	19.930000	1.106572
	19.935000	1.188790
	19.940000	1.175635
	19.945000	1.090128
	19.950000	1.109861
	19.955000	1.195367
	19.960000	1.172346
	19.965000	1.090128
	19.970000	1.113149
	19.975000	1.195367
	19.980000	1.175635
	19.985000	1.090128
	19.990000	1.113149
	19.995000	1.195367
	20.000000	1.175635
	20.005000	1.093417
	20.010000	1.109861
	20.015000	1.195367
	20.020000	1.175635
	20.025000	1.090128
	20.030000	1.109861
	20.035000	1.192079
	20.040000	1.172346
	20.045000	1.090128
	20.050000	1.109861
	20.055000	1.192079
	20.060000	1.172346
	20.065000	1.086840
	20.070000	1.109861
	20.075000	1.192079
	20.080000	1.169058
	20.085000	1.086840
	20.090000	1.106572
	20.095000	1.188790
	20.100000	1.165769
	20.105000	1.086840
	20.110000	1.106572
	20.115000	1.192079
	20.120000	1.169058
	20.125000	1.083551
	20.130000	1.109861
	20.135000	1.192079
	20.140000	1.172346
	20.145000	1.090128
	20.150000	1.109861
	20.155000	1.188790
	20.160000	1.165769
	20.165000	1.086840
	20.170000	1.109861
	20.175000	1.192079
	20.180000	1.169058
	20.185000	1.090128
	20.190000	1.109861
	20.195000	1.192079
	20.200000	1.169058
	20.205000	1.090128
	20.210000	1.116438
	20.215000	1.198656
	20.220000	1.169058
	20.225000	1.090128
	20.230000	1.113149
	20.235000	1.195367
	20.240000	1.172346
	20.245000	1.090128
	20.250000	1.116438
	20.255000	1.192079
	20.260000	1.169058
	20.265000	1.090128
	20.270000	1.109861
	20.275000	1.195367
	20.280000	1.172346
	20.285000	1.090128
	20.290000	1.113149
	20.295000	1.195367
	20.300000	1.175635
	20.305000	1.090128
	20.310000	1.116438
	20.315000	1.198656
	20.320000	1.172346
	20.325000	1.090128
	20.330000	1.119727
	20.335000	1.198656
	20.340000	1.175635
	20.345000	1.093417
	20.350000	1.123015
	20.355000	1.201945
	20.360000	1.175635
	20.365000	1.090128
	20.370000	1.119727
	20.375000	1.198656
	20.380000	1.178924
	20.385000	1.093417
	20.390000	1.123015
	20.395000	1.198656
	20.400000	1.175635
	20.405000	1.090128
	20.410000	1.116438
	20.415000	1.198656
	20.420000	1.175635
	20.425000	1.093417
	20.430000	1.116438
	20.435000	1.201945
	20.440000	1.175635
	20.445000	1.093417
	20.450000	1.119727
	20.455000	1.198656
	20.460000	1.175635
	20.465000	1.093417
	20.470000	1.119727
	20.475000	1.205234
	20.480000	1.172346
	20.485000	1.096706
	20.490000	1.119727
	20.495000	1.205234
	20.500000	1.175635
	20.505000	1.096706
	20.510000	1.119727
	20.515000	1.201945
	20.520000	1.172346
	20.525000	1.093417
	20.530000	1.126304
	20.535000	1.198656
	20.540000	1.175635
	20.545000	1.096706
	20.550000	1.126304
	20.555000	1.205234
	20.560000	1.172346
	20.565000	1.096706
	20.570000	1.129593
	20.575000	1.198656
	20.580000	1.178924
	20.585000	1.093417
	20.590000	1.123015
	20.595000	1.205234
	20.600000	1.175635
	20.605000	1.096706
	20.610000	1.126304
	20.615000	1.205234
	20.620000	1.175635
	20.625000	1.093417
	20.630000	1.123015
	20.635000	1.208522
	20.640000	1.175635
	20.645000	1.093417
	20.650000	1.126304
	20.655000	1.201945
	20.660000	1.178924
	20.665000	1.093417
	20.670000	1.126304
	20.675000	1.205234
	20.680000	1.178924
	20.685000	1.096706
	20.690000	1.126304
	20.695000	1.205234
	20.700000	1.175635
	20.705000	1.096706
	20.710000	1.123015
	20.715000	1.201945
	20.720000	1.175635
	20.725000	1.096706
	20.730000	1.126304
	20.735000	1.208522
	20.740000	1.178924
	20.745000	1.099994
	20.750000	1.132882
	20.755000	1.205234
	20.760000	1.172346
	20.765000	1.096706
	20.770000	1.129593
	20.775000	1.208522
	20.780000	1.175635
	20.785000	1.093417
	20.790000	1.129593
	20.795000	1.201945
	20.800000	1.175635
	20.805000	1.099994
	20.810000	1.126304
	20.815000	1.205234
	20.820000	1.178924
	20.825000	1.093417
	20.830000	1.129593
	20.835000	1.208522
	20.840000	1.175635
	20.845000	1.099994
	20.850000	1.129593
	20.855000	1.205234
	20.860000	1.175635
	20.865000	1.093417
	20.870000	1.126304
	20.875000	1.211811
	20.880000	1.172346
	20.885000	1.103283
	20.890000	1.132882
	20.895000	1.208522
	20.900000	1.178924
	20.905000	1.096706
	20.910000	1.123015
	20.915000	1.208522
	20.920000	1.178924
	20.925000	1.093417
	20.930000	1.136170
	20.935000	1.205234
	20.940000	1.175635
	20.945000	1.096706
	20.950000	1.132882
	20.955000	1.208522
	20.960000	1.175635
	20.965000	1.099994
	20.970000	1.132882
	20.975000	1.208522
	20.980000	1.172346
	20.985000	1.096706
	20.990000	1.129593
	20.995000	1.205234
	21.000000	1.175635
	21.005000	1.099994
	21.010000	1.132882
	21.015000	1.208522
	21.020000	1.172346
	21.025000	1.093417
	21.030000	1.132882
	21.035000	1.208522
	21.040000	1.172346
	21.045000	1.096706
	21.050000	1.132882
	21.055000	1.205234
	21.060000	1.175635
	21.065000	1.093417
	21.070000	1.129593
	21.075000	1.208522
	21.080000	1.172346
	21.085000	1.096706
	21.090000	1.129593
	21.095000	1.205234
	21.100000	1.169058
	21.105000	1.093417
	21.110000	1.129593
	21.115000	1.208522
	21.120000	1.172346
	21.125000	1.096706
	21.130000	1.132882
	21.135000	1.205234
	21.140000	1.169058
	21.145000	1.093417
	21.150000	1.129593
	21.155000	1.208522
	21.160000	1.172346
	21.165000	1.093417
	21.170000	1.129593
	21.175000	1.205234
	21.180000	1.172346
	21.185000	1.093417
	21.190000	1.132882
	21.195000	1.211811
	21.200000	1.172346
	21.205000	1.093417
	21.210000	1.126304
	21.215000	1.205234
	21.220000	1.169058
	21.225000	1.090128
	21.230000	1.129593
	21.235000	1.208522
	21.240000	1.165769
	21.245000	1.090128
	21.250000	1.126304
	21.255000	1.205234
	21.260000	1.172346
	21.265000	1.093417
	21.270000	1.129593
	21.275000	1.205234
	21.280000	1.169058
	21.285000	1.093417
	21.290000	1.136170
	21.295000	1.205234
	21.300000	1.169058
	21.305000	1.093417
	21.310000	1.129593
	21.315000	1.208522
	21.320000	1.169058
	21.325000	1.093417
	21.330000	1.132882
	21.335000	1.211811
	21.340000	1.169058
	21.345000	1.093417
	21.350000	1.139459
	21.355000	1.205234
	21.360000	1.169058
	21.365000	1.090128
	21.370000	1.132882
	21.375000	1.208522
	21.380000	1.169058
	21.385000	1.090128
	21.390000	1.132882
	21.395000	1.208522
	21.400000	1.169058
	21.405000	1.096706
	21.410000	1.136170
	21.415000	1.208522
	21.420000	1.172346
	21.425000	1.096706
	21.430000	1.136170
	21.435000	1.208522
	21.440000	1.165769
	21.445000	1.090128
	21.450000	1.129593
	21.455000	1.211811
	21.460000	1.165769
	21.465000	1.090128
	21.470000	1.136170
	21.475000	1.211811
	21.480000	1.165769
	21.485000	1.093417
	21.490000	1.132882
	21.495000	1.208522
	21.500000	1.165769
	21.505000	1.093417
	21.510000	1.136170
	21.515000	1.208522
	21.520000	1.169058
	21.525000	1.093417
	21.530000	1.136170
	21.535000	1.208522
	21.540000	1.165769
	21.545000	1.090128
	21.550000	1.139459
	21.555000	1.205234
	21.560000	1.162480
	21.565000	1.096706
	21.570000	1.136170
	21.575000	1.208522
	21.580000	1.165769
	21.585000	1.093417
	21.590000	1.136170
	21.595000	1.205234
	21.600000	1.169058
	21.605000	1.090128
	21.610000	1.136170
	21.615000	1.208522
	21.620000	1.162480
	21.625000	1.093417
	21.630000	1.139459
	21.635000	1.205234
	21.640000	1.162480
	21.645000	1.093417
	21.650000	1.139459
	21.655000	1.208522
	21.660000	1.165769
	21.665000	1.093417
	21.670000	1.139459
	21.675000	1.215100
	21.680000	1.169058
	21.685000	1.093417
	21.690000	1.136170
	21.695000	1.211811
	21.700000	1.165769
	21.705000	1.093417
	21.710000	1.142748
	21.715000	1.208522
	21.720000	1.165769
	21.725000	1.093417
	21.730000	1.136170
	21.735000	1.215100
	21.740000	1.165769
	21.745000	1.093417
	21.750000	1.142748
	21.755000	1.208522
	21.760000	1.165769
	21.765000	1.093417
	21.770000	1.139459
	21.775000	1.211811
	21.780000	1.162480
	21.785000	1.093417
	21.790000	1.139459
	21.795000	1.211811
	21.800000	1.162480
	21.805000	1.096706
	21.810000	1.139459
	21.815000	1.208522
	21.820000	1.162480
	21.825000	1.090128
	21.830000	1.142748
	21.835000	1.208522
	21.840000	1.162480
	21.845000	1.093417
	21.850000	1.142748
	21.855000	1.208522
	21.860000	1.159191
	21.865000	1.093417
	21.870000	1.136170
	21.875000	1.208522
	21.880000	1.162480
	21.885000	1.090128
	21.890000	1.142748
	21.895000	1.211811
	21.900000	1.165769
	21.905000	1.093417
	21.910000	1.142748
	21.915000	1.208522
	21.920000	1.159191
	21.925000	1.090128
	21.930000	1.139459
	21.935000	1.211811
	21.940000	1.162480
	21.945000	1.093417
	21.950000	1.139459
	21.955000	1.211811
	21.960000	1.162480
	21.965000	1.090128
	21.970000	1.136170
	21.975000	1.211811
	21.980000	1.162480
	21.985000	1.090128
	21.990000	1.139459
	21.995000	1.211811
	22.000000	1.159191
	22.005000	1.093417
	22.010000	1.139459
	22.015000	1.208522
	22.020000	1.159191
	22.025000	1.093417
	22.030000	1.142748
	22.035000	1.208522
	22.040000	1.162480
	22.045000	1.093417
	22.050000	1.136170
	22.055000	1.208522
	22.060000	1.155903
	22.065000	1.090128
	22.070000	1.136170
	22.075000	1.205234
	22.080000	1.162480
	22.085000	1.093417
	22.090000	1.139459
	22.095000	1.211811
	22.100000	1.155903
	22.105000	1.090128
	22.110000	1.139459
	22.115000	1.208522
	22.120000	1.159191
	22.125000	1.090128
	22.130000	1.139459
	22.135000	1.201945
	22.140000	1.159191
	22.145000	1.090128
	22.150000	1.139459
	22.155000	1.208522
	22.160000	1.162480
	22.165000	1.086840
	22.170000	1.142748
	22.175000	1.208522
	22.180000	1.155903
	22.185000	1.090128
	22.190000	1.142748
	22.195000	1.205234
	22.200000	1.155903
	22.205000	1.086840
	22.210000	1.139459
	22.215000	1.208522
	22.220000	1.152614
	22.225000	1.083551
	22.230000	1.142748
	22.235000	1.208522
	22.240000	1.155903
	22.245000	1.090128
	22.250000	1.139459
	22.255000	1.201945
	22.260000	1.155903
	22.265000	1.086840
	22.270000	1.142748
	22.275000	1.205234
	22.280000	1.152614
	22.285000	1.086840
	22.290000	1.142748
	22.295000	1.201945
	22.300000	1.155903
	22.305000	1.086840
	22.310000	1.139459
	22.315000	1.205234
	22.320000	1.152614
	22.325000	1.086840
	22.330000	1.142748
	22.335000	1.208522
	22.340000	1.152614
	22.345000	1.093417
	22.350000	1.142748
	22.355000	1.208522
	22.360000	1.155903
	22.365000	1.093417
	22.370000	1.146037
	22.375000	1.211811
	22.380000	1.152614
	22.385000	1.090128
	22.390000	1.139459
	22.395000	1.208522
	22.400000	1.155903
	22.405000	1.093417
	22.410000	1.146037
	22.415000	1.208522
	22.420000	1.155903
	22.425000	1.093417
	22.430000	1.146037
	22.435000	1.208522
	22.440000	1.152614
	22.445000	1.090128
	22.450000	1.146037
	22.455000	1.205234
	22.460000	1.155903
	22.465000	1.086840
	22.470000	1.146037
	22.475000	1.208522
	22.480000	1.149325
	22.485000	1.086840
	22.490000	1.146037
	22.495000	1.208522
	22.500000	1.149325
	22.505000	1.086840
	22.510000	1.146037
	22.515000	1.215100
	22.520000	1.155903
	22.525000	1.093417
	22.530000	1.149325
	22.535000	1.208522
	22.540000	1.155903
	22.545000	1.090128
	22.550000	1.146037
	22.555000	1.211811
	22.560000	1.149325
	22.565000	1.090128
	22.570000	1.142748
	22.575000	1.208522
	22.580000	1.149325
	22.585000	1.090128
	22.590000	1.149325
	22.595000	1.205234
	22.600000	1.149325
	22.605000	1.093417
	22.610000	1.146037
	22.615000	1.211811
	22.620000	1.152614
	22.625000	1.090128
	22.630000	1.146037
	22.635000	1.208522
	22.640000	1.146037
	22.645000	1.090128
	22.650000	1.146037
	22.655000	1.208522
	22.660000	1.152614
	22.665000	1.086840
	22.670000	1.146037
	22.675000	1.208522
	22.680000	1.152614
	22.685000	1.083551
	22.690000	1.146037
	22.695000	1.205234
	22.700000	1.152614
	22.705000	1.086840
	22.710000	1.142748
	22.715000	1.201945
	22.720000	1.149325
	22.725000	1.083551
	22.730000	1.139459
	22.735000	1.198656
	22.740000	1.139459
	22.745000	1.083551
	22.750000	1.139459
	22.755000	1.201945
	22.760000	1.142748
	22.765000	1.080262
	22.770000	1.136170
	22.775000	1.198656
	22.780000	1.136170
	22.785000	1.073685
	22.790000	1.136170
	22.795000	1.198656
	22.800000	1.136170
	22.805000	1.076973
	22.810000	1.136170
	22.815000	1.195367
	22.820000	1.136170
	22.825000	1.073685
	22.830000	1.136170
	22.835000	1.195367
	22.840000	1.136170
	22.845000	1.080262
	22.850000	1.136170
	22.855000	1.192079
	22.860000	1.136170
	22.865000	1.073685
	22.870000	1.132882
	22.875000	1.195367
	22.880000	1.129593
	22.885000	1.076973
	22.890000	1.136170
	22.895000	1.195367
	22.900000	1.132882
	22.905000	1.076973
	22.910000	1.136170
	22.915000	1.195367
	22.920000	1.136170
	22.925000	1.076973
	22.930000	1.132882
	22.935000	1.195367
	22.940000	1.132882
	22.945000	1.070396
	22.950000	1.136170
	22.955000	1.188790
	22.960000	1.132882
	22.965000	1.073685
	22.970000	1.136170
	22.975000	1.195367
	22.980000	1.132882
	22.985000	1.070396
	22.990000	1.129593
	22.995000	1.192079
	23.000000	1.132882
	23.005000	1.076973
	23.010000	1.136170
	23.015000	1.188790
	23.020000	1.132882
	23.025000	1.073685
	23.030000	1.132882
	23.035000	1.195367
	23.040000	1.132882
	23.045000	1.070396
	23.050000	1.132882
	23.055000	1.192079
	23.060000	1.132882
	23.065000	1.073685
	23.070000	1.139459
	23.075000	1.198656
	23.080000	1.132882
	23.085000	1.076973
	23.090000	1.136170
	23.095000	1.195367
	23.100000	1.136170
	23.105000	1.080262
	23.110000	1.139459
	23.115000	1.198656
	23.120000	1.136170
	23.125000	1.076973
	23.130000	1.142748
	23.135000	1.198656
	23.140000	1.132882
	23.145000	1.076973
	23.150000	1.142748
	23.155000	1.195367
	23.160000	1.136170
	23.165000	1.080262
	23.170000	1.142748
	23.175000	1.205234
	23.180000	1.136170
	23.185000	1.080262
	23.190000	1.142748
	23.195000	1.201945
	23.200000	1.142748
	23.205000	1.083551
	23.210000	1.152614
	23.215000	1.208522
	23.220000	1.142748
	23.225000	1.083551
	23.230000	1.149325
	23.235000	1.201945
	23.240000	1.139459
	23.245000	1.086840
	23.250000	1.149325
	23.255000	1.205234
	23.260000	1.142748
	23.265000	1.086840
	23.270000	1.152614
	23.275000	1.205234
	23.280000	1.146037
	23.285000	1.086840
	23.290000	1.155903
	23.295000	1.205234
	23.300000	1.142748
	23.305000	1.086840
	23.310000	1.152614
	23.315000	1.208522
	23.320000	1.139459
	23.325000	1.086840
	23.330000	1.155903
	23.335000	1.208522
	23.340000	1.142748
	23.345000	1.090128
	23.350000	1.155903
	23.355000	1.208522
	23.360000	1.146037
	23.365000	1.096706
	23.370000	1.155903
	23.375000	1.211811
	23.380000	1.149325
	23.385000	1.093417
	23.390000	1.169058
	23.395000	1.215100
	23.400000	1.146037
	23.405000	1.099994
	23.410000	1.162480
	23.415000	1.215100
	23.420000	1.152614
	23.425000	1.103283
	23.430000	1.169058
	23.435000	1.215100
	23.440000	1.155903
	23.445000	1.099994
	23.450000	1.162480
	23.455000	1.215100
	23.460000	1.149325
	23.465000	1.096706
	23.470000	1.162480
	23.475000	1.208522
	23.480000	1.142748
	23.485000	1.090128
	23.490000	1.155903
	23.495000	1.205234
	23.500000	1.139459
	23.505000	1.086840
	23.510000	1.146037
	23.515000	1.198656
	23.520000	1.132882
	23.525000	1.080262
	23.530000	1.142748
	23.535000	1.192079
	23.540000	1.123015
	23.545000	1.070396
	23.550000	1.132882
	23.555000	1.188790
	23.560000	1.119727
	23.565000	1.073685
	23.570000	1.136170
	23.575000	1.185501
	23.580000	1.119727
	23.585000	1.067107
	23.590000	1.132882
	23.595000	1.182212
	23.600000	1.116438
	23.605000	1.067107
	23.610000	1.132882
	23.615000	1.185501
	23.620000	1.123015
	23.625000	1.070396
	23.630000	1.136170
	23.635000	1.185501
	23.640000	1.123015
	23.645000	1.070396
	23.650000	1.142748
	23.655000	1.192079
	23.660000	1.126304
	23.665000	1.076973
	23.670000	1.142748
	23.675000	1.195367
	23.680000	1.129593
	23.685000	1.076973
	23.690000	1.142748
	23.695000	1.198656
	23.700000	1.129593
	23.705000	1.080262
	23.710000	1.146037
	23.715000	1.198656
	23.720000	1.129593
	23.725000	1.080262
	23.730000	1.149325
	23.735000	1.198656
	23.740000	1.129593
	23.745000	1.083551
	23.750000	1.149325
	23.755000	1.195367
	23.760000	1.129593
	23.765000	1.086840
	23.770000	1.152614
	23.775000	1.198656
	23.780000	1.132882
	23.785000	1.086840
	23.790000	1.152614
	23.795000	1.201945
	23.800000	1.132882
	23.805000	1.083551
	23.810000	1.152614
	23.815000	1.201945
	23.820000	1.136170
	23.825000	1.086840
	23.830000	1.152614
	23.835000	1.208522
	23.840000	1.132882
	23.845000	1.086840
	23.850000	1.162480
	23.855000	1.208522
	23.860000	1.142748
	23.865000	1.093417
	23.870000	1.165769
	23.875000	1.215100
	23.880000	1.146037
	23.885000	1.096706
	23.890000	1.165769
	23.895000	1.215100
	23.900000	1.149325
	23.905000	1.103283
	23.910000	1.175635
	23.915000	1.221677
	23.920000	1.149325
	23.925000	1.106572
	23.930000	1.178924
	23.935000	1.224966
	23.940000	1.152614
	23.945000	1.109861
	23.950000	1.175635
	23.955000	1.224966
	23.960000	1.155903
	23.965000	1.109861
	23.970000	1.172346
	23.975000	1.218388
	23.980000	1.149325
	23.985000	1.106572
	23.990000	1.175635
	23.995000	1.218388
	24.000000	1.149325
	24.005000	1.096706
	24.010000	1.169058
	24.015000	1.215100
	24.020000	1.146037
	24.025000	1.099994
	24.030000	1.169058
	24.035000	1.208522
	24.040000	1.142748
	24.045000	1.096706
	24.050000	1.159191
	24.055000	1.208522
	24.060000	1.136170
	24.065000	1.086840
	24.070000	1.162480
	24.075000	1.195367
	24.080000	1.123015
	24.085000	1.076973
	24.090000	1.149325
	24.095000	1.192079
	24.100000	1.126304
	24.105000	1.076973
	24.110000	1.149325
	24.115000	1.192079
	24.120000	1.123015
	24.125000	1.076973
	24.130000	1.149325
	24.135000	1.192079
	24.140000	1.123015
	24.145000	1.083551
	24.150000	1.152614
	24.155000	1.195367
	24.160000	1.132882
	24.165000	1.086840
	24.170000	1.162480
	24.175000	1.211811
	24.180000	1.142748
	24.185000	1.103283
	24.190000	1.182212
	24.195000	1.224966
	24.200000	1.152614
	24.205000	1.113149
	24.210000	1.182212
	24.215000	1.224966
	24.220000	1.152614
	24.225000	1.113149
	24.230000	1.182212
	24.235000	1.221677
	24.240000	1.146037
	24.245000	1.103283
	24.250000	1.175635
	24.255000	1.218388
	24.260000	1.142748
	24.265000	1.103283
	24.270000	1.169058
	24.275000	1.211811
	24.280000	1.136170
	24.285000	1.093417
	24.290000	1.169058
	24.295000	1.208522
	24.300000	1.136170
	24.305000	1.090128
	24.310000	1.159191
	24.315000	1.201945
	24.320000	1.123015
	24.325000	1.080262
	24.330000	1.155903
	24.335000	1.195367
	24.340000	1.123015
	24.345000	1.073685
	24.350000	1.149325
	24.355000	1.188790
	24.360000	1.113149
	24.365000	1.070396
	24.370000	1.142748
	24.375000	1.185501
	24.380000	1.109861
	24.385000	1.070396
	24.390000	1.142748
	24.395000	1.175635
	24.400000	1.109861
	24.405000	1.067107
	24.410000	1.136170
	24.415000	1.175635
	24.420000	1.099994
	24.425000	1.063818
	24.430000	1.139459
	24.435000	1.175635
	24.440000	1.103283
	24.445000	1.063818
	24.450000	1.139459
	24.455000	1.172346
	24.460000	1.103283
	24.465000	1.067107
	24.470000	1.139459
	24.475000	1.172346
	24.480000	1.103283
	24.485000	1.063818
	24.490000	1.136170
	24.495000	1.175635
	24.500000	1.103283
	24.505000	1.063818
	24.510000	1.139459
	24.515000	1.178924
	24.520000	1.103283
	24.525000	1.067107
	24.530000	1.142748
	24.535000	1.185501
	24.540000	1.113149
	24.545000	1.070396
	24.550000	1.142748
	24.555000	1.188790
	24.560000	1.109861
	24.565000	1.070396
	24.570000	1.146037
	24.575000	1.185501
	24.580000	1.113149
	24.585000	1.076973
	24.590000	1.149325
	24.595000	1.185501
	24.600000	1.113149
	24.605000	1.073685
	24.610000	1.149325
	24.615000	1.192079
	24.620000	1.116438
	24.625000	1.076973
	24.630000	1.152614
	24.635000	1.192079
	24.640000	1.116438
	24.645000	1.080262
	24.650000	1.159191
	24.655000	1.201945
	24.660000	1.129593
	24.665000	1.093417
	24.670000	1.169058
	24.675000	1.208522
	24.680000	1.139459
	24.685000	1.103283
	24.690000	1.185501
	24.695000	1.221677
	24.700000	1.146037
	24.705000	1.116438
	24.710000	1.195367
	24.715000	1.231543
	24.720000	1.155903
	24.725000	1.123015
	24.730000	1.198656
	24.735000	1.234832
	24.740000	1.155903
	24.745000	1.123015
	24.750000	1.188790
	24.755000	1.228255
	24.760000	1.149325
	24.765000	1.116438
	24.770000	1.188790
	24.775000	1.221677
	24.780000	1.142748
	24.785000	1.106572
	24.790000	1.182212
	24.795000	1.215100
	24.800000	1.139459
	24.805000	1.099994
	24.810000	1.185501
	24.815000	1.211811
	24.820000	1.136170
	24.825000	1.103283
	24.830000	1.175635
	24.835000	1.211811
	24.840000	1.129593
	24.845000	1.103283
	24.850000	1.175635
	24.855000	1.208522
	24.860000	1.129593
	24.865000	1.096706
	24.870000	1.172346
	24.875000	1.201945
	24.880000	1.126304
	24.885000	1.093417
	24.890000	1.169058
	24.895000	1.201945
	24.900000	1.126304
	24.905000	1.093417
	24.910000	1.165769
	24.915000	1.201945
	24.920000	1.119727
	24.925000	1.083551
	24.930000	1.162480
	24.935000	1.192079
	24.940000	1.116438
	24.945000	1.076973
	24.950000	1.155903
	24.955000	1.185501
	24.960000	1.103283
	24.965000	1.067107
	24.970000	1.146037
	24.975000	1.175635
	24.980000	1.090128
	24.985000	1.053952
	24.990000	1.129593
	24.995000	1.155903
	25.000000	1.076973
	25.005000	1.044086
	25.010000	1.123015
	25.015000	1.159191
	25.020000	1.076973
	25.025000	1.047375
	25.030000	1.119727
	25.035000	1.152614
	25.040000	1.070396
	25.045000	1.044086
	25.050000	1.119727
	25.055000	1.152614
	25.060000	1.073685
	25.065000	1.044086
	25.070000	1.123015
	25.075000	1.152614
	25.080000	1.076973
	25.085000	1.044086
	25.090000	1.123015
	25.095000	1.155903
	25.100000	1.076973
	25.105000	1.047375
	25.110000	1.123015
	25.115000	1.155903
	25.120000	1.080262
	25.125000	1.044086
	25.130000	1.126304
	25.135000	1.159191
	25.140000	1.076973
	25.145000	1.050664
	25.150000	1.126304
	25.155000	1.155903
	25.160000	1.076973
	25.165000	1.050664
	25.170000	1.129593
	25.175000	1.159191
	25.180000	1.080262
	25.185000	1.050664
	25.190000	1.129593
	25.195000	1.162480
	25.200000	1.080262
	25.205000	1.053952
	25.210000	1.132882
	25.215000	1.162480
	25.220000	1.083551
	25.225000	1.053952
	25.230000	1.129593
	25.235000	1.162480
	25.240000	1.086840
	25.245000	1.053952
	25.250000	1.136170
	25.255000	1.162480
	25.260000	1.083551
	25.265000	1.053952
	25.270000	1.136170
	25.275000	1.165769
	25.280000	1.083551
	25.285000	1.053952
	25.290000	1.142748
	25.295000	1.165769
	25.300000	1.086840
	25.305000	1.057241
	25.310000	1.139459
	25.315000	1.162480
	25.320000	1.086840
	25.325000	1.057241
	25.330000	1.139459
	25.335000	1.165769
	25.340000	1.083551
	25.345000	1.053952
	25.350000	1.139459
	25.355000	1.162480
	25.360000	1.083551
	25.365000	1.060530
	25.370000	1.136170
	25.375000	1.169058
	25.380000	1.086840
	25.385000	1.060530
	25.390000	1.139459
	25.395000	1.169058
	25.400000	1.083551
	25.405000	1.057241
	25.410000	1.142748
	25.415000	1.165769
	25.420000	1.083551
	25.425000	1.057241
	25.430000	1.139459
	25.435000	1.169058
	25.440000	1.086840
	25.445000	1.060530
	25.450000	1.142748
	25.455000	1.172346
	25.460000	1.086840
	25.465000	1.060530
	25.470000	1.142748
	25.475000	1.165769
	25.480000	1.083551
	25.485000	1.060530
	25.490000	1.136170
	25.495000	1.172346
	25.500000	1.086840
	25.505000	1.057241
	25.510000	1.142748
	25.515000	1.165769
	25.520000	1.086840
	25.525000	1.063818
	25.530000	1.146037
	25.535000	1.169058
	25.540000	1.086840
	25.545000	1.070396
	25.550000	1.142748
	25.555000	1.172346
	25.560000	1.086840
	25.565000	1.067107
	25.570000	1.149325
	25.575000	1.169058
	25.580000	1.090128
	25.585000	1.067107
	25.590000	1.146037
	25.595000	1.175635
	25.600000	1.090128
	25.605000	1.067107
	25.610000	1.149325
	25.615000	1.169058
	25.620000	1.086840
	25.625000	1.067107
	25.630000	1.149325
	25.635000	1.172346
	25.640000	1.090128
	25.645000	1.067107
	25.650000	1.146037
	25.655000	1.172346
	25.660000	1.086840
	25.665000	1.067107
	25.670000	1.146037
	25.675000	1.172346
	25.680000	1.090128
	25.685000	1.067107
	25.690000	1.149325
	25.695000	1.172346
	25.700000	1.086840
	25.705000	1.067107
	25.710000	1.146037
	25.715000	1.172346
	25.720000	1.090128
	25.725000	1.063818
	25.730000	1.146037
	25.735000	1.169058
	25.740000	1.086840
	25.745000	1.067107
	25.750000	1.149325
	25.755000	1.172346
	25.760000	1.090128
	25.765000	1.067107
	25.770000	1.149325
	25.775000	1.169058
	25.780000	1.086840
	25.785000	1.067107
	25.790000	1.152614
	25.795000	1.172346
	25.800000	1.086840
	25.805000	1.067107
	25.810000	1.146037
	25.815000	1.172346
	25.820000	1.086840
	25.825000	1.070396
	25.830000	1.152614
	25.835000	1.172346
	25.840000	1.090128
	25.845000	1.067107
	25.850000	1.152614
	25.855000	1.172346
	25.860000	1.086840
	25.865000	1.073685
	25.870000	1.155903
	25.875000	1.172346
	25.880000	1.086840
	25.885000	1.070396
	25.890000	1.152614
	25.895000	1.169058
	25.900000	1.086840
	25.905000	1.070396
	25.910000	1.152614
	25.915000	1.169058
	25.920000	1.083551
	25.925000	1.070396
	25.930000	1.152614
	25.935000	1.169058
	25.940000	1.086840
	25.945000	1.067107
	25.950000	1.152614
	25.955000	1.169058
	25.960000	1.086840
	25.965000	1.073685
	25.970000	1.152614
	25.975000	1.165769
	25.980000	1.083551
	25.985000	1.070396
	25.990000	1.152614
	25.995000	1.169058
	26.000000	1.080262
	26.005000	1.067107
	26.010000	1.152614
	26.015000	1.169058
	26.020000	1.083551
	26.025000	1.067107
	26.030000	1.149325
	26.035000	1.169058
	26.040000	1.086840
	26.045000	1.067107
	26.050000	1.155903
	26.055000	1.165769
	26.060000	1.086840
	26.065000	1.067107
	26.070000	1.152614
	26.075000	1.169058
	26.080000	1.086840
	26.085000	1.067107
	26.090000	1.152614
	26.095000	1.169058
	26.100000	1.080262
	26.105000	1.067107
	26.110000	1.149325
	26.115000	1.165769
	26.120000	1.083551
	26.125000	1.067107
	26.130000	1.152614
	26.135000	1.169058
	26.140000	1.083551
	26.145000	1.067107
	26.150000	1.162480
	26.155000	1.169058
	26.160000	1.086840
	26.165000	1.067107
	26.170000	1.152614
	26.175000	1.169058
	26.180000	1.080262
	26.185000	1.073685
	26.190000	1.152614
	26.195000	1.165769
	26.200000	1.083551
	26.205000	1.070396
	26.210000	1.152614
	26.215000	1.165769
	26.220000	1.086840
	26.225000	1.070396
	26.230000	1.155903
	26.235000	1.169058
	26.240000	1.083551
	26.245000	1.073685
	26.250000	1.155903
	26.255000	1.169058
	26.260000	1.083551
	26.265000	1.073685
	26.270000	1.155903
	26.275000	1.169058
	26.280000	1.080262
	26.285000	1.070396
	26.290000	1.155903
	26.295000	1.169058
	26.300000	1.083551
	26.305000	1.073685
	26.310000	1.159191
	26.315000	1.162480
	26.320000	1.086840
	26.325000	1.073685
	26.330000	1.162480
	26.335000	1.172346
	26.340000	1.086840
	26.345000	1.073685
	26.350000	1.155903
	26.355000	1.165769
	26.360000	1.083551
	26.365000	1.070396
	26.370000	1.152614
	26.375000	1.169058
	26.380000	1.083551
	26.385000	1.073685
	26.390000	1.159191
	26.395000	1.169058
	26.400000	1.080262
	26.405000	1.076973
	26.410000	1.155903
	26.415000	1.165769
	26.420000	1.086840
	26.425000	1.076973
	26.430000	1.155903
	26.435000	1.165769
	26.440000	1.086840
	26.445000	1.076973
	26.450000	1.162480
	26.455000	1.165769
	26.460000	1.083551
	26.465000	1.073685
	26.470000	1.155903
	26.475000	1.169058
	26.480000	1.083551
	26.485000	1.073685
	26.490000	1.159191
	26.495000	1.169058
	26.500000	1.080262
	26.505000	1.076973
	26.510000	1.159191
	26.515000	1.169058
	26.520000	1.083551
	26.525000	1.073685
	26.530000	1.159191
	26.535000	1.169058
	26.540000	1.080262
	26.545000	1.080262
	26.550000	1.155903
	26.555000	1.165769
	26.560000	1.083551
	26.565000	1.073685
	26.570000	1.159191
	26.575000	1.169058
	26.580000	1.080262
	26.585000	1.073685
	26.590000	1.159191
	26.595000	1.162480
	26.600000	1.083551
	26.605000	1.070396
	26.610000	1.155903
	26.615000	1.162480
	26.620000	1.076973
	26.625000	1.073685
	26.630000	1.159191
	26.635000	1.159191
	26.640000	1.080262
	26.645000	1.070396
	26.650000	1.155903
	26.655000	1.169058
	26.660000	1.080262
	26.665000	1.076973
	26.670000	1.159191
	26.675000	1.162480
	26.680000	1.083551
	26.685000	1.073685
	26.690000	1.159191
	26.695000	1.165769
	26.700000	1.080262
	26.705000	1.076973
	26.710000	1.159191
	26.715000	1.165769
	26.720000	1.080262
	26.725000	1.070396
	26.730000	1.159191
	26.735000	1.165769
	26.740000	1.076973
	26.745000	1.073685
	26.750000	1.162480
	26.755000	1.169058
	26.760000	1.083551
	26.765000	1.073685
	26.770000	1.155903
	26.775000	1.162480
	26.780000	1.080262
	26.785000	1.073685
	26.790000	1.162480
	26.795000	1.162480
	26.800000	1.076973
	26.805000	1.073685
	26.810000	1.159191
	26.815000	1.162480
	26.820000	1.076973
	26.825000	1.076973
	26.830000	1.162480
	26.835000	1.162480
	26.840000	1.080262
	26.845000	1.076973
	26.850000	1.155903
	26.855000	1.162480
	26.860000	1.076973
	26.865000	1.076973
	26.870000	1.159191
	26.875000	1.165769
	26.880000	1.076973
	26.885000	1.080262
	26.890000	1.162480
	26.895000	1.162480
	26.900000	1.080262
	26.905000	1.076973
	26.910000	1.162480
	26.915000	1.165769
	26.920000	1.076973
	26.925000	1.076973
	26.930000	1.162480
	26.935000	1.165769
	26.940000	1.080262
	26.945000	1.076973
	26.950000	1.162480
	26.955000	1.165769
	26.960000	1.076973
	26.965000	1.076973
	26.970000	1.159191
	26.975000	1.162480
	26.980000	1.076973
	26.985000	1.080262
	26.990000	1.162480
	26.995000	1.162480
	27.000000	1.080262
	27.005000	1.076973
	27.010000	1.162480
	27.015000	1.165769
	27.020000	1.076973
	27.025000	1.080262
	27.030000	1.162480
	27.035000	1.159191
	27.040000	1.083551
	27.045000	1.076973
	27.050000	1.162480
	27.055000	1.165769
	27.060000	1.080262
	27.065000	1.080262
	27.070000	1.165769
	27.075000	1.169058
	27.080000	1.076973
	27.085000	1.076973
	27.090000	1.165769
	27.095000	1.162480
	27.100000	1.080262
	27.105000	1.080262
	27.110000	1.165769
	27.115000	1.162480
	27.120000	1.076973
	27.125000	1.080262
	27.130000	1.165769
	27.135000	1.159191
	27.140000	1.076973
	27.145000	1.080262
	27.150000	1.162480
	27.155000	1.159191
	27.160000	1.076973
	27.165000	1.083551
	27.170000	1.162480
	27.175000	1.159191
	27.180000	1.076973
	27.185000	1.076973
	27.190000	1.159191
	27.195000	1.162480
	27.200000	1.076973
	27.205000	1.080262
	27.210000	1.162480
	27.215000	1.159191
	27.220000	1.073685
	27.225000	1.080262
	27.230000	1.165769
	27.235000	1.162480
	27.240000	1.070396
	27.245000	1.076973
	27.250000	1.162480
	27.255000	1.159191
	27.260000	1.073685
	27.265000	1.076973
	27.270000	1.165769
	27.275000	1.155903
	27.280000	1.070396
	27.285000	1.080262
	27.290000	1.162480
	27.295000	1.159191
	27.300000	1.067107
	27.305000	1.080262
	27.310000	1.162480
	27.315000	1.155903
	27.320000	1.070396
	27.325000	1.073685
	27.330000	1.162480
	27.335000	1.152614
	27.340000	1.070396
	27.345000	1.076973
	27.350000	1.162480
	27.355000	1.155903
	27.360000	1.070396
	27.365000	1.080262
	27.370000	1.162480
	27.375000	1.159191
	27.380000	1.070396
	27.385000	1.083551
	27.390000	1.162480
	27.395000	1.162480
	27.400000	1.070396
	27.405000	1.080262
	27.410000	1.162480
	27.415000	1.155903
	27.420000	1.073685
	27.425000	1.080262
	27.430000	1.159191
	27.435000	1.155903
	27.440000	1.076973
	27.445000	1.076973
	27.450000	1.162480
	27.455000	1.159191
	27.460000	1.070396
	27.465000	1.076973
	27.470000	1.165769
	27.475000	1.159191
	27.480000	1.073685
	27.485000	1.080262
	27.490000	1.165769
	27.495000	1.159191
	27.500000	1.076973
	27.505000	1.080262
	27.510000	1.169058
	27.515000	1.159191
	27.520000	1.073685
	27.525000	1.083551
	27.530000	1.172346
	27.535000	1.162480
	27.540000	1.070396
	27.545000	1.083551
	27.550000	1.169058
	27.555000	1.162480
	27.560000	1.073685
	27.565000	1.076973
	27.570000	1.165769
	27.575000	1.155903
	27.580000	1.076973
	27.585000	1.080262
	27.590000	1.169058
	27.595000	1.155903
	27.600000	1.076973
	27.605000	1.086840
	27.610000	1.169058
	27.615000	1.162480
	27.620000	1.073685
	27.625000	1.086840
	27.630000	1.172346
	27.635000	1.162480
	27.640000	1.076973
	27.645000	1.083551
	27.650000	1.169058
	27.655000	1.159191
	27.660000	1.076973
	27.665000	1.093417
	27.670000	1.178924
	27.675000	1.159191
	27.680000	1.076973
	27.685000	1.086840
	27.690000	1.172346
	27.695000	1.159191
	27.700000	1.076973
	27.705000	1.086840
	27.710000	1.178924
	27.715000	1.165769
	27.720000	1.076973
	27.725000	1.093417
	27.730000	1.178924
	27.735000	1.162480
	27.740000	1.083551
	27.745000	1.090128
	27.750000	1.175635
	27.755000	1.172346
	27.760000	1.080262
	27.765000	1.096706
	27.770000	1.178924
	27.775000	1.169058
	27.780000	1.083551
	27.785000	1.099994
	27.790000	1.178924
	27.795000	1.169058
	27.800000	1.086840
	27.805000	1.099994
	27.810000	1.185501
	27.815000	1.172346
	27.820000	1.086840
	27.825000	1.106572
	27.830000	1.188790
	27.835000	1.178924
	27.840000	1.090128
	27.845000	1.106572
	27.850000	1.195367
	27.855000	1.182212
	27.860000	1.103283
	27.865000	1.119727
	27.870000	1.201945
	27.875000	1.192079
	27.880000	1.109861
	27.885000	1.126304
	27.890000	1.208522
	27.895000	1.195367
	27.900000	1.113149
	27.905000	1.129593
	27.910000	1.211811
	27.915000	1.198656
	27.920000	1.113149
	27.925000	1.129593
	27.930000	1.208522
	27.935000	1.195367
	27.940000	1.113149
	27.945000	1.123015
	27.950000	1.208522
	27.955000	1.195367
	27.960000	1.106572
	27.965000	1.126304
	27.970000	1.201945
	27.975000	1.188790
	27.980000	1.106572
	27.985000	1.119727
	27.990000	1.201945
	27.995000	1.182212
	28.000000	1.096706
	28.005000	1.116438
	28.010000	1.195367
	28.015000	1.175635
	28.020000	1.093417
	28.025000	1.106572
	28.030000	1.185501
	28.035000	1.165769
	28.040000	1.076973
	28.045000	1.090128
	28.050000	1.172346
	28.055000	1.149325
	28.060000	1.067107
	28.065000	1.083551
	28.070000	1.165769
	28.075000	1.142748
	28.080000	1.060530
	28.085000	1.083551
	28.090000	1.159191
	28.095000	1.139459
	28.100000	1.057241
	28.105000	1.073685
	28.110000	1.155903
	28.115000	1.139459
	28.120000	1.057241
	28.125000	1.073685
	28.130000	1.159191
	28.135000	1.139459
	28.140000	1.057241
	28.145000	1.080262
	28.150000	1.162480
	28.155000	1.142748
	28.160000	1.063818
	28.165000	1.083551
	28.170000	1.162480
	28.175000	1.149325
	28.180000	1.067107
	28.185000	1.086840
	28.190000	1.172346
	28.195000	1.152614
	28.200000	1.073685
	28.205000	1.090128
	28.210000	1.175635
	28.215000	1.159191
	28.220000	1.076973
	28.225000	1.093417
	28.230000	1.175635
	28.235000	1.155903
	28.240000	1.076973
	28.245000	1.096706
	28.250000	1.178924
	28.255000	1.162480
	28.260000	1.083551
	28.265000	1.106572
	28.270000	1.188790
	28.275000	1.169058
	28.280000	1.086840
	28.285000	1.109861
	28.290000	1.188790
	28.295000	1.172346
	28.300000	1.093417
	28.305000	1.109861
	28.310000	1.192079
	28.315000	1.172346
	28.320000	1.086840
	28.325000	1.109861
	28.330000	1.192079
	28.335000	1.162480
	28.340000	1.090128
	28.345000	1.106572
	28.350000	1.188790
	28.355000	1.159191
	28.360000	1.080262
	28.365000	1.099994
	28.370000	1.182212
	28.375000	1.155903
	28.380000	1.073685
	28.385000	1.096706
	28.390000	1.172346
	28.395000	1.149325
	28.400000	1.063818
	28.405000	1.083551
	28.410000	1.162480
	28.415000	1.139459
	28.420000	1.057241
	28.425000	1.083551
	28.430000	1.155903
	28.435000	1.139459
	28.440000	1.053952
	28.445000	1.076973
	28.450000	1.162480
	28.455000	1.132882
	28.460000	1.057241
	28.465000	1.083551
	28.470000	1.162480
	28.475000	1.142748
	28.480000	1.057241
	28.485000	1.080262
	28.490000	1.162480
	28.495000	1.136170
	28.500000	1.060530
	28.505000	1.080262
	28.510000	1.165769
	28.515000	1.139459
	28.520000	1.060530
	28.525000	1.086840
	28.530000	1.165769
	28.535000	1.142748
	28.540000	1.063818
	28.545000	1.090128
	28.550000	1.172346
	28.555000	1.146037
	28.560000	1.067107
	28.565000	1.090128
	28.570000	1.169058
	28.575000	1.149325
	28.580000	1.067107
	28.585000	1.093417
	28.590000	1.169058
	28.595000	1.149325
	28.600000	1.067107
	28.605000	1.093417
	28.610000	1.169058
	28.615000	1.146037
	28.620000	1.063818
	28.625000	1.096706
	28.630000	1.175635
	28.635000	1.146037
	28.640000	1.070396
	28.645000	1.096706
	28.650000	1.175635
	28.655000	1.146037
	28.660000	1.070396
	28.665000	1.093417
	28.670000	1.175635
	28.675000	1.152614
	28.680000	1.076973
	28.685000	1.103283
	28.690000	1.185501
	28.695000	1.165769
	28.700000	1.086840
	28.705000	1.109861
	28.710000	1.195367
	28.715000	1.178924
	28.720000	1.096706
	28.725000	1.123015
	28.730000	1.201945
	28.735000	1.172346
	28.740000	1.099994
	28.745000	1.126304
	28.750000	1.205234
	28.755000	1.178924
	28.760000	1.093417
	28.765000	1.119727
	28.770000	1.201945
	28.775000	1.172346
	28.780000	1.090128
	28.785000	1.116438
	28.790000	1.192079
	28.795000	1.165769
	28.800000	1.083551
	28.805000	1.106572
	28.810000	1.175635
	28.815000	1.152614
	28.820000	1.070396
	28.825000	1.099994
	28.830000	1.172346
	28.835000	1.142748
	28.840000	1.057241
	28.845000	1.083551
	28.850000	1.159191
	28.855000	1.129593
	28.860000	1.053952
	28.865000	1.086840
	28.870000	1.162480
	28.875000	1.129593
	28.880000	1.050664
	28.885000	1.083551
	28.890000	1.162480
	28.895000	1.132882
	28.900000	1.053952
	28.905000	1.083551
	28.910000	1.165769
	28.915000	1.136170
	28.920000	1.053952
	28.925000	1.090128
	28.930000	1.165769
	28.935000	1.136170
	28.940000	1.063818
	28.945000	1.093417
	28.950000	1.169058
	28.955000	1.139459
	28.960000	1.063818
	28.965000	1.093417
	28.970000	1.172346
	28.975000	1.146037
	28.980000	1.063818
	28.985000	1.096706
	28.990000	1.172346
	28.995000	1.146037
	29.000000	1.067107
	29.005000	1.099994
	29.010000	1.178924
	29.015000	1.146037
	29.020000	1.070396
	29.025000	1.103283
	29.030000	1.178924
	29.035000	1.149325
	29.040000	1.067107
	29.045000	1.103283
	29.050000	1.178924
	29.055000	1.149325
	29.060000	1.070396
	29.065000	1.103283
	29.070000	1.185501
	29.075000	1.149325
	29.080000	1.070396
	29.085000	1.103283
	29.090000	1.182212
	29.095000	1.149325
	29.100000	1.070396
	29.105000	1.106572
	29.110000	1.185501
	29.115000	1.149325
	29.120000	1.073685
	29.125000	1.103283
	29.130000	1.178924
	29.135000	1.149325
	29.140000	1.067107
	29.145000	1.106572
	29.150000	1.182212
	29.155000	1.146037
	29.160000	1.070396
	29.165000	1.099994
	29.170000	1.178924
	29.175000	1.149325
	29.180000	1.067107
	29.185000	1.099994
	29.190000	1.182212
	29.195000	1.142748
	29.200000	1.070396
	29.205000	1.099994
	29.210000	1.185501
	29.215000	1.152614
	29.220000	1.083551
	29.225000	1.119727
	29.230000	1.195367
	29.235000	1.169058
	29.240000	1.099994
	29.245000	1.132882
	29.250000	1.208522
	29.255000	1.175635
	29.260000	1.099994
	29.265000	1.132882
	29.270000	1.211811
	29.275000	1.175635
	29.280000	1.096706
	29.285000	1.129593
	29.290000	1.205234
	29.295000	1.172346
	29.300000	1.093417
	29.305000	1.126304
	29.310000	1.198656
	29.315000	1.162480
	29.320000	1.083551
	29.325000	1.116438
	29.330000	1.188790
	29.335000	1.149325
	29.340000	1.063818
	29.345000	1.099994
	29.350000	1.175635
	29.355000	1.136170
	29.360000	1.053952
	29.365000	1.093417
	29.370000	1.169058
	29.375000	1.132882
	29.380000	1.053952
	29.385000	1.090128
	29.390000	1.162480
	29.395000	1.126304
	29.400000	1.053952
	29.405000	1.093417
	29.410000	1.165769
	29.415000	1.132882
	29.420000	1.053952
	29.425000	1.096706
	29.430000	1.169058
	29.435000	1.132882
	29.440000	1.057241
	29.445000	1.096706
	29.450000	1.169058
	29.455000	1.136170
	29.460000	1.060530
	29.465000	1.099994
	29.470000	1.169058
	29.475000	1.132882
	29.480000	1.060530
	29.485000	1.099994
	29.490000	1.175635
	29.495000	1.136170
	29.500000	1.057241
	29.505000	1.096706
	29.510000	1.172346
	29.515000	1.136170
	29.520000	1.063818
	29.525000	1.096706
	29.530000	1.172346
	29.535000	1.132882
	29.540000	1.063818
	29.545000	1.099994
	29.550000	1.169058
	29.555000	1.132882
	29.560000	1.060530
	29.565000	1.099994
	29.570000	1.172346
	29.575000	1.132882
	29.580000	1.060530
	29.585000	1.099994
	29.590000	1.169058
	29.595000	1.129593
	29.600000	1.050664
	29.605000	1.096706
	29.610000	1.172346
	29.615000	1.132882
	29.620000	1.053952
	29.625000	1.099994
	29.630000	1.172346
	29.635000	1.132882
	29.640000	1.057241
	29.645000	1.096706
	29.650000	1.169058
	29.655000	1.126304
	29.660000	1.057241
	29.665000	1.096706
	29.670000	1.172346
	29.675000	1.129593
	29.680000	1.053952
	29.685000	1.096706
	29.690000	1.172346
	29.695000	1.132882
	29.700000	1.057241
	29.705000	1.096706
	29.710000	1.172346
	29.715000	1.136170
	29.720000	1.067107
	29.725000	1.103283
	29.730000	1.175635
	29.735000	1.132882
	29.740000	1.060530
	29.745000	1.103283
	29.750000	1.172346
	29.755000	1.132882
	29.760000	1.063818
	29.765000	1.103283
	29.770000	1.175635
	29.775000	1.132882
	29.780000	1.060530
	29.785000	1.099994
	29.790000	1.175635
	29.795000	1.132882
	29.800000	1.060530
	29.805000	1.106572
	29.810000	1.178924
	29.815000	1.136170
	29.820000	1.067107
	29.825000	1.103283
	29.830000	1.178924
	29.835000	1.139459
	29.840000	1.063818
	29.845000	1.106572
	29.850000	1.178924
	29.855000	1.136170
	29.860000	1.060530
	29.865000	1.109861
	29.870000	1.178924
	29.875000	1.136170
	29.880000	1.070396
	29.885000	1.113149
	29.890000	1.182212
	29.895000	1.136170
	29.900000	1.063818
	29.905000	1.109861
	29.910000	1.182212
	29.915000	1.136170
	29.920000	1.067107
	29.925000	1.113149
	29.930000	1.182212
	29.935000	1.139459
	29.940000	1.070396
	29.945000	1.109861
	29.950000	1.185501
	29.955000	1.142748
	29.960000	1.067107
	29.965000	1.109861
	29.970000	1.178924
	29.975000	1.136170
	29.980000	1.063818
	29.985000	1.106572
	29.990000	1.178924
	29.995000	1.136170
	30.000000	1.063818
	30.005000	1.106572
	30.010000	1.182212
	30.015000	1.136170
	30.020000	1.067107
	30.025000	1.109861
	30.030000	1.182212
	30.035000	1.136170
	30.040000	1.067107
	30.045000	1.109861
	30.050000	1.178924
	30.055000	1.136170
	30.060000	1.063818
	30.065000	1.109861
	30.070000	1.175635
	30.075000	1.129593
	30.080000	1.060530
	30.085000	1.106572
	30.090000	1.178924
	30.095000	1.136170
	30.100000	1.067107
	30.105000	1.116438
	30.110000	1.185501
	30.115000	1.142748
	30.120000	1.083551
	30.125000	1.129593
	30.130000	1.201945
	30.135000	1.159191
	30.140000	1.096706
	30.145000	1.142748
	30.150000	1.218388
	30.155000	1.172346
	30.160000	1.106572
	30.165000	1.152614
	30.170000	1.221677
	30.175000	1.175635
	30.180000	1.106572
	30.185000	1.152614
	30.190000	1.228255
	30.195000	1.175635
	30.200000	1.106572
	30.205000	1.149325
	30.210000	1.218388
	30.215000	1.169058
	30.220000	1.099994
	30.225000	1.146037
	30.230000	1.211811
	30.235000	1.165769
	30.240000	1.093417
	30.245000	1.136170
	30.250000	1.208522
	30.255000	1.159191
	30.260000	1.086840
	30.265000	1.132882
	30.270000	1.201945
	30.275000	1.149325
	30.280000	1.083551
	30.285000	1.126304
	30.290000	1.195367
	30.295000	1.146037
	30.300000	1.073685
	30.305000	1.126304
	30.310000	1.192079
	30.315000	1.142748
	30.320000	1.070396
	30.325000	1.119727
	30.330000	1.182212
	30.335000	1.136170
	30.340000	1.070396
	30.345000	1.119727
	30.350000	1.185501
	30.355000	1.132882
	30.360000	1.067107
	30.365000	1.116438
	30.370000	1.182212
	30.375000	1.132882
	30.380000	1.063818
	30.385000	1.113149
	30.390000	1.182212
	30.395000	1.132882
	30.400000	1.060530
	30.405000	1.116438
	30.410000	1.185501
	30.415000	1.129593
	30.420000	1.067107
	30.425000	1.116438
	30.430000	1.178924
	30.435000	1.132882
	30.440000	1.063818
	30.445000	1.119727
	30.450000	1.185501
	30.455000	1.136170
	30.460000	1.067107
	30.465000	1.116438
	30.470000	1.182212
	30.475000	1.136170
	30.480000	1.067107
	30.485000	1.119727
	30.490000	1.185501
	30.495000	1.129593
	30.500000	1.070396
	30.505000	1.116438
	30.510000	1.185501
	30.515000	1.129593
	30.520000	1.070396
	30.525000	1.119727
	30.530000	1.185501
	30.535000	1.132882
	30.540000	1.067107
	30.545000	1.119727
	30.550000	1.185501
	30.555000	1.142748
	30.560000	1.076973
	30.565000	1.132882
	30.570000	1.195367
	30.575000	1.152614
	30.580000	1.080262
	30.585000	1.136170
	30.590000	1.208522
	30.595000	1.152614
	30.600000	1.086840
	30.605000	1.146037
	30.610000	1.211811
	30.615000	1.162480
	30.620000	1.093417
	30.625000	1.149325
	30.630000	1.215100
	30.635000	1.159191
	30.640000	1.096706
	30.645000	1.149325
	30.650000	1.211811
	30.655000	1.159191
	30.660000	1.093417
	30.665000	1.146037
	30.670000	1.211811
	30.675000	1.155903
	30.680000	1.093417
	30.685000	1.146037
	30.690000	1.208522
	30.695000	1.152614
	30.700000	1.090128
	30.705000	1.139459
	30.710000	1.205234
	30.715000	1.155903
	30.720000	1.086840
	30.725000	1.139459
	30.730000	1.201945
	30.735000	1.149325
	30.740000	1.083551
	30.745000	1.132882
	30.750000	1.201945
	30.755000	1.149325
	30.760000	1.083551
	30.765000	1.136170
	30.770000	1.198656
	30.775000	1.146037
	30.780000	1.080262
	30.785000	1.136170
	30.790000	1.201945
	30.795000	1.142748
	30.800000	1.080262
	30.805000	1.139459
	30.810000	1.201945
	30.815000	1.146037
	30.820000	1.080262
	30.825000	1.136170
	30.830000	1.198656
	30.835000	1.142748
	30.840000	1.080262
	30.845000	1.132882
	30.850000	1.195367
	30.855000	1.136170
	30.860000	1.076973
	30.865000	1.129593
	30.870000	1.185501
	30.875000	1.129593
	30.880000	1.067107
	30.885000	1.119727
	30.890000	1.172346
	30.895000	1.116438
	30.900000	1.047375
	30.905000	1.096706
	30.910000	1.159191
	30.915000	1.096706
	30.920000	1.034220
	30.925000	1.090128
	30.930000	1.149325
	30.935000	1.090128
	30.940000	1.027643
	30.945000	1.080262
	30.950000	1.146037
	30.955000	1.090128
	30.960000	1.027643
	30.965000	1.086840
	30.970000	1.149325
	30.975000	1.093417
	30.980000	1.034220
	30.985000	1.086840
	30.990000	1.152614
	30.995000	1.096706
	31.000000	1.037509
	31.005000	1.086840
	31.010000	1.162480
	31.015000	1.096706
	31.020000	1.037509
	31.025000	1.096706
	31.030000	1.162480
	31.035000	1.103283
	31.040000	1.040797
	31.045000	1.099994
	31.050000	1.165769
	31.055000	1.106572
	31.060000	1.044086
	31.065000	1.103283
	31.070000	1.165769
	31.075000	1.106572
	31.080000	1.047375
	31.085000	1.103283
	31.090000	1.169058
	31.095000	1.106572
	31.100000	1.047375
	31.105000	1.109861
	31.110000	1.169058
	31.115000	1.116438
	31.120000	1.050664
	31.125000	1.113149
	31.130000	1.169058
	31.135000	1.109861
	31.140000	1.053952
	31.145000	1.106572
	31.150000	1.175635
	31.155000	1.109861
	31.160000	1.053952
	31.165000	1.113149
	31.170000	1.175635
	31.175000	1.113149
	31.180000	1.050664
	31.185000	1.116438
	31.190000	1.175635
	31.195000	1.116438
	31.200000	1.053952
	31.205000	1.109861
	31.210000	1.175635
	31.215000	1.113149
	31.220000	1.053952
	31.225000	1.113149
	31.230000	1.175635
	31.235000	1.113149
	31.240000	1.053952
	31.245000	1.116438
	31.250000	1.172346
	31.255000	1.113149
	31.260000	1.053952
	31.265000	1.109861
	31.270000	1.172346
	31.275000	1.109861
	31.280000	1.050664
	31.285000	1.116438
	31.290000	1.172346
	31.295000	1.113149
	31.300000	1.050664
	31.305000	1.109861
	31.310000	1.172346
	31.315000	1.106572
	31.320000	1.050664
	31.325000	1.113149
	31.330000	1.172346
	31.335000	1.109861
	31.340000	1.050664
	31.345000	1.113149
	31.350000	1.172346
	31.355000	1.109861
	31.360000	1.053952
	31.365000	1.113149
	31.370000	1.172346
	31.375000	1.106572
	31.380000	1.047375
	31.385000	1.113149
	31.390000	1.172346
	31.395000	1.106572
	31.400000	1.050664
	31.405000	1.116438
	31.410000	1.172346
	31.415000	1.113149
	31.420000	1.050664
	31.425000	1.109861
	31.430000	1.172346
	31.435000	1.106572
	31.440000	1.050664
	31.445000	1.116438
	31.450000	1.165769
	31.455000	1.109861
	31.460000	1.050664
	31.465000	1.113149
	31.470000	1.172346
	31.475000	1.109861
	31.480000	1.050664
	31.485000	1.119727
	31.490000	1.169058
	31.495000	1.106572
	31.500000	1.050664
	31.505000	1.116438
	31.510000	1.172346
	31.515000	1.106572
	31.520000	1.053952
	31.525000	1.116438
	31.530000	1.172346
	31.535000	1.109861
	31.540000	1.050664
	31.545000	1.116438
	31.550000	1.175635
	31.555000	1.106572
	31.560000	1.050664
	31.565000	1.119727
	31.570000	1.172346
	31.575000	1.106572
	31.580000	1.050664
	31.585000	1.116438
	31.590000	1.172346
	31.595000	1.109861
	31.600000	1.053952
	31.605000	1.119727
	31.610000	1.172346
	31.615000	1.109861
	31.620000	1.053952
	31.625000	1.116438
	31.630000	1.172346
	31.635000	1.106572
	31.640000	1.053952
	31.645000	1.116438
	31.650000	1.178924
	31.655000	1.109861
	31.660000	1.050664
	31.665000	1.116438
	31.670000	1.175635
	31.675000	1.113149
	31.680000	1.050664
	31.685000	1.119727
	31.690000	1.172346
	31.695000	1.109861
	31.700000	1.050664
	31.705000	1.119727
	31.710000	1.172346
	31.715000	1.109861
	31.720000	1.050664
	31.725000	1.123015
	31.730000	1.172346
	31.735000	1.106572
	31.740000	1.050664
	31.745000	1.119727
	31.750000	1.172346
	31.755000	1.099994
	31.760000	1.053952
	31.765000	1.119727
	31.770000	1.172346
	31.775000	1.106572
	31.780000	1.050664
	31.785000	1.123015
	31.790000	1.172346
	31.795000	1.106572
	31.800000	1.053952
	31.805000	1.123015
	31.810000	1.169058
	31.815000	1.106572
	31.820000	1.053952
	31.825000	1.123015
	31.830000	1.175635
	31.835000	1.103283
	31.840000	1.053952
	31.845000	1.123015
	31.850000	1.172346
	31.855000	1.106572
	31.860000	1.053952
	31.865000	1.123015
	31.870000	1.175635
	31.875000	1.103283
	31.880000	1.053952
	31.885000	1.116438
	31.890000	1.178924
	31.895000	1.109861
	31.900000	1.053952
	31.905000	1.119727
	31.910000	1.172346
	31.915000	1.103283
	31.920000	1.053952
	31.925000	1.123015
	31.930000	1.172346
	31.935000	1.103283
	31.940000	1.053952
	31.945000	1.119727
	31.950000	1.172346
	31.955000	1.106572
	31.960000	1.053952
	31.965000	1.123015
	31.970000	1.175635
	31.975000	1.106572
	31.980000	1.060530
	31.985000	1.126304
	31.990000	1.175635
	31.995000	1.106572
	32.000000	1.053952
	32.005000	1.123015
	32.010000	1.175635
	32.015000	1.106572
	32.020000	1.053952
	32.025000	1.123015
	32.030000	1.175635
	32.035000	1.106572
	32.040000	1.057241
	32.045000	1.123015
	32.050000	1.175635
	32.055000	1.106572
	32.060000	1.057241
	32.065000	1.126304
	32.070000	1.178924
	32.075000	1.103283
	32.080000	1.060530
	32.085000	1.126304
	32.090000	1.175635
	32.095000	1.106572
	32.100000	1.060530
	32.105000	1.129593
	32.110000	1.178924
	32.115000	1.106572
	32.120000	1.057241
	32.125000	1.126304
	32.130000	1.178924
	32.135000	1.109861
	32.140000	1.053952
	32.145000	1.129593
	32.150000	1.182212
	32.155000	1.109861
	32.160000	1.060530
	32.165000	1.129593
	32.170000	1.182212
	32.175000	1.106572
	32.180000	1.060530
	32.185000	1.129593
	32.190000	1.175635
	32.195000	1.106572
	32.200000	1.060530
	32.205000	1.132882
	32.210000	1.178924
	32.215000	1.103283
	32.220000	1.060530
	32.225000	1.129593
	32.230000	1.175635
	32.235000	1.106572
	32.240000	1.057241
	32.245000	1.129593
	32.250000	1.175635
	32.255000	1.106572
	32.260000	1.063818
	32.265000	1.132882
	32.270000	1.175635
	32.275000	1.109861
	32.280000	1.060530
	32.285000	1.129593
	32.290000	1.175635
	32.295000	1.106572
	32.300000	1.060530
	32.305000	1.129593
	32.310000	1.175635
	32.315000	1.106572
	32.320000	1.063818
	32.325000	1.132882
	32.330000	1.178924
	32.335000	1.106572
	32.340000	1.057241
	32.345000	1.132882
	32.350000	1.175635
	32.355000	1.103283
	32.360000	1.060530
	32.365000	1.129593
	32.370000	1.172346
	32.375000	1.106572
	32.380000	1.060530
	32.385000	1.129593
	32.390000	1.175635
	32.395000	1.106572
	32.400000	1.057241
	32.405000	1.132882
	32.410000	1.172346
	32.415000	1.106572
	32.420000	1.057241
	32.425000	1.129593
	32.430000	1.175635
	32.435000	1.106572
	32.440000	1.063818
	32.445000	1.129593
	32.450000	1.175635
	32.455000	1.106572
	32.460000	1.063818
	32.465000	1.129593
	32.470000	1.175635
	32.475000	1.106572
	32.480000	1.063818
	32.485000	1.129593
	32.490000	1.178924
	32.495000	1.103283
	32.500000	1.063818
	32.505000	1.129593
	32.510000	1.175635
	32.515000	1.103283
	32.520000	1.060530
	32.525000	1.129593
	32.530000	1.175635
	32.535000	1.103283
	32.540000	1.060530
	32.545000	1.132882
	32.550000	1.172346
	32.555000	1.106572
	32.560000	1.063818
	32.565000	1.129593
	32.570000	1.175635
	32.575000	1.103283
	32.580000	1.057241
	32.585000	1.132882
	32.590000	1.182212
	32.595000	1.106572
	32.600000	1.063818
	32.605000	1.132882
	32.610000	1.175635
	32.615000	1.106572
	32.620000	1.060530
	32.625000	1.132882
	32.630000	1.175635
	32.635000	1.103283
	32.640000	1.057241
	32.645000	1.132882
	32.650000	1.178924
	32.655000	1.099994
	32.660000	1.060530
	32.665000	1.132882
	32.670000	1.172346
	32.675000	1.103283
	32.680000	1.060530
	32.685000	1.132882
	32.690000	1.175635
	32.695000	1.099994
	32.700000	1.060530
	32.705000	1.136170
	32.710000	1.178924
	32.715000	1.103283
	32.720000	1.060530
	32.725000	1.136170
	32.730000	1.175635
	32.735000	1.103283
	32.740000	1.060530
	32.745000	1.136170
	32.750000	1.175635
	32.755000	1.096706
	32.760000	1.060530
	32.765000	1.136170
	32.770000	1.175635
	32.775000	1.099994
	32.780000	1.063818
	32.785000	1.136170
	32.790000	1.178924
	32.795000	1.106572
	32.800000	1.063818
	32.805000	1.139459
	32.810000	1.175635
	32.815000	1.103283
	32.820000	1.063818
	32.825000	1.139459
	32.830000	1.175635
	32.835000	1.099994
	32.840000	1.067107
	32.845000	1.136170
	32.850000	1.175635
	32.855000	1.099994
	32.860000	1.060530
	32.865000	1.132882
	32.870000	1.172346
	32.875000	1.103283
	32.880000	1.063818
	32.885000	1.136170
	32.890000	1.175635
	32.895000	1.099994
	32.900000	1.063818
	32.905000	1.139459
	32.910000	1.175635
	32.915000	1.103283
	32.920000	1.060530
	32.925000	1.139459
	32.930000	1.175635
	32.935000	1.096706
	32.940000	1.063818
	32.945000	1.139459
	32.950000	1.175635
	32.955000	1.099994
	32.960000	1.063818
	32.965000	1.136170
	32.970000	1.175635
	32.975000	1.093417
	32.980000	1.063818
	32.985000	1.136170
	32.990000	1.172346
	32.995000	1.099994
	33.000000	1.063818
	33.005000	1.139459
	33.010000	1.175635
	33.015000	1.096706
	33.020000	1.063818
	33.025000	1.136170
	33.030000	1.175635
	33.035000	1.096706
	33.040000	1.057241
	33.045000	1.136170
	33.050000	1.169058
	33.055000	1.096706
	33.060000	1.063818
	33.065000	1.139459
	33.070000	1.175635
	33.075000	1.099994
	33.080000	1.060530
	33.085000	1.136170
	33.090000	1.175635
	33.095000	1.096706
	33.100000	1.060530
	33.105000	1.139459
	33.110000	1.172346
	33.115000	1.096706
	33.120000	1.060530
	33.125000	1.136170
	33.130000	1.172346
	33.135000	1.093417
	33.140000	1.057241
	33.145000	1.132882
	33.150000	1.169058
	33.155000	1.093417
	33.160000	1.057241
	33.165000	1.136170
	33.170000	1.172346
	33.175000	1.090128
	33.180000	1.060530
	33.185000	1.132882
	33.190000	1.165769
	33.195000	1.093417
	33.200000	1.053952
	33.205000	1.136170
	33.210000	1.169058
	33.215000	1.090128
	33.220000	1.053952
	33.225000	1.136170
	33.230000	1.165769
	33.235000	1.086840
	33.240000	1.057241
	33.245000	1.136170
	33.250000	1.172346
	33.255000	1.086840
	33.260000	1.057241
	33.265000	1.136170
	33.270000	1.169058
	33.275000	1.086840
	33.280000	1.053952
	33.285000	1.132882
	33.290000	1.169058
	33.295000	1.086840
	33.300000	1.057241
	33.305000	1.136170
	33.310000	1.165769
	33.315000	1.090128
	33.320000	1.053952
	33.325000	1.132882
	33.330000	1.165769
	33.335000	1.093417
	33.340000	1.053952
	33.345000	1.132882
	33.350000	1.169058
	33.355000	1.086840
	33.360000	1.060530
	33.365000	1.132882
	33.370000	1.165769
	33.375000	1.083551
	33.380000	1.053952
	33.385000	1.132882
	33.390000	1.172346
	33.395000	1.086840
	33.400000	1.057241
	33.405000	1.136170
	33.410000	1.165769
	33.415000	1.093417
	33.420000	1.057241
	33.425000	1.139459
	33.430000	1.169058
	33.435000	1.090128
	33.440000	1.067107
	33.445000	1.136170
	33.450000	1.172346
	33.455000	1.099994
	33.460000	1.067107
	33.465000	1.142748
	33.470000	1.172346
	33.475000	1.099994
	33.480000	1.070396
	33.485000	1.146037
	33.490000	1.178924
	33.495000	1.099994
	33.500000	1.067107
	33.505000	1.149325
	33.510000	1.182212
	33.515000	1.103283
	33.520000	1.070396
	33.525000	1.152614
	33.530000	1.175635
	33.535000	1.099994
	33.540000	1.070396
	33.545000	1.146037
	33.550000	1.182212
	33.555000	1.103283
	33.560000	1.073685
	33.565000	1.152614
	33.570000	1.178924
	33.575000	1.099994
	33.580000	1.076973
	33.585000	1.152614
	33.590000	1.182212
	33.595000	1.103283
	33.600000	1.073685
	33.605000	1.155903
	33.610000	1.178924
	33.615000	1.099994
	33.620000	1.073685
	33.625000	1.155903
	33.630000	1.182212
	33.635000	1.099994
	33.640000	1.073685
	33.645000	1.149325
	33.650000	1.175635
	33.655000	1.103283
	33.660000	1.070396
	33.665000	1.149325
	33.670000	1.175635
	33.675000	1.096706
	33.680000	1.070396
	33.685000	1.142748
	33.690000	1.172346
	33.695000	1.093417
	33.700000	1.070396
	33.705000	1.149325
	33.710000	1.172346
	33.715000	1.090128
	33.720000	1.067107
	33.725000	1.142748
	33.730000	1.169058
	33.735000	1.086840
	33.740000	1.060530
	33.745000	1.139459
	33.750000	1.165769
	33.755000	1.083551
	33.760000	1.057241
	33.765000	1.136170
	33.770000	1.165769
	33.775000	1.083551
	33.780000	1.060530
	33.785000	1.136170
	33.790000	1.169058
	33.795000	1.083551
	33.800000	1.060530
	33.805000	1.139459
	33.810000	1.169058
	33.815000	1.086840
	33.820000	1.067107
	33.825000	1.146037
	33.830000	1.169058
	33.835000	1.090128
	33.840000	1.070396
	33.845000	1.155903
	33.850000	1.175635
	33.855000	1.099994
	33.860000	1.076973
	33.865000	1.155903
	33.870000	1.185501
	33.875000	1.106572
	33.880000	1.083551
	33.885000	1.169058
	33.890000	1.195367
	33.895000	1.116438
	33.900000	1.090128
	33.905000	1.175635
	33.910000	1.192079
	33.915000	1.113149
	33.920000	1.093417
	33.925000	1.175635
	33.930000	1.201945
	33.935000	1.116438
	33.940000	1.090128
	33.945000	1.172346
	33.950000	1.195367
	33.955000	1.116438
	33.960000	1.090128
	33.965000	1.169058
	33.970000	1.195367
	33.975000	1.106572
	33.980000	1.086840
	33.985000	1.165769
	33.990000	1.185501
	33.995000	1.106572
	34.000000	1.080262
	34.005000	1.159191
	34.010000	1.175635
	34.015000	1.096706
	34.020000	1.067107
	34.025000	1.152614
	34.030000	1.172346
	34.035000	1.083551
	34.040000	1.060530
	34.045000	1.139459
	34.050000	1.162480
	34.055000	1.070396
	34.060000	1.050664
	34.065000	1.126304
	34.070000	1.146037
	34.075000	1.060530
	34.080000	1.037509
	34.085000	1.116438
	34.090000	1.132882
	34.095000	1.053952
	34.100000	1.027643
	34.105000	1.106572
	34.110000	1.129593
	34.115000	1.044086
	34.120000	1.027643
	34.125000	1.116438
	34.130000	1.132882
	34.135000	1.050664
	34.140000	1.030931
	34.145000	1.109861
	34.150000	1.132882
	34.155000	1.053952
	34.160000	1.034220
	34.165000	1.116438
	34.170000	1.139459
	34.175000	1.053952
	34.180000	1.037509
	34.185000	1.119727
	34.190000	1.139459
	34.195000	1.053952
	34.200000	1.037509
	34.205000	1.123015
	34.210000	1.142748
	34.215000	1.053952
	34.220000	1.037509
	34.225000	1.123015
	34.230000	1.146037
	34.235000	1.060530
	34.240000	1.047375
	34.245000	1.123015
	34.250000	1.142748
	34.255000	1.063818
	34.260000	1.044086
	34.265000	1.132882
	34.270000	1.149325
	34.275000	1.067107
	34.280000	1.053952
	34.285000	1.136170
	34.290000	1.159191
	34.295000	1.073685
	34.300000	1.063818
	34.305000	1.142748
	34.310000	1.159191
	34.315000	1.076973
	34.320000	1.057241
	34.325000	1.139459
	34.330000	1.155903
	34.335000	1.073685
	34.340000	1.060530
	34.345000	1.139459
	34.350000	1.152614
	34.355000	1.073685
	34.360000	1.057241
	34.365000	1.139459
	34.370000	1.155903
	34.375000	1.073685
	34.380000	1.053952
	34.385000	1.136170
	34.390000	1.155903
	34.395000	1.070396
	34.400000	1.057241
	34.405000	1.142748
	34.410000	1.159191
	34.415000	1.070396
	34.420000	1.057241
	34.425000	1.139459
	34.430000	1.155903
	34.435000	1.073685
	34.440000	1.060530
	34.445000	1.139459
	34.450000	1.152614
	34.455000	1.070396
	34.460000	1.057241
	34.465000	1.139459
	34.470000	1.159191
	34.475000	1.070396
	34.480000	1.060530
	34.485000	1.142748
	34.490000	1.159191
	34.495000	1.073685
	34.500000	1.063818
	34.505000	1.142748
	34.510000	1.159191
	34.515000	1.076973
	34.520000	1.060530
	34.525000	1.149325
	34.530000	1.162480
	34.535000	1.076973
	34.540000	1.067107
	34.545000	1.142748
	34.550000	1.162480
	34.555000	1.073685
	34.560000	1.063818
	34.565000	1.142748
	34.570000	1.162480
	34.575000	1.073685
	34.580000	1.063818
	34.585000	1.142748
	34.590000	1.152614
	34.595000	1.073685
	34.600000	1.063818
	34.605000	1.139459
	34.610000	1.155903
	34.615000	1.070396
	34.620000	1.053952
	34.625000	1.136170
	34.630000	1.146037
	34.635000	1.063818
	34.640000	1.050664
	34.645000	1.136170
	34.650000	1.142748
	34.655000	1.063818
	34.660000	1.053952
	34.665000	1.129593
	34.670000	1.146037
	34.675000	1.063818
	34.680000	1.044086
	34.685000	1.136170
	34.690000	1.142748
	34.695000	1.063818
	34.700000	1.050664
	34.705000	1.136170
	34.710000	1.146037
	34.715000	1.060530
	34.720000	1.053952
	34.725000	1.136170
	34.730000	1.146037
	34.735000	1.063818
	34.740000	1.053952
	34.745000	1.139459
	34.750000	1.149325
	34.755000	1.067107
	34.760000	1.057241
	34.765000	1.146037
	34.770000	1.155903
	34.775000	1.067107
	34.780000	1.063818
	34.785000	1.146037
	34.790000	1.159191
	34.795000	1.076973
	34.800000	1.067107
	34.805000	1.149325
	34.810000	1.155903
	34.815000	1.073685
	34.820000	1.063818
	34.825000	1.146037
	34.830000	1.152614
	34.835000	1.067107
	34.840000	1.060530
	34.845000	1.142748
	34.850000	1.149325
	34.855000	1.063818
	34.860000	1.057241
	34.865000	1.139459
	34.870000	1.149325
	34.875000	1.063818
	34.880000	1.053952
	34.885000	1.142748
	34.890000	1.146037
	34.895000	1.057241
	34.900000	1.057241
	34.905000	1.142748
	34.910000	1.152614
	34.915000	1.063818
	34.920000	1.057241
	34.925000	1.146037
	34.930000	1.149325
	34.935000	1.070396
	34.940000	1.063818
	34.945000	1.142748
	34.950000	1.152614
	34.955000	1.060530
	34.960000	1.060530
	34.965000	1.142748
	34.970000	1.149325
	34.975000	1.067107
	34.980000	1.053952
	34.985000	1.142748
	34.990000	1.146037
	34.995000	1.060530
	35.000000	1.060530
	35.005000	1.146037
	35.010000	1.149325
	35.015000	1.073685
	35.020000	1.073685
	35.025000	1.159191
	35.030000	1.165769
	35.035000	1.096706
	35.040000	1.093417
	35.045000	1.178924
	35.050000	1.185501
	35.055000	1.106572
	35.060000	1.109861
	35.065000	1.195367
	35.070000	1.198656
	35.075000	1.119727
	35.080000	1.116438
	35.085000	1.198656
	35.090000	1.201945
	35.095000	1.119727
	35.100000	1.116438
	35.105000	1.198656
	35.110000	1.201945
	35.115000	1.119727
	35.120000	1.109861
	35.125000	1.192079
	35.130000	1.192079
	35.135000	1.106572
	35.140000	1.099994
	35.145000	1.188790
	35.150000	1.182212
	35.155000	1.096706
	35.160000	1.093417
	35.165000	1.175635
	35.170000	1.175635
	35.175000	1.093417
	35.180000	1.086840
	35.185000	1.172346
	35.190000	1.169058
	35.195000	1.080262
	35.200000	1.076973
	35.205000	1.165769
	35.210000	1.165769
	35.215000	1.076973
	35.220000	1.073685
	35.225000	1.159191
	35.230000	1.162480
	35.235000	1.073685
	35.240000	1.073685
	35.245000	1.155903
	35.250000	1.162480
	35.255000	1.067107
	35.260000	1.073685
	35.265000	1.155903
	35.270000	1.162480
	35.275000	1.070396
	35.280000	1.070396
	35.285000	1.149325
	35.290000	1.155903
	35.295000	1.070396
	35.300000	1.070396
	35.305000	1.149325
	35.310000	1.149325
	35.315000	1.067107
	35.320000	1.067107
	35.325000	1.152614
	35.330000	1.149325
	35.335000	1.063818
	35.340000	1.067107
	35.345000	1.149325
	35.350000	1.149325
	35.355000	1.063818
	35.360000	1.063818
	35.365000	1.149325
	35.370000	1.146037
	35.375000	1.057241
	35.380000	1.063818
	35.385000	1.149325
	35.390000	1.149325
	35.395000	1.063818
	35.400000	1.067107
	35.405000	1.152614
	35.410000	1.152614
	35.415000	1.076973
	35.420000	1.073685
	35.425000	1.162480
	35.430000	1.165769
	35.435000	1.080262
	35.440000	1.086840
	35.445000	1.175635
	35.450000	1.169058
	35.455000	1.090128
	35.460000	1.096706
	35.465000	1.178924
	35.470000	1.175635
	35.475000	1.090128
	35.480000	1.096706
	35.485000	1.178924
	35.490000	1.182212
	35.495000	1.093417
	35.500000	1.093417
	35.505000	1.182212
	35.510000	1.172346
	35.515000	1.093417
	35.520000	1.093417
	35.525000	1.175635
	35.530000	1.172346
	35.535000	1.090128
	35.540000	1.090128
	35.545000	1.175635
	35.550000	1.172346
	35.555000	1.083551
	35.560000	1.090128
	35.565000	1.175635
	35.570000	1.165769
	35.575000	1.083551
	35.580000	1.090128
	35.585000	1.169058
	35.590000	1.165769
	35.595000	1.076973
	35.600000	1.086840
	35.605000	1.172346
	35.610000	1.165769
	35.615000	1.083551
	35.620000	1.083551
	35.625000	1.169058
	35.630000	1.165769
	35.635000	1.080262
	35.640000	1.083551
	35.645000	1.165769
	35.650000	1.165769
	35.655000	1.080262
	35.660000	1.086840
	35.665000	1.169058
	35.670000	1.165769
	35.675000	1.076973
	35.680000	1.083551
	35.685000	1.162480
	35.690000	1.155903
	35.695000	1.073685
	35.700000	1.073685
	35.705000	1.152614
	35.710000	1.146037
	35.715000	1.057241
	35.720000	1.057241
	35.725000	1.136170
	35.730000	1.129593
	35.735000	1.037509
	35.740000	1.040797
	35.745000	1.126304
	35.750000	1.116438
	35.755000	1.027643
	35.760000	1.037509
	35.765000	1.116438
	35.770000	1.106572
	35.775000	1.024354
	35.780000	1.027643
	35.785000	1.119727
	35.790000	1.109861
	35.795000	1.024354
	35.800000	1.030931
	35.805000	1.119727
	35.810000	1.113149
	35.815000	1.024354
	35.820000	1.034220
	35.825000	1.119727
	35.830000	1.116438
	35.835000	1.027643
	35.840000	1.037509
	35.845000	1.119727
	35.850000	1.116438
	35.855000	1.030931
	35.860000	1.040797
	35.865000	1.126304
	35.870000	1.123015
	35.875000	1.037509
	35.880000	1.040797
	35.885000	1.129593
	35.890000	1.116438
	35.895000	1.030931
	35.900000	1.044086
	35.905000	1.129593
	35.910000	1.116438
	35.915000	1.034220
	35.920000	1.040797
	35.925000	1.126304
	35.930000	1.123015
	35.935000	1.034220
	35.940000	1.050664
	35.945000	1.132882
	35.950000	1.123015
	35.955000	1.037509
	35.960000	1.047375
	35.965000	1.136170
	35.970000	1.123015
	35.975000	1.040797
	35.980000	1.050664
	35.985000	1.132882
	35.990000	1.126304
	35.995000	1.037509
	36.000000	1.047375
	36.005000	1.136170
	36.010000	1.123015
	36.015000	1.040797
	36.020000	1.053952
	36.025000	1.136170
	36.030000	1.129593
	36.035000	1.040797
	36.040000	1.050664
	36.045000	1.142748
	36.050000	1.129593
	36.055000	1.040797
	36.060000	1.053952
	36.065000	1.142748
	36.070000	1.129593
	36.075000	1.037509
	36.080000	1.053952
	36.085000	1.139459
	36.090000	1.129593
	36.095000	1.040797
	36.100000	1.053952
	36.105000	1.139459
	36.110000	1.129593
	36.115000	1.044086
	36.120000	1.057241
	36.125000	1.142748
	36.130000	1.132882
	36.135000	1.044086
	36.140000	1.053952
	36.145000	1.142748
	36.150000	1.129593
	36.155000	1.047375
	36.160000	1.060530
	36.165000	1.146037
	36.170000	1.132882
	36.175000	1.047375
	36.180000	1.060530
	36.185000	1.142748
	36.190000	1.132882
	36.195000	1.047375
	36.200000	1.060530
	36.205000	1.146037
	36.210000	1.129593
	36.215000	1.047375
	36.220000	1.063818
	36.225000	1.146037
	36.230000	1.132882
	36.235000	1.047375
	36.240000	1.063818
	36.245000	1.146037
	36.250000	1.129593
	36.255000	1.044086
	36.260000	1.060530
	36.265000	1.146037
	36.270000	1.136170
	36.275000	1.047375
	36.280000	1.060530
	36.285000	1.146037
	36.290000	1.132882
	36.295000	1.047375
	36.300000	1.067107
	36.305000	1.149325
	36.310000	1.132882
	36.315000	1.047375
	36.320000	1.060530
	36.325000	1.149325
	36.330000	1.129593
	36.335000	1.050664
	36.340000	1.063818
	36.345000	1.149325
	36.350000	1.129593
	36.355000	1.044086
	36.360000	1.067107
	36.365000	1.149325
	36.370000	1.132882
	36.375000	1.044086
	36.380000	1.067107
	36.385000	1.149325
	36.390000	1.129593
	36.395000	1.050664
	36.400000	1.067107
	36.405000	1.149325
	36.410000	1.126304
	36.415000	1.047375
	36.420000	1.067107
	36.425000	1.152614
	36.430000	1.136170
	36.435000	1.050664
	36.440000	1.063818
	36.445000	1.149325
	36.450000	1.129593
	36.455000	1.050664
	36.460000	1.063818
	36.465000	1.146037
	36.470000	1.129593
	36.475000	1.047375
	36.480000	1.067107
	36.485000	1.146037
	36.490000	1.129593
	36.495000	1.047375
	36.500000	1.067107
	36.505000	1.155903
	36.510000	1.129593
	36.515000	1.047375
	36.520000	1.067107
	36.525000	1.149325
	36.530000	1.129593
	36.535000	1.050664
	36.540000	1.067107
	36.545000	1.149325
	36.550000	1.129593
	36.555000	1.047375
	36.560000	1.070396
	36.565000	1.146037
	36.570000	1.129593
	36.575000	1.044086
	36.580000	1.070396
	36.585000	1.149325
	36.590000	1.129593
	36.595000	1.047375
	36.600000	1.070396
	36.605000	1.149325
	36.610000	1.129593
	36.615000	1.050664
	36.620000	1.067107
	36.625000	1.146037
	36.630000	1.132882
	36.635000	1.047375
	36.640000	1.067107
	36.645000	1.146037
	36.650000	1.132882
	36.655000	1.050664
	36.660000	1.070396
	36.665000	1.155903
	36.670000	1.132882
	36.675000	1.047375
	36.680000	1.070396
	36.685000	1.149325
	36.690000	1.132882
	36.695000	1.050664
	36.700000	1.067107
	36.705000	1.149325
	36.710000	1.129593
	36.715000	1.047375
	36.720000	1.070396
	36.725000	1.152614
	36.730000	1.129593
	36.735000	1.050664
	36.740000	1.070396
	36.745000	1.152614
	36.750000	1.129593
	36.755000	1.050664
	36.760000	1.067107
	36.765000	1.152614
	36.770000	1.136170
	36.775000	1.047375
	36.780000	1.067107
	36.785000	1.152614
	36.790000	1.129593
	36.795000	1.047375
	36.800000	1.067107
	36.805000	1.152614
	36.810000	1.126304
	36.815000	1.044086
	36.820000	1.070396
	36.825000	1.152614
	36.830000	1.129593
	36.835000	1.047375
	36.840000	1.073685
	36.845000	1.149325
	36.850000	1.126304
	36.855000	1.047375
	36.860000	1.073685
	36.865000	1.152614
	36.870000	1.132882
	36.875000	1.047375
	36.880000	1.070396
	36.885000	1.149325
	36.890000	1.132882
	36.895000	1.044086
	36.900000	1.070396
	36.905000	1.155903
	36.910000	1.126304
	36.915000	1.047375
	36.920000	1.070396
	36.925000	1.149325
	36.930000	1.123015
	36.935000	1.044086
	36.940000	1.073685
	36.945000	1.152614
	36.950000	1.126304
	36.955000	1.047375
	36.960000	1.073685
	36.965000	1.152614
	36.970000	1.129593
	36.975000	1.047375
	36.980000	1.073685
	36.985000	1.152614
	36.990000	1.126304
	36.995000	1.047375
	37.000000	1.076973
	37.005000	1.152614
	37.010000	1.129593
	37.015000	1.044086
	37.020000	1.073685
	37.025000	1.149325
	37.030000	1.126304
	37.035000	1.044086
	37.040000	1.073685
	37.045000	1.155903
	37.050000	1.126304
	37.055000	1.047375
	37.060000	1.076973
	37.065000	1.152614
	37.070000	1.129593
	37.075000	1.047375
	37.080000	1.076973
	37.085000	1.152614
	37.090000	1.129593
	37.095000	1.044086
	37.100000	1.073685
	37.105000	1.152614
	37.110000	1.132882
	37.115000	1.047375
	37.120000	1.073685
	37.125000	1.155903
	37.130000	1.123015
	37.135000	1.044086
	37.140000	1.073685
	37.145000	1.152614
	37.150000	1.126304
	37.155000	1.044086
	37.160000	1.070396
	37.165000	1.155903
	37.170000	1.129593
	37.175000	1.050664
	37.180000	1.073685
	37.185000	1.152614
	37.190000	1.126304
	37.195000	1.044086
	37.200000	1.073685
	37.205000	1.149325
	37.210000	1.126304
	37.215000	1.044086
	37.220000	1.073685
	37.225000	1.155903
	37.230000	1.129593
	37.235000	1.044086
	37.240000	1.076973
	37.245000	1.159191
	37.250000	1.126304
	37.255000	1.044086
	37.260000	1.076973
	37.265000	1.152614
	37.270000	1.126304
	37.275000	1.037509
	37.280000	1.073685
	37.285000	1.152614
	37.290000	1.126304
	37.295000	1.044086
	37.300000	1.076973
	37.305000	1.155903
	37.310000	1.126304
	37.315000	1.047375
	37.320000	1.076973
	37.325000	1.159191
	37.330000	1.126304
	37.335000	1.044086
	37.340000	1.076973
	37.345000	1.155903
	37.350000	1.123015
	37.355000	1.044086
	37.360000	1.076973
	37.365000	1.152614
	37.370000	1.123015
	37.375000	1.044086
	37.380000	1.076973
	37.385000	1.152614
	37.390000	1.126304
	37.395000	1.040797
	37.400000	1.073685
	37.405000	1.155903
	37.410000	1.126304
	37.415000	1.044086
	37.420000	1.076973
	37.425000	1.155903
	37.430000	1.123015
	37.435000	1.044086
	37.440000	1.076973
	37.445000	1.152614
	37.450000	1.123015
	37.455000	1.044086
	37.460000	1.076973
	37.465000	1.155903
	37.470000	1.126304
	37.475000	1.047375
	37.480000	1.073685
	37.485000	1.152614
	37.490000	1.123015
	37.495000	1.047375
	37.500000	1.076973
	37.505000	1.155903
	37.510000	1.126304
	37.515000	1.044086
	37.520000	1.076973
	37.525000	1.155903
	37.530000	1.123015
	37.535000	1.047375
	37.540000	1.076973
	37.545000	1.155903
	37.550000	1.119727
	37.555000	1.044086
	37.560000	1.073685
	37.565000	1.152614
	37.570000	1.119727
	37.575000	1.044086
	37.580000	1.080262
	37.585000	1.155903
	37.590000	1.116438
	37.595000	1.040797
	37.600000	1.076973
	37.605000	1.152614
	37.610000	1.126304
	37.615000	1.040797
	37.620000	1.076973
	37.625000	1.159191
	37.630000	1.123015
	37.635000	1.044086
	37.640000	1.073685
	37.645000	1.159191
	37.650000	1.119727
	37.655000	1.040797
	37.660000	1.080262
	37.665000	1.155903
	37.670000	1.123015
	37.675000	1.037509
	37.680000	1.076973
	37.685000	1.155903
	37.690000	1.123015
	37.695000	1.037509
	37.700000	1.076973
	37.705000	1.155903
	37.710000	1.116438
	37.715000	1.044086
	37.720000	1.080262
	37.725000	1.155903
	37.730000	1.119727
	37.735000	1.040797
	37.740000	1.076973
	37.745000	1.159191
	37.750000	1.123015
	37.755000	1.044086
	37.760000	1.076973
	37.765000	1.152614
	37.770000	1.119727
	37.775000	1.044086
	37.780000	1.076973
	37.785000	1.155903
	37.790000	1.123015
	37.795000	1.040797
	37.800000	1.073685
	37.805000	1.152614
	37.810000	1.116438
	37.815000	1.037509
	37.820000	1.076973
	37.825000	1.155903
	37.830000	1.116438
	37.835000	1.040797
	37.840000	1.076973
	37.845000	1.155903
	37.850000	1.113149
	37.855000	1.047375
	37.860000	1.080262
	37.865000	1.152614
	37.870000	1.113149
	37.875000	1.037509
	37.880000	1.076973
	37.885000	1.152614
	37.890000	1.116438
	37.895000	1.044086
	37.900000	1.080262
	37.905000	1.149325
	37.910000	1.119727
	37.915000	1.037509
	37.920000	1.076973
	37.925000	1.155903
	37.930000	1.116438
	37.935000	1.037509
	37.940000	1.076973
	37.945000	1.155903
	37.950000	1.116438
	37.955000	1.037509
	37.960000	1.080262
	37.965000	1.152614
	37.970000	1.116438
	37.975000	1.040797
	37.980000	1.076973
	37.985000	1.149325
	37.990000	1.116438
	37.995000	1.037509
	38.000000	1.076973
	38.005000	1.152614
	38.010000	1.113149
	38.015000	1.034220
	38.020000	1.076973
	38.025000	1.152614
	38.030000	1.106572
	38.035000	1.037509
	38.040000	1.080262
	38.045000	1.152614
	38.050000	1.113149
	38.055000	1.040797
	38.060000	1.076973
	38.065000	1.152614
	38.070000	1.113149
	38.075000	1.037509
	38.080000	1.076973
	38.085000	1.152614
	38.090000	1.113149
	38.095000	1.037509
	38.100000	1.080262
	38.105000	1.149325
	38.110000	1.113149
	38.115000	1.040797
	38.120000	1.076973
	38.125000	1.155903
	38.130000	1.113149
	38.135000	1.037509
	38.140000	1.080262
	38.145000	1.155903
	38.150000	1.119727
	38.155000	1.040797
	38.160000	1.083551
	38.165000	1.159191
	38.170000	1.119727
	38.175000	1.044086
	38.180000	1.083551
	38.185000	1.162480
	38.190000	1.123015
	38.195000	1.047375
	38.200000	1.086840
	38.205000	1.169058
	38.210000	1.123015
	38.215000	1.047375
	38.220000	1.093417
	38.225000	1.165769
	38.230000	1.123015
	38.235000	1.047375
	38.240000	1.090128
	38.245000	1.165769
	38.250000	1.123015
	38.255000	1.050664
	38.260000	1.093417
	38.265000	1.165769
	38.270000	1.123015
	38.275000	1.047375
	38.280000	1.090128
	38.285000	1.162480
	38.290000	1.119727
	38.295000	1.050664
	38.300000	1.090128
	38.305000	1.162480
	38.310000	1.116438
	38.315000	1.050664
	38.320000	1.090128
	38.325000	1.159191
	38.330000	1.119727
	38.335000	1.047375
	38.340000	1.090128
	38.345000	1.165769
	38.350000	1.123015
	38.355000	1.047375
	38.360000	1.090128
	38.365000	1.162480
	38.370000	1.116438
	38.375000	1.047375
	38.380000	1.093417
	38.385000	1.162480
	38.390000	1.116438
	38.395000	1.047375
	38.400000	1.093417
	38.405000	1.162480
	38.410000	1.119727
	38.415000	1.047375
	38.420000	1.093417
	38.425000	1.165769
	38.430000	1.119727
	38.435000	1.053952
	38.440000	1.093417
	38.445000	1.169058
	38.450000	1.119727
	38.455000	1.050664
	38.460000	1.093417
	38.465000	1.165769
	38.470000	1.123015
	38.475000	1.047375
	38.480000	1.096706
	38.485000	1.169058
	38.490000	1.126304
	38.495000	1.053952
	38.500000	1.096706
	38.505000	1.165769
	38.510000	1.119727
	38.515000	1.053952
	38.520000	1.096706
	38.525000	1.162480
	38.530000	1.119727
	38.535000	1.050664
	38.540000	1.093417
	38.545000	1.162480
	38.550000	1.116438
	38.555000	1.050664
	38.560000	1.096706
	38.565000	1.165769
	38.570000	1.116438
	38.575000	1.047375
	38.580000	1.093417
	38.585000	1.165769
	38.590000	1.123015
	38.595000	1.053952
	38.600000	1.099994
	38.605000	1.165769
	38.610000	1.123015
	38.615000	1.053952
	38.620000	1.099994
	38.625000	1.172346
	38.630000	1.126304
	38.635000	1.057241
	38.640000	1.106572
	38.645000	1.175635
	38.650000	1.129593
	38.655000	1.060530
	38.660000	1.103283
	38.665000	1.178924
	38.670000	1.132882
	38.675000	1.063818
	38.680000	1.106572
	38.685000	1.182212
	38.690000	1.136170
	38.695000	1.067107
	38.700000	1.109861
	38.705000	1.178924
	38.710000	1.136170
	38.715000	1.063818
	38.720000	1.109861
	38.725000	1.178924
	38.730000	1.132882
	38.735000	1.063818
	38.740000	1.109861
	38.745000	1.175635
	38.750000	1.132882
	38.755000	1.060530
	38.760000	1.106572
	38.765000	1.178924
	38.770000	1.129593
	38.775000	1.060530
	38.780000	1.106572
	38.785000	1.178924
	38.790000	1.132882
	38.795000	1.063818
	38.800000	1.113149
	38.805000	1.178924
	38.810000	1.126304
	38.815000	1.060530
	38.820000	1.106572
	38.825000	1.172346
	38.830000	1.126304
	38.835000	1.053952
	38.840000	1.109861
	38.845000	1.175635
	38.850000	1.119727
	38.855000	1.057241
	38.860000	1.106572
	38.865000	1.178924
	38.870000	1.126304
	38.875000	1.057241
	38.880000	1.103283
	38.885000	1.175635
	38.890000	1.123015
	38.895000	1.060530
	38.900000	1.106572
	38.905000	1.172346
	38.910000	1.123015
	38.915000	1.053952
	38.920000	1.103283
	38.925000	1.172346
	38.930000	1.119727
	38.935000	1.053952
	38.940000	1.103283
	38.945000	1.169058
	38.950000	1.119727
	38.955000	1.053952
	38.960000	1.103283
	38.965000	1.165769
	38.970000	1.116438
	38.975000	1.044086
	38.980000	1.096706
	38.985000	1.162480
	38.990000	1.109861
	38.995000	1.044086
	39.000000	1.093417
	39.005000	1.155903
	39.010000	1.106572
	39.015000	1.040797
	39.020000	1.093417
	39.025000	1.155903
	39.030000	1.106572
	39.035000	1.040797
	39.040000	1.093417
	39.045000	1.165769
	39.050000	1.113149
	39.055000	1.044086
	39.060000	1.099994
	39.065000	1.169058
	39.070000	1.116438
	39.075000	1.050664
	39.080000	1.103283
	39.085000	1.172346
	39.090000	1.119727
	39.095000	1.057241
	39.100000	1.106572
	39.105000	1.169058
	39.110000	1.116438
	39.115000	1.053952
	39.120000	1.103283
	39.125000	1.172346
	39.130000	1.119727
	39.135000	1.050664
	39.140000	1.109861
	39.145000	1.172346
	39.150000	1.116438
	39.155000	1.050664
	39.160000	1.099994
	39.165000	1.169058
	39.170000	1.116438
	39.175000	1.050664
	39.180000	1.106572
	39.185000	1.162480
	39.190000	1.109861
	39.195000	1.047375
	39.200000	1.099994
	39.205000	1.169058
	39.210000	1.109861
	39.215000	1.047375
	39.220000	1.099994
	39.225000	1.159191
	39.230000	1.106572
	39.235000	1.044086
	39.240000	1.093417
	39.245000	1.162480
	39.250000	1.103283
	39.255000	1.037509
	39.260000	1.093417
	39.265000	1.149325
	39.270000	1.093417
	39.275000	1.034220
	39.280000	1.083551
	39.285000	1.142748
	39.290000	1.086840
	39.295000	1.017776
	39.300000	1.073685
	39.305000	1.132882
	39.310000	1.080262
	39.315000	1.014488
	39.320000	1.076973
	39.325000	1.132882
	39.330000	1.080262
	39.335000	1.017776
	39.340000	1.073685
	39.345000	1.132882
	39.350000	1.076973
	39.355000	1.017776
	39.360000	1.070396
	39.365000	1.132882
	39.370000	1.080262
	39.375000	1.014488
	39.380000	1.070396
	39.385000	1.136170
	39.390000	1.080262
	39.395000	1.017776
	39.400000	1.073685
	39.405000	1.139459
	39.410000	1.083551
	39.415000	1.014488
	39.420000	1.076973
	39.425000	1.136170
	39.430000	1.086840
	39.435000	1.024354
	39.440000	1.080262
	39.445000	1.142748
	39.450000	1.086840
	39.455000	1.027643
	39.460000	1.086840
	39.465000	1.146037
	39.470000	1.096706
	39.475000	1.034220
	39.480000	1.090128
	39.485000	1.152614
	39.490000	1.103283
	39.495000	1.037509
	39.500000	1.099994
	39.505000	1.159191
	39.510000	1.109861
	39.515000	1.047375
	39.520000	1.106572
	39.525000	1.165769
	39.530000	1.109861
	39.535000	1.047375
	39.540000	1.106572
	39.545000	1.169058
	39.550000	1.103283
	39.555000	1.044086
	39.560000	1.103283
	39.565000	1.162480
	39.570000	1.106572
	39.575000	1.044086
	39.580000	1.096706
	39.585000	1.155903
	39.590000	1.099994
	39.595000	1.040797
	39.600000	1.093417
	39.605000	1.149325
	39.610000	1.093417
	39.615000	1.030931
	39.620000	1.090128
	39.625000	1.149325
	39.630000	1.090128
	39.635000	1.034220
	39.640000	1.086840
	39.645000	1.146037
	39.650000	1.093417
	39.655000	1.034220
	39.660000	1.093417
	39.665000	1.149325
	39.670000	1.096706
	39.675000	1.030931
	39.680000	1.090128
	39.685000	1.146037
	39.690000	1.093417
	39.695000	1.030931
	39.700000	1.086840
	39.705000	1.139459
	39.710000	1.090128
	39.715000	1.027643
	39.720000	1.090128
	39.725000	1.149325
	39.730000	1.083551
	39.735000	1.027643
	39.740000	1.090128
	39.745000	1.142748
	39.750000	1.083551
	39.755000	1.024354
	39.760000	1.080262
	39.765000	1.136170
	39.770000	1.076973
	39.775000	1.017776
	39.780000	1.076973
	39.785000	1.139459
	39.790000	1.076973
	39.795000	1.017776
	39.800000	1.080262
	39.805000	1.136170
	39.810000	1.073685
	39.815000	1.024354
	39.820000	1.083551
	39.825000	1.142748
	39.830000	1.076973
	39.835000	1.021065
	39.840000	1.083551
	39.845000	1.139459
	39.850000	1.076973
	39.855000	1.024354
	39.860000	1.080262
	39.865000	1.136170
	39.870000	1.076973
	39.875000	1.024354
	39.880000	1.086840
	39.885000	1.136170
	39.890000	1.080262
	39.895000	1.024354
	39.900000	1.086840
	39.905000	1.139459
	39.910000	1.080262
	39.915000	1.027643
	39.920000	1.083551
	39.925000	1.139459
	39.930000	1.080262
	39.935000	1.024354
	39.940000	1.090128
	39.945000	1.149325
	39.950000	1.080262
	39.955000	1.024354
	39.960000	1.090128
	39.965000	1.142748
	39.970000	1.083551
	39.975000	1.021065
	39.980000	1.086840
	39.985000	1.142748
	39.990000	1.080262
	39.995000	1.024354
	40.000000	1.090128
	40.005000	1.142748
	40.010000	1.076973
	40.015000	1.027643
	40.020000	1.086840
	40.025000	1.142748
	40.030000	1.080262
	40.035000	1.024354
	40.040000	1.086840
	40.045000	1.142748
	40.050000	1.080262
	40.055000	1.027643
	40.060000	1.093417
	40.065000	1.146037
	40.070000	1.080262
	40.075000	1.030931
	40.080000	1.093417
	40.085000	1.152614
	40.090000	1.086840
	40.095000	1.037509
	40.100000	1.103283
	40.105000	1.155903
	40.110000	1.096706
	40.115000	1.040797
	40.120000	1.103283
	40.125000	1.162480
	40.130000	1.096706
	40.135000	1.047375
	40.140000	1.109861
	40.145000	1.165769
	40.150000	1.103283
	40.155000	1.047375
	40.160000	1.113149
	40.165000	1.162480
	40.170000	1.096706
	40.175000	1.044086
	40.180000	1.103283
	40.185000	1.159191
	40.190000	1.090128
	40.195000	1.037509
	40.200000	1.103283
	40.205000	1.152614
	40.210000	1.086840
	40.215000	1.030931
	40.220000	1.093417
	40.225000	1.146037
	40.230000	1.080262
	40.235000	1.021065
	40.240000	1.083551
	40.245000	1.132882
	40.250000	1.070396
	40.255000	1.011199
	40.260000	1.080262
	40.265000	1.126304
	40.270000	1.063818
	40.275000	1.011199
	40.280000	1.076973
	40.285000	1.129593
	40.290000	1.067107
	40.295000	1.014488
	40.300000	1.080262
	40.305000	1.132882
	40.310000	1.063818
	40.315000	1.017776
	40.320000	1.080262
	40.325000	1.136170
	40.330000	1.070396
	40.335000	1.021065
	40.340000	1.083551
	40.345000	1.136170
	40.350000	1.070396
	40.355000	1.017776
	40.360000	1.083551
	40.365000	1.136170
	40.370000	1.073685
	40.375000	1.017776
	40.380000	1.086840
	40.385000	1.136170
	40.390000	1.070396
	40.395000	1.014488
	40.400000	1.086840
	40.405000	1.139459
	40.410000	1.070396
	40.415000	1.017776
	40.420000	1.083551
	40.425000	1.136170
	40.430000	1.067107
	40.435000	1.017776
	40.440000	1.086840
	40.445000	1.139459
	40.450000	1.070396
	40.455000	1.021065
	40.460000	1.090128
	40.465000	1.136170
	40.470000	1.073685
	40.475000	1.017776
	40.480000	1.086840
	40.485000	1.139459
	40.490000	1.070396
	40.495000	1.024354
	40.500000	1.093417
	40.505000	1.139459
	40.510000	1.070396
	40.515000	1.024354
	40.520000	1.090128
	40.525000	1.139459
	40.530000	1.070396
	40.535000	1.024354
	40.540000	1.090128
	40.545000	1.142748
	40.550000	1.073685
	40.555000	1.017776
	40.560000	1.090128
	40.565000	1.139459
	40.570000	1.070396
	40.575000	1.024354
	40.580000	1.090128
	40.585000	1.139459
	40.590000	1.076973
	40.595000	1.024354
	40.600000	1.090128
	40.605000	1.139459
	40.610000	1.073685
	40.615000	1.024354
	40.620000	1.096706
	40.625000	1.142748
	40.630000	1.073685
	40.635000	1.024354
	40.640000	1.099994
	40.645000	1.149325
	40.650000	1.076973
	40.655000	1.034220
	40.660000	1.103283
	40.665000	1.155903
	40.670000	1.083551
	40.675000	1.037509
	40.680000	1.106572
	40.685000	1.159191
	40.690000	1.090128
	40.695000	1.044086
	40.700000	1.113149
	40.705000	1.162480
	40.710000	1.093417
	40.715000	1.047375
	40.720000	1.116438
	40.725000	1.162480
	40.730000	1.090128
	40.735000	1.044086
	40.740000	1.113149
	40.745000	1.159191
	40.750000	1.090128
	40.755000	1.040797
	40.760000	1.109861
	40.765000	1.152614
	40.770000	1.083551
	40.775000	1.037509
	40.780000	1.099994
	40.785000	1.149325
	40.790000	1.080262
	40.795000	1.030931
	40.800000	1.099994
	40.805000	1.142748
	40.810000	1.070396
	40.815000	1.021065
	40.820000	1.090128
	40.825000	1.136170
	40.830000	1.063818
	40.835000	1.014488
	40.840000	1.086840
	40.845000	1.136170
	40.850000	1.063818
	40.855000	1.014488
	40.860000	1.086840
	40.865000	1.136170
	40.870000	1.067107
	40.875000	1.027643
	40.880000	1.090128
	40.885000	1.142748
	40.890000	1.067107
	40.895000	1.024354
	40.900000	1.090128
	40.905000	1.139459
	40.910000	1.070396
	40.915000	1.024354
	40.920000	1.093417
	40.925000	1.142748
	40.930000	1.070396
	40.935000	1.027643
	40.940000	1.096706
	40.945000	1.146037
	40.950000	1.080262
	40.955000	1.037509
	40.960000	1.109861
	40.965000	1.155903
	40.970000	1.086840
	40.975000	1.044086
	40.980000	1.116438
	40.985000	1.159191
	40.990000	1.090128
	40.995000	1.047375
	41.000000	1.116438
	41.005000	1.162480
	41.010000	1.090128
	41.015000	1.044086
	41.020000	1.116438
	41.025000	1.162480
	41.030000	1.086840
	41.035000	1.047375
	41.040000	1.119727
	41.045000	1.162480
	41.050000	1.090128
	41.055000	1.047375
	41.060000	1.113149
	41.065000	1.159191
	41.070000	1.086840
	41.075000	1.047375
	41.080000	1.123015
	41.085000	1.162480
	41.090000	1.096706
	41.095000	1.053952
	41.100000	1.129593
	41.105000	1.172346
	41.110000	1.103283
	41.115000	1.063818
	41.120000	1.139459
	41.125000	1.182212
	41.130000	1.109861
	41.135000	1.073685
	41.140000	1.142748
	41.145000	1.188790
	41.150000	1.109861
	41.155000	1.070396
	41.160000	1.146037
	41.165000	1.185501
	41.170000	1.116438
	41.175000	1.067107
	41.180000	1.136170
	41.185000	1.182212
	41.190000	1.109861
	41.195000	1.063818
	41.200000	1.136170
	41.205000	1.178924
	41.210000	1.099994
	41.215000	1.057241
	41.220000	1.129593
	41.225000	1.165769
	41.230000	1.093417
	41.235000	1.053952
	41.240000	1.126304
	41.245000	1.155903
	41.250000	1.086840
	41.255000	1.040797
	41.260000	1.109861
	41.265000	1.146037
	41.270000	1.070396
	41.275000	1.017776
	41.280000	1.093417
	41.285000	1.129593
	41.290000	1.050664
	41.295000	1.004621
	41.300000	1.076973
	41.305000	1.116438
	41.310000	1.040797
	41.315000	1.001333
	41.320000	1.076973
	41.325000	1.113149
	41.330000	1.044086
	41.335000	1.004621
	41.340000	1.080262
	41.345000	1.123015
	41.350000	1.053952
	41.355000	1.011199
	41.360000	1.086840
	41.365000	1.129593
	41.370000	1.053952
	41.375000	1.014488
	41.380000	1.086840
	41.385000	1.132882
	41.390000	1.057241
	41.395000	1.017776
	41.400000	1.096706
	41.405000	1.132882
	41.410000	1.057241
	41.415000	1.024354
	41.420000	1.093417
	41.425000	1.136170
	41.430000	1.063818
	41.435000	1.021065
	41.440000	1.096706
	41.445000	1.136170
	41.450000	1.060530
	41.455000	1.024354
	41.460000	1.093417
	41.465000	1.132882
	41.470000	1.057241
	41.475000	1.021065
	41.480000	1.096706
	41.485000	1.139459
	41.490000	1.060530
	41.495000	1.024354
	41.500000	1.103283
	41.505000	1.146037
	41.510000	1.080262
	41.515000	1.050664
	41.520000	1.119727
	41.525000	1.165769
	41.530000	1.099994
	41.535000	1.063818
	41.540000	1.146037
	41.545000	1.178924
	41.550000	1.106572
	41.555000	1.070396
	41.560000	1.142748
	41.565000	1.178924
	41.570000	1.103283
	41.575000	1.067107
	41.580000	1.142748
	41.585000	1.178924
	41.590000	1.106572
	41.595000	1.063818
	41.600000	1.136170
	41.605000	1.169058
	41.610000	1.093417
	41.615000	1.057241
	41.620000	1.129593
	41.625000	1.169058
	41.630000	1.083551
	41.635000	1.047375
	41.640000	1.123015
	41.645000	1.152614
	41.650000	1.076973
	41.655000	1.040797
	41.660000	1.116438
	41.665000	1.149325
	41.670000	1.073685
	41.675000	1.034220
	41.680000	1.109861
	41.685000	1.139459
	41.690000	1.067107
	41.695000	1.030931
	41.700000	1.106572
	41.705000	1.139459
	41.710000	1.063818
	41.715000	1.027643
	41.720000	1.099994
	41.725000	1.139459
	41.730000	1.063818
	41.735000	1.024354
	41.740000	1.096706
	41.745000	1.132882
	41.750000	1.057241
	41.755000	1.021065
	41.760000	1.099994
	41.765000	1.129593
	41.770000	1.057241
	41.775000	1.021065
	41.780000	1.096706
	41.785000	1.132882
	41.790000	1.057241
	41.795000	1.024354
	41.800000	1.096706
	41.805000	1.129593
	41.810000	1.053952
	41.815000	1.014488
	41.820000	1.093417
	41.825000	1.129593
	41.830000	1.053952
	41.835000	1.017776
	41.840000	1.096706
	41.845000	1.126304
	41.850000	1.050664
	41.855000	1.014488
	41.860000	1.093417
	41.865000	1.126304
	41.870000	1.047375
	41.875000	1.011199
	41.880000	1.093417
	41.885000	1.126304
	41.890000	1.053952
	41.895000	1.014488
	41.900000	1.099994
	41.905000	1.132882
	41.910000	1.050664
	41.915000	1.024354
	41.920000	1.099994
	41.925000	1.139459
	41.930000	1.060530
	41.935000	1.027643
	41.940000	1.106572
	41.945000	1.146037
	41.950000	1.070396
	41.955000	1.037509
	41.960000	1.119727
	41.965000	1.152614
	41.970000	1.076973
	41.975000	1.047375
	41.980000	1.132882
	41.985000	1.169058
	41.990000	1.090128
	41.995000	1.057241
	42.000000	1.139459
	42.005000	1.172346
	42.010000	1.090128
	42.015000	1.063818
	42.020000	1.142748
	42.025000	1.169058
	42.030000	1.093417
	42.035000	1.060530
	42.040000	1.139459
	42.045000	1.169058
	42.050000	1.090128
	42.055000	1.057241
	42.060000	1.132882
	42.065000	1.162480
	42.070000	1.083551
	42.075000	1.050664
	42.080000	1.132882
	42.085000	1.162480
	42.090000	1.083551
	42.095000	1.047375
	42.100000	1.126304
	42.105000	1.159191
	42.110000	1.076973
	42.115000	1.047375
	42.120000	1.126304
	42.125000	1.152614
	42.130000	1.073685
	42.135000	1.047375
	42.140000	1.126304
	42.145000	1.149325
	42.150000	1.076973
	42.155000	1.047375
	42.160000	1.119727
	42.165000	1.149325
	42.170000	1.070396
	42.175000	1.040797
	42.180000	1.123015
	42.185000	1.149325
	42.190000	1.067107
	42.195000	1.040797
	42.200000	1.116438
	42.205000	1.146037
	42.210000	1.070396
	42.215000	1.037509
	42.220000	1.116438
	42.225000	1.146037
	42.230000	1.067107
	42.235000	1.040797
	42.240000	1.116438
	42.245000	1.142748
	42.250000	1.063818
	42.255000	1.037509
	42.260000	1.116438
	42.265000	1.142748
	42.270000	1.063818
	42.275000	1.030931
	42.280000	1.106572
	42.285000	1.132882
	42.290000	1.047375
	42.295000	1.011199
	42.300000	1.083551
	42.305000	1.109861
	42.310000	1.024354
	42.315000	0.998044
	42.320000	1.076973
	42.325000	1.099994
	42.330000	1.021065
	42.335000	0.991467
	42.340000	1.067107
	42.345000	1.096706
	42.350000	1.017776
	42.355000	0.984889
	42.360000	1.067107
	42.365000	1.093417
	42.370000	1.011199
	42.375000	0.981600
	42.380000	1.063818
	42.385000	1.090128
	42.390000	1.007910
	42.395000	0.984889
	42.400000	1.063818
	42.405000	1.090128
	42.410000	1.011199
	42.415000	0.978312
	42.420000	1.063818
	42.425000	1.093417
	42.430000	1.011199
	42.435000	0.988178
	42.440000	1.067107
	42.445000	1.096706
	42.450000	1.014488
	42.455000	0.991467
	42.460000	1.070396
	42.465000	1.099994
	42.470000	1.017776
	42.475000	0.991467
	42.480000	1.070396
	42.485000	1.099994
	42.490000	1.021065
	42.495000	0.991467
	42.500000	1.076973
	42.505000	1.099994
	42.510000	1.021065
	42.515000	0.991467
	42.520000	1.080262
	42.525000	1.106572
	42.530000	1.024354
	42.535000	0.994755
	42.540000	1.080262
	42.545000	1.106572
	42.550000	1.024354
	42.555000	0.998044
	42.560000	1.080262
	42.565000	1.109861
	42.570000	1.024354
	42.575000	1.001333
	42.580000	1.080262
	42.585000	1.106572
	42.590000	1.024354
	42.595000	0.998044
	42.600000	1.083551
	42.605000	1.099994
	42.610000	1.024354
	42.615000	0.994755
	42.620000	1.086840
	42.625000	1.106572
	42.630000	1.024354
	42.635000	0.998044
	42.640000	1.080262
	42.645000	1.109861
	42.650000	1.024354
	42.655000	0.998044
	42.660000	1.086840
	42.665000	1.106572
	42.670000	1.024354
	42.675000	0.998044
	42.680000	1.083551
	42.685000	1.106572
	42.690000	1.021065
	42.695000	0.998044
	42.700000	1.083551
	42.705000	1.109861
	42.710000	1.024354
	42.715000	1.004621
	42.720000	1.086840
	42.725000	1.116438
	42.730000	1.024354
	42.735000	1.001333
	42.740000	1.086840
	42.745000	1.113149
	42.750000	1.027643
	42.755000	1.001333
	42.760000	1.090128
	42.765000	1.116438
	42.770000	1.027643
	42.775000	0.998044
	42.780000	1.093417
	42.785000	1.123015
	42.790000	1.024354
	42.795000	1.001333
	42.800000	1.093417
	42.805000	1.116438
	42.810000	1.034220
	42.815000	1.007910
	42.820000	1.096706
	42.825000	1.116438
	42.830000	1.030931
	42.835000	1.004621
	42.840000	1.090128
	42.845000	1.119727
	42.850000	1.027643
	42.855000	1.004621
	42.860000	1.093417
	42.865000	1.116438
	42.870000	1.024354
	42.875000	1.004621
	42.880000	1.093417
	42.885000	1.119727
	42.890000	1.024354
	42.895000	1.004621
	42.900000	1.093417
	42.905000	1.119727
	42.910000	1.027643
	42.915000	1.001333
	42.920000	1.093417
	42.925000	1.116438
	42.930000	1.024354
	42.935000	1.004621
	42.940000	1.096706
	42.945000	1.116438
	42.950000	1.027643
	42.955000	0.994755
	42.960000	1.090128
	42.965000	1.116438
	42.970000	1.027643
	42.975000	0.998044
	42.980000	1.096706
	42.985000	1.119727
	42.990000	1.024354
	42.995000	0.998044
	43.000000	1.090128
	43.005000	1.119727
	43.010000	1.021065
	43.015000	0.998044
	43.020000	1.096706
	43.025000	1.116438
	43.030000	1.021065
	43.035000	1.001333
	43.040000	1.093417
	43.045000	1.119727
	43.050000	1.024354
	43.055000	0.998044
	43.060000	1.099994
	43.065000	1.116438
	43.070000	1.027643
	43.075000	1.001333
	43.080000	1.099994
	43.085000	1.123015
	43.090000	1.024354
	43.095000	1.001333
	43.100000	1.096706
	43.105000	1.123015
	43.110000	1.027643
	43.115000	0.998044
	43.120000	1.099994
	43.125000	1.119727
	43.130000	1.024354
	43.135000	1.001333
	43.140000	1.093417
	43.145000	1.119727
	43.150000	1.024354
	43.155000	0.998044
	43.160000	1.096706
	43.165000	1.126304
	43.170000	1.024354
	43.175000	0.998044
	43.180000	1.096706
	43.185000	1.123015
	43.190000	1.027643
	43.195000	0.994755
	43.200000	1.090128
	43.205000	1.116438
	43.210000	1.021065
	43.215000	0.994755
	43.220000	1.099994
	43.225000	1.123015
	43.230000	1.021065
	43.235000	0.994755
	43.240000	1.093417
	43.245000	1.119727
	43.250000	1.017776
	43.255000	0.998044
	43.260000	1.093417
	43.265000	1.116438
	43.270000	1.017776
	43.275000	0.991467
	43.280000	1.093417
	43.285000	1.116438
	43.290000	1.014488
	43.295000	0.991467
	43.300000	1.096706
	43.305000	1.119727
	43.310000	1.014488
	43.315000	0.988178
	43.320000	1.093417
	43.325000	1.116438
	43.330000	1.017776
	43.335000	0.988178
	43.340000	1.093417
	43.345000	1.113149
	43.350000	1.011199
	43.355000	0.988178
	43.360000	1.090128
	43.365000	1.109861
	43.370000	1.007910
	43.375000	0.984889
	43.380000	1.086840
	43.385000	1.109861
	43.390000	1.011199
	43.395000	0.984889
	43.400000	1.086840
	43.405000	1.116438
	43.410000	1.007910
	43.415000	0.981600
	43.420000	1.083551
	43.425000	1.106572
	43.430000	1.001333
	43.435000	0.978312
	43.440000	1.080262
	43.445000	1.103283
	43.450000	1.001333
	43.455000	0.975023
	43.460000	1.080262
	43.465000	1.099994
	43.470000	1.001333
	43.475000	0.975023
	43.480000	1.070396
	43.485000	1.099994
	43.490000	0.994755
	43.495000	0.971734
	43.500000	1.073685
	43.505000	1.096706
	43.510000	0.994755
	43.515000	0.968446
	43.520000	1.067107
	43.525000	1.093417
	43.530000	0.988178
	43.535000	0.968446
	43.540000	1.063818
	43.545000	1.083551
	43.550000	0.984889
	43.555000	0.961868
	43.560000	1.063818
	43.565000	1.080262
	43.570000	0.981600
	43.575000	0.958579
	43.580000	1.057241
	43.585000	1.076973
	43.590000	0.978312
	43.595000	0.955291
	43.600000	1.053952
	43.605000	1.076973
	43.610000	0.975023
	43.615000	0.952002
	43.620000	1.057241
	43.625000	1.073685
	43.630000	0.971734
	43.635000	0.948713
	43.640000	1.050664
	43.645000	1.073685
	43.650000	0.971734
	43.655000	0.948713
	43.660000	1.050664
	43.665000	1.070396
	43.670000	0.968446
	43.675000	0.945424
	43.680000	1.050664
	43.685000	1.073685
	43.690000	0.965157
	43.695000	0.948713
	43.700000	1.047375
	43.705000	1.063818
	43.710000	0.965157
	43.715000	0.948713
	43.720000	1.044086
	43.725000	1.067107
	43.730000	0.958579
	43.735000	0.942136
	43.740000	1.044086
	43.745000	1.067107
	43.750000	0.961868
	43.755000	0.942136
	43.760000	1.040797
	43.765000	1.060530
	43.770000	0.961868
	43.775000	0.942136
	43.780000	1.044086
	43.785000	1.063818
	43.790000	0.958579
	43.795000	0.938847
	43.800000	1.037509
	43.805000	1.057241
	43.810000	0.955291
	43.815000	0.935558
	43.820000	1.034220
	43.825000	1.053952
	43.830000	0.952002
	43.835000	0.928981
	43.840000	1.034220
	43.845000	1.053952
	43.850000	0.948713
	43.855000	0.928981
	43.860000	1.034220
	43.865000	1.047375
	43.870000	0.945424
	43.875000	0.925692
	43.880000	1.027643
	43.885000	1.047375
	43.890000	0.938847
	43.895000	0.925692
	43.900000	1.024354
	43.905000	1.040797
	43.910000	0.938847
	43.915000	0.919115
	43.920000	1.021065
	43.925000	1.040797
	43.930000	0.938847
	43.935000	0.922403
	43.940000	1.024354
	43.945000	1.044086
	43.950000	0.935558
	43.955000	0.919115
	43.960000	1.024354
	43.965000	1.040797
	43.970000	0.935558
	43.975000	0.919115
	43.980000	1.021065
	43.985000	1.044086
	43.990000	0.935558
	43.995000	0.919115
	44.000000	1.024354
	44.005000	1.037509
	44.010000	0.932270
	44.015000	0.919115
	44.020000	1.021065
	44.025000	1.037509
	44.030000	0.932270
	44.035000	0.915826
	44.040000	1.021065
	44.045000	1.034220
	44.050000	0.928981
	44.055000	0.912537
	44.060000	1.017776
	44.065000	1.034220
	44.070000	0.928981
	44.075000	0.915826
	44.080000	1.011199
	44.085000	1.034220
	44.090000	0.928981
	44.095000	0.905960
	44.100000	1.011199
	44.105000	1.034220
	44.110000	0.922403
	44.115000	0.905960
	44.120000	1.011199
	44.125000	1.024354
	44.130000	0.922403
	44.135000	0.905960
	44.140000	1.017776
	44.145000	1.024354
	44.150000	0.919115
	44.155000	0.905960
	44.160000	1.007910
	44.165000	1.024354
	44.170000	0.919115
	44.175000	0.902671
	44.180000	1.007910
	44.185000	1.021065
	44.190000	0.915826
	44.195000	0.902671
	44.200000	1.004621
	44.205000	1.017776
	44.210000	0.912537
	44.215000	0.896094
	44.220000	1.001333
	44.225000	1.017776
	44.230000	0.912537
	44.235000	0.896094
	44.240000	0.998044
	44.245000	1.014488
	44.250000	0.909249
	44.255000	0.892805
	44.260000	0.998044
	44.265000	1.011199
	44.270000	0.905960
	44.275000	0.892805
	44.280000	0.994755
	44.285000	1.007910
	44.290000	0.902671
	44.295000	0.886227
	44.300000	0.994755
	44.305000	1.004621
	44.310000	0.899382
	44.315000	0.886227
	44.320000	0.991467
	44.325000	1.004621
	44.330000	0.896094
	44.335000	0.889516
	44.340000	0.984889
	44.345000	0.998044
	44.350000	0.892805
	44.355000	0.879650
	44.360000	0.981600
	44.365000	1.001333
	44.370000	0.892805
	44.375000	0.879650
	44.380000	0.984889
	44.385000	0.998044
	44.390000	0.886227
	44.395000	0.879650
	44.400000	0.981600
	44.405000	0.991467
	44.410000	0.886227
	44.415000	0.879650
	44.420000	0.978312
	44.425000	0.988178
	44.430000	0.886227
	44.435000	0.873073
	44.440000	0.978312
	44.445000	0.991467
	44.450000	0.886227
	44.455000	0.873073
	44.460000	0.975023
	44.465000	0.988178
	44.470000	0.882939
	44.475000	0.873073
	44.480000	0.975023
	44.485000	0.984889
	44.490000	0.879650
	44.495000	0.869784
	44.500000	0.975023
	44.505000	0.988178
	44.510000	0.879650
	44.515000	0.866495
	44.520000	0.971734
	44.525000	0.984889
	44.530000	0.876361
	44.535000	0.866495
	44.540000	0.968446
	44.545000	0.981600
	44.550000	0.873073
	44.555000	0.866495
	44.560000	0.968446
	44.565000	0.978312
	44.570000	0.869784
	44.575000	0.863206
	44.580000	0.968446
	44.585000	0.978312
	44.590000	0.869784
	44.595000	0.863206
	44.600000	0.958579
	44.605000	0.978312
	44.610000	0.873073
	44.615000	0.856629
	44.620000	0.961868
	44.625000	0.975023
	44.630000	0.869784
	44.635000	0.859918
	44.640000	0.958579
	44.645000	0.971734
	44.650000	0.866495
	44.655000	0.859918
	44.660000	0.961868
	44.665000	0.975023
	44.670000	0.863206
	44.675000	0.853340
	44.680000	0.955291
	44.685000	0.971734
	44.690000	0.866495
	44.695000	0.853340
	44.700000	0.955291
	44.705000	0.968446
	44.710000	0.859918
	44.715000	0.850051
	44.720000	0.955291
	44.725000	0.961868
	44.730000	0.859918
	44.735000	0.840185
	44.740000	0.945424
	44.745000	0.955291
	44.750000	0.853340
	44.755000	0.843474
	44.760000	0.948713
	44.765000	0.955291
	44.770000	0.853340
	44.775000	0.840185
	44.780000	0.945424
	44.785000	0.958579
	44.790000	0.850051
	44.795000	0.843474
	44.800000	0.948713
	44.805000	0.952002
	44.810000	0.846763
	44.815000	0.836897
	44.820000	0.945424
	44.825000	0.955291
	44.830000	0.846763
	44.835000	0.840185
	44.840000	0.938847
	44.845000	0.948713
	44.850000	0.843474
	44.855000	0.836897
	44.860000	0.938847
	44.865000	0.948713
	44.870000	0.840185
	44.875000	0.836897
	44.880000	0.935558
	44.885000	0.945424
	44.890000	0.840185
	44.895000	0.833608
	44.900000	0.935558
	44.905000	0.942136
	44.910000	0.840185
	44.915000	0.830319
	44.920000	0.935558
	44.925000	0.945424
	44.930000	0.843474
	44.935000	0.827030
	44.940000	0.935558
	44.945000	0.942136
	44.950000	0.836897
	44.955000	0.830319
	44.960000	0.932270
	44.965000	0.938847
	44.970000	0.836897
	44.975000	0.827030
	44.980000	0.932270
	44.985000	0.938847
	44.990000	0.830319
	44.995000	0.823742
	45.000000	0.928981
	45.005000	0.932270
	45.010000	0.830319
	45.015000	0.823742
	45.020000	0.928981
	45.025000	0.938847
	45.030000	0.830319
	45.035000	0.820453
	45.040000	0.925692
	45.045000	0.935558
	45.050000	0.823742
	45.055000	0.820453
	45.060000	0.925692
	45.065000	0.935558
	45.070000	0.827030
	45.075000	0.820453
	45.080000	0.925692
	45.085000	0.932270
	45.090000	0.823742
	45.095000	0.817164
	45.100000	0.922403
	45.105000	0.932270
	45.110000	0.820453
	45.115000	0.817164
	45.120000	0.915826
	45.125000	0.925692
	45.130000	0.823742
	45.135000	0.813876
	45.140000	0.915826
	45.145000	0.922403
	45.150000	0.820453
	45.155000	0.813876
	45.160000	0.919115
	45.165000	0.925692
	45.170000	0.817164
	45.175000	0.813876
	45.180000	0.915826
	45.185000	0.919115
	45.190000	0.813876
	45.195000	0.810587
	45.200000	0.909249
	45.205000	0.919115
	45.210000	0.807298
	45.215000	0.807298
	45.220000	0.912537
	45.225000	0.912537
	45.230000	0.813876
	45.235000	0.804009
	45.240000	0.909249
	45.245000	0.919115
	45.250000	0.810587
	45.255000	0.804009
	45.260000	0.909249
	45.265000	0.912537
	45.270000	0.810587
	45.275000	0.807298
	45.280000	0.905960
	45.285000	0.905960
	45.290000	0.804009
	45.295000	0.800721
	45.300000	0.905960
	45.305000	0.909249
