2024/7/2 	 15:10:24 
 This file comes from Vt only measurement 	 1.000000E-1 
 Voltage Sensitivity 	 0.000000E+0 
 Sampling rate 	 500 
 Number of samples per channel 	 -1 
 No filter from Labview 	 	 	 
 	 
 ***End_of_Header*** 
 	 Time 	  Voltage 	 Filtered Voltage 	 
	0.000000	-1.727470
	0.002000	-1.759703
	0.004000	-1.762927
	0.006000	-1.737140
	0.008000	-1.692013
	0.010000	-1.637216
	0.012000	-1.608205
	0.014000	-1.598535
	0.016000	-1.627546
	0.018000	-1.669449
	0.020000	-1.721023
	0.022000	-1.759703
	0.024000	-1.762927
	0.026000	-1.733916
	0.028000	-1.688789
	0.030000	-1.637216
	0.032000	-1.608205
	0.034000	-1.598535
	0.036000	-1.624322
	0.038000	-1.675896
	0.040000	-1.727470
	0.042000	-1.759703
	0.044000	-1.762927
	0.046000	-1.733916
	0.048000	-1.698459
	0.050000	-1.633992
	0.052000	-1.608205
	0.054000	-1.604982
	0.056000	-1.624322
	0.058000	-1.679119
	0.060000	-1.721023
	0.062000	-1.759703
	0.064000	-1.766150
	0.066000	-1.733916
	0.068000	-1.685566
	0.070000	-1.646886
	0.072000	-1.611429
	0.074000	-1.598535
	0.076000	-1.627546
	0.078000	-1.672673
	0.080000	-1.724246
	0.082000	-1.759703
	0.084000	-1.762927
	0.086000	-1.740363
	0.088000	-1.688789
	0.090000	-1.640439
	0.092000	-1.611429
	0.094000	-1.601759
	0.096000	-1.624322
	0.098000	-1.675896
	0.100000	-1.727470
	0.102000	-1.762927
	0.104000	-1.762927
	0.106000	-1.743586
	0.108000	-1.692013
	0.110000	-1.637216
	0.112000	-1.601759
	0.114000	-1.611429
	0.116000	-1.624322
	0.118000	-1.672673
	0.120000	-1.721023
	0.122000	-1.759703
	0.124000	-1.766150
	0.126000	-1.740363
	0.128000	-1.688789
	0.130000	-1.646886
	0.132000	-1.614652
	0.134000	-1.598535
	0.136000	-1.624322
	0.138000	-1.679119
	0.140000	-1.724246
	0.142000	-1.759703
	0.144000	-1.762927
	0.146000	-1.733916
	0.148000	-1.692013
	0.150000	-1.646886
	0.152000	-1.608205
	0.154000	-1.604982
	0.156000	-1.624322
	0.158000	-1.675896
	0.160000	-1.721023
	0.162000	-1.766150
	0.164000	-1.769373
	0.166000	-1.743586
	0.168000	-1.698459
	0.170000	-1.643662
	0.172000	-1.614652
	0.174000	-1.601759
	0.176000	-1.624322
	0.178000	-1.675896
	0.180000	-1.724246
	0.182000	-1.762927
	0.184000	-1.766150
	0.186000	-1.740363
	0.188000	-1.695236
	0.190000	-1.643662
	0.192000	-1.608205
	0.194000	-1.601759
	0.196000	-1.630769
	0.198000	-1.672673
	0.200000	-1.730693
	0.202000	-1.759703
	0.204000	-1.766150
	0.206000	-1.733916
	0.208000	-1.698459
	0.210000	-1.653332
	0.212000	-1.608205
	0.214000	-1.608205
	0.216000	-1.624322
	0.218000	-1.675896
	0.220000	-1.730693
	0.222000	-1.759703
	0.224000	-1.772597
	0.226000	-1.737140
	0.228000	-1.695236
	0.230000	-1.646886
	0.232000	-1.617875
	0.234000	-1.601759
	0.236000	-1.630769
	0.238000	-1.679119
	0.240000	-1.724246
	0.242000	-1.762927
	0.244000	-1.762927
	0.246000	-1.743586
	0.248000	-1.695236
	0.250000	-1.646886
	0.252000	-1.608205
	0.254000	-1.604982
	0.256000	-1.630769
	0.258000	-1.669449
	0.260000	-1.724246
	0.262000	-1.762927
	0.264000	-1.759703
	0.266000	-1.743586
	0.268000	-1.701683
	0.270000	-1.646886
	0.272000	-1.608205
	0.274000	-1.608205
	0.276000	-1.624322
	0.278000	-1.675896
	0.280000	-1.724246
	0.282000	-1.762927
	0.284000	-1.769373
	0.286000	-1.737140
	0.288000	-1.698459
	0.290000	-1.650109
	0.292000	-1.608205
	0.294000	-1.604982
	0.296000	-1.630769
	0.298000	-1.675896
	0.300000	-1.727470
	0.302000	-1.762927
	0.304000	-1.762927
	0.306000	-1.746810
	0.308000	-1.698459
	0.310000	-1.646886
	0.312000	-1.611429
	0.314000	-1.604982
	0.316000	-1.630769
	0.318000	-1.675896
	0.320000	-1.730693
	0.322000	-1.759703
	0.324000	-1.769373
	0.326000	-1.743586
	0.328000	-1.698459
	0.330000	-1.646886
	0.332000	-1.614652
	0.334000	-1.611429
	0.336000	-1.627546
	0.338000	-1.669449
	0.340000	-1.724246
	0.342000	-1.762927
	0.344000	-1.769373
	0.346000	-1.746810
	0.348000	-1.698459
	0.350000	-1.653332
	0.352000	-1.614652
	0.354000	-1.614652
	0.356000	-1.627546
	0.358000	-1.675896
	0.360000	-1.724246
	0.362000	-1.766150
	0.364000	-1.769373
	0.366000	-1.743586
	0.368000	-1.701683
	0.370000	-1.650109
	0.372000	-1.608205
	0.374000	-1.611429
	0.376000	-1.630769
	0.378000	-1.675896
	0.380000	-1.721023
	0.382000	-1.756480
	0.384000	-1.775820
	0.386000	-1.740363
	0.388000	-1.698459
	0.390000	-1.650109
	0.392000	-1.617875
	0.394000	-1.608205
	0.396000	-1.627546
	0.398000	-1.679119
	0.400000	-1.724246
	0.402000	-1.762927
	0.404000	-1.766150
	0.406000	-1.746810
	0.408000	-1.698459
	0.410000	-1.653332
	0.412000	-1.614652
	0.414000	-1.604982
	0.416000	-1.624322
	0.418000	-1.679119
	0.420000	-1.727470
	0.422000	-1.762927
	0.424000	-1.766150
	0.426000	-1.743586
	0.428000	-1.708129
	0.430000	-1.650109
	0.432000	-1.611429
	0.434000	-1.608205
	0.436000	-1.627546
	0.438000	-1.675896
	0.440000	-1.721023
	0.442000	-1.766150
	0.444000	-1.769373
	0.446000	-1.743586
	0.448000	-1.708129
	0.450000	-1.650109
	0.452000	-1.617875
	0.454000	-1.608205
	0.456000	-1.630769
	0.458000	-1.679119
	0.460000	-1.721023
	0.462000	-1.762927
	0.464000	-1.772597
	0.466000	-1.743586
	0.468000	-1.698459
	0.470000	-1.659779
	0.472000	-1.614652
	0.474000	-1.611429
	0.476000	-1.627546
	0.478000	-1.669449
	0.480000	-1.721023
	0.482000	-1.759703
	0.484000	-1.775820
	0.486000	-1.746810
	0.488000	-1.704906
	0.490000	-1.646886
	0.492000	-1.614652
	0.494000	-1.604982
	0.496000	-1.627546
	0.498000	-1.672673
	0.500000	-1.727470
	0.502000	-1.762927
	0.504000	-1.772597
	0.506000	-1.746810
	0.508000	-1.701683
	0.510000	-1.653332
	0.512000	-1.617875
	0.514000	-1.611429
	0.516000	-1.627546
	0.518000	-1.679119
	0.520000	-1.727470
	0.522000	-1.759703
	0.524000	-1.772597
	0.526000	-1.746810
	0.528000	-1.704906
	0.530000	-1.650109
	0.532000	-1.617875
	0.534000	-1.608205
	0.536000	-1.624322
	0.538000	-1.672673
	0.540000	-1.721023
	0.542000	-1.766150
	0.544000	-1.769373
	0.546000	-1.743586
	0.548000	-1.704906
	0.550000	-1.656556
	0.552000	-1.611429
	0.554000	-1.608205
	0.556000	-1.627546
	0.558000	-1.669449
	0.560000	-1.730693
	0.562000	-1.766150
	0.564000	-1.762927
	0.566000	-1.746810
	0.568000	-1.698459
	0.570000	-1.650109
	0.572000	-1.621099
	0.574000	-1.608205
	0.576000	-1.630769
	0.578000	-1.669449
	0.580000	-1.727470
	0.582000	-1.756480
	0.584000	-1.769373
	0.586000	-1.746810
	0.588000	-1.698459
	0.590000	-1.656556
	0.592000	-1.614652
	0.594000	-1.604982
	0.596000	-1.624322
	0.598000	-1.675896
	0.600000	-1.724246
	0.602000	-1.762927
	0.604000	-1.775820
	0.606000	-1.746810
	0.608000	-1.704906
	0.610000	-1.650109
	0.612000	-1.617875
	0.614000	-1.604982
	0.616000	-1.630769
	0.618000	-1.669449
	0.620000	-1.721023
	0.622000	-1.756480
	0.624000	-1.769373
	0.626000	-1.746810
	0.628000	-1.701683
	0.630000	-1.656556
	0.632000	-1.617875
	0.634000	-1.608205
	0.636000	-1.627546
	0.638000	-1.669449
	0.640000	-1.727470
	0.642000	-1.759703
	0.644000	-1.769373
	0.646000	-1.746810
	0.648000	-1.708129
	0.650000	-1.650109
	0.652000	-1.617875
	0.654000	-1.604982
	0.656000	-1.630769
	0.658000	-1.679119
	0.660000	-1.724246
	0.662000	-1.756480
	0.664000	-1.772597
	0.666000	-1.756480
	0.668000	-1.711353
	0.670000	-1.656556
	0.672000	-1.617875
	0.674000	-1.604982
	0.676000	-1.630769
	0.678000	-1.672673
	0.680000	-1.721023
	0.682000	-1.759703
	0.684000	-1.769373
	0.686000	-1.746810
	0.688000	-1.704906
	0.690000	-1.656556
	0.692000	-1.617875
	0.694000	-1.608205
	0.696000	-1.627546
	0.698000	-1.672673
	0.700000	-1.730693
	0.702000	-1.759703
	0.704000	-1.772597
	0.706000	-1.750033
	0.708000	-1.704906
	0.710000	-1.650109
	0.712000	-1.617875
	0.714000	-1.601759
	0.716000	-1.630769
	0.718000	-1.672673
	0.720000	-1.717800
	0.722000	-1.759703
	0.724000	-1.772597
	0.726000	-1.750033
	0.728000	-1.704906
	0.730000	-1.656556
	0.732000	-1.621099
	0.734000	-1.611429
	0.736000	-1.627546
	0.738000	-1.672673
	0.740000	-1.721023
	0.742000	-1.759703
	0.744000	-1.766150
	0.746000	-1.756480
	0.748000	-1.714576
	0.750000	-1.656556
	0.752000	-1.621099
	0.754000	-1.604982
	0.756000	-1.627546
	0.758000	-1.672673
	0.760000	-1.724246
	0.762000	-1.762927
	0.764000	-1.779043
	0.766000	-1.746810
	0.768000	-1.708129
	0.770000	-1.656556
	0.772000	-1.614652
	0.774000	-1.611429
	0.776000	-1.630769
	0.778000	-1.675896
	0.780000	-1.724246
	0.782000	-1.762927
	0.784000	-1.775820
	0.786000	-1.753257
	0.788000	-1.708129
	0.790000	-1.663002
	0.792000	-1.614652
	0.794000	-1.604982
	0.796000	-1.633992
	0.798000	-1.669449
	0.800000	-1.724246
	0.802000	-1.762927
	0.804000	-1.772597
	0.806000	-1.746810
	0.808000	-1.711353
	0.810000	-1.656556
	0.812000	-1.617875
	0.814000	-1.608205
	0.816000	-1.630769
	0.818000	-1.672673
	0.820000	-1.727470
	0.822000	-1.759703
	0.824000	-1.779043
	0.826000	-1.759703
	0.828000	-1.711353
	0.830000	-1.663002
	0.832000	-1.624322
	0.834000	-1.608205
	0.836000	-1.627546
	0.838000	-1.675896
	0.840000	-1.721023
	0.842000	-1.762927
	0.844000	-1.772597
	0.846000	-1.750033
	0.848000	-1.704906
	0.850000	-1.663002
	0.852000	-1.617875
	0.854000	-1.598535
	0.856000	-1.627546
	0.858000	-1.672673
	0.860000	-1.724246
	0.862000	-1.772597
	0.864000	-1.772597
	0.866000	-1.756480
	0.868000	-1.711353
	0.870000	-1.659779
	0.872000	-1.617875
	0.874000	-1.608205
	0.876000	-1.627546
	0.878000	-1.672673
	0.880000	-1.717800
	0.882000	-1.766150
	0.884000	-1.769373
	0.886000	-1.753257
	0.888000	-1.711353
	0.890000	-1.656556
	0.892000	-1.617875
	0.894000	-1.611429
	0.896000	-1.633992
	0.898000	-1.672673
	0.900000	-1.724246
	0.902000	-1.769373
	0.904000	-1.782267
	0.906000	-1.759703
	0.908000	-1.717800
	0.910000	-1.666226
	0.912000	-1.627546
	0.914000	-1.608205
	0.916000	-1.627546
	0.918000	-1.672673
	0.920000	-1.721023
	0.922000	-1.769373
	0.924000	-1.779043
	0.926000	-1.759703
	0.928000	-1.714576
	0.930000	-1.659779
	0.932000	-1.621099
	0.934000	-1.604982
	0.936000	-1.627546
	0.938000	-1.672673
	0.940000	-1.727470
	0.942000	-1.766150
	0.944000	-1.779043
	0.946000	-1.759703
	0.948000	-1.711353
	0.950000	-1.663002
	0.952000	-1.621099
	0.954000	-1.614652
	0.956000	-1.630769
	0.958000	-1.672673
	0.960000	-1.724246
	0.962000	-1.766150
	0.964000	-1.779043
	0.966000	-1.756480
	0.968000	-1.711353
	0.970000	-1.669449
	0.972000	-1.621099
	0.974000	-1.614652
	0.976000	-1.630769
	0.978000	-1.669449
	0.980000	-1.721023
	0.982000	-1.769373
	0.984000	-1.775820
	0.986000	-1.756480
	0.988000	-1.717800
	0.990000	-1.663002
	0.992000	-1.627546
	0.994000	-1.611429
	0.996000	-1.627546
	0.998000	-1.675896
	1.000000	-1.730693
	1.002000	-1.762927
	1.004000	-1.779043
	1.006000	-1.759703
	1.008000	-1.714576
	1.010000	-1.669449
	1.012000	-1.627546
	1.014000	-1.608205
	1.016000	-1.633992
	1.018000	-1.672673
	1.020000	-1.727470
	1.022000	-1.769373
	1.024000	-1.779043
	1.026000	-1.759703
	1.028000	-1.721023
	1.030000	-1.659779
	1.032000	-1.624322
	1.034000	-1.614652
	1.036000	-1.627546
	1.038000	-1.669449
	1.040000	-1.730693
	1.042000	-1.762927
	1.044000	-1.779043
	1.046000	-1.759703
	1.048000	-1.721023
	1.050000	-1.666226
	1.052000	-1.621099
	1.054000	-1.611429
	1.056000	-1.630769
	1.058000	-1.679119
	1.060000	-1.727470
	1.062000	-1.769373
	1.064000	-1.779043
	1.066000	-1.766150
	1.068000	-1.714576
	1.070000	-1.672673
	1.072000	-1.627546
	1.074000	-1.614652
	1.076000	-1.633992
	1.078000	-1.675896
	1.080000	-1.727470
	1.082000	-1.769373
	1.084000	-1.785490
	1.086000	-1.762927
	1.088000	-1.717800
	1.090000	-1.666226
	1.092000	-1.630769
	1.094000	-1.614652
	1.096000	-1.624322
	1.098000	-1.672673
	1.100000	-1.727470
	1.102000	-1.762927
	1.104000	-1.779043
	1.106000	-1.766150
	1.108000	-1.724246
	1.110000	-1.672673
	1.112000	-1.627546
	1.114000	-1.617875
	1.116000	-1.630769
	1.118000	-1.675896
	1.120000	-1.724246
	1.122000	-1.775820
	1.124000	-1.782267
	1.126000	-1.766150
	1.128000	-1.717800
	1.130000	-1.669449
	1.132000	-1.627546
	1.134000	-1.614652
	1.136000	-1.637216
	1.138000	-1.675896
	1.140000	-1.727470
	1.142000	-1.769373
	1.144000	-1.782267
	1.146000	-1.766150
	1.148000	-1.721023
	1.150000	-1.669449
	1.152000	-1.630769
	1.154000	-1.611429
	1.156000	-1.633992
	1.158000	-1.669449
	1.160000	-1.724246
	1.162000	-1.772597
	1.164000	-1.779043
	1.166000	-1.759703
	1.168000	-1.727470
	1.170000	-1.669449
	1.172000	-1.627546
	1.174000	-1.611429
	1.176000	-1.633992
	1.178000	-1.675896
	1.180000	-1.730693
	1.182000	-1.769373
	1.184000	-1.782267
	1.186000	-1.766150
	1.188000	-1.727470
	1.190000	-1.672673
	1.192000	-1.630769
	1.194000	-1.614652
	1.196000	-1.630769
	1.198000	-1.675896
	1.200000	-1.724246
	1.202000	-1.766150
	1.204000	-1.788713
	1.206000	-1.766150
	1.208000	-1.721023
	1.210000	-1.663002
	1.212000	-1.630769
	1.214000	-1.621099
	1.216000	-1.627546
	1.218000	-1.672673
	1.220000	-1.730693
	1.222000	-1.762927
	1.224000	-1.782267
	1.226000	-1.762927
	1.228000	-1.727470
	1.230000	-1.669449
	1.232000	-1.630769
	1.234000	-1.617875
	1.236000	-1.633992
	1.238000	-1.675896
	1.240000	-1.727470
	1.242000	-1.769373
	1.244000	-1.785490
	1.246000	-1.766150
	1.248000	-1.727470
	1.250000	-1.672673
	1.252000	-1.627546
	1.254000	-1.614652
	1.256000	-1.630769
	1.258000	-1.672673
	1.260000	-1.730693
	1.262000	-1.779043
	1.264000	-1.782267
	1.266000	-1.759703
	1.268000	-1.724246
	1.270000	-1.675896
	1.272000	-1.627546
	1.274000	-1.611429
	1.276000	-1.630769
	1.278000	-1.669449
	1.280000	-1.724246
	1.282000	-1.772597
	1.284000	-1.785490
	1.286000	-1.759703
	1.288000	-1.727470
	1.290000	-1.675896
	1.292000	-1.630769
	1.294000	-1.617875
	1.296000	-1.633992
	1.298000	-1.679119
	1.300000	-1.724246
	1.302000	-1.772597
	1.304000	-1.779043
	1.306000	-1.769373
	1.308000	-1.721023
	1.310000	-1.672673
	1.312000	-1.630769
	1.314000	-1.608205
	1.316000	-1.630769
	1.318000	-1.672673
	1.320000	-1.727470
	1.322000	-1.769373
	1.324000	-1.785490
	1.326000	-1.766150
	1.328000	-1.724246
	1.330000	-1.669449
	1.332000	-1.633992
	1.334000	-1.611429
	1.336000	-1.630769
	1.338000	-1.675896
	1.340000	-1.727470
	1.342000	-1.769373
	1.344000	-1.782267
	1.346000	-1.772597
	1.348000	-1.724246
	1.350000	-1.675896
	1.352000	-1.630769
	1.354000	-1.617875
	1.356000	-1.630769
	1.358000	-1.672673
	1.360000	-1.724246
	1.362000	-1.769373
	1.364000	-1.782267
	1.366000	-1.769373
	1.368000	-1.721023
	1.370000	-1.675896
	1.372000	-1.630769
	1.374000	-1.611429
	1.376000	-1.630769
	1.378000	-1.675896
	1.380000	-1.724246
	1.382000	-1.769373
	1.384000	-1.782267
	1.386000	-1.766150
	1.388000	-1.730693
	1.390000	-1.682343
	1.392000	-1.633992
	1.394000	-1.617875
	1.396000	-1.627546
	1.398000	-1.675896
	1.400000	-1.724246
	1.402000	-1.769373
	1.404000	-1.788713
	1.406000	-1.769373
	1.408000	-1.724246
	1.410000	-1.672673
	1.412000	-1.633992
	1.414000	-1.614652
	1.416000	-1.637216
	1.418000	-1.669449
	1.420000	-1.724246
	1.422000	-1.769373
	1.424000	-1.782267
	1.426000	-1.762927
	1.428000	-1.724246
	1.430000	-1.672673
	1.432000	-1.640439
	1.434000	-1.617875
	1.436000	-1.633992
	1.438000	-1.672673
	1.440000	-1.721023
	1.442000	-1.769373
	1.444000	-1.782267
	1.446000	-1.766150
	1.448000	-1.724246
	1.450000	-1.675896
	1.452000	-1.637216
	1.454000	-1.617875
	1.456000	-1.637216
	1.458000	-1.672673
	1.460000	-1.724246
	1.462000	-1.766150
	1.464000	-1.785490
	1.466000	-1.769373
	1.468000	-1.727470
	1.470000	-1.682343
	1.472000	-1.633992
	1.474000	-1.617875
	1.476000	-1.637216
	1.478000	-1.669449
	1.480000	-1.721023
	1.482000	-1.769373
	1.484000	-1.782267
	1.486000	-1.769373
	1.488000	-1.727470
	1.490000	-1.679119
	1.492000	-1.637216
	1.494000	-1.614652
	1.496000	-1.630769
	1.498000	-1.672673
	1.500000	-1.724246
	1.502000	-1.766150
	1.504000	-1.782267
	1.506000	-1.772597
	1.508000	-1.730693
	1.510000	-1.675896
	1.512000	-1.637216
	1.514000	-1.624322
	1.516000	-1.630769
	1.518000	-1.669449
	1.520000	-1.721023
	1.522000	-1.772597
	1.524000	-1.788713
	1.526000	-1.769373
	1.528000	-1.730693
	1.530000	-1.679119
	1.532000	-1.633992
	1.534000	-1.624322
	1.536000	-1.630769
	1.538000	-1.669449
	1.540000	-1.721023
	1.542000	-1.769373
	1.544000	-1.782267
	1.546000	-1.769373
	1.548000	-1.737140
	1.550000	-1.679119
	1.552000	-1.633992
	1.554000	-1.621099
	1.556000	-1.633992
	1.558000	-1.675896
	1.560000	-1.721023
	1.562000	-1.766150
	1.564000	-1.782267
	1.566000	-1.769373
	1.568000	-1.733916
	1.570000	-1.682343
	1.572000	-1.630769
	1.574000	-1.617875
	1.576000	-1.627546
	1.578000	-1.672673
	1.580000	-1.727470
	1.582000	-1.766150
	1.584000	-1.785490
	1.586000	-1.772597
	1.588000	-1.730693
	1.590000	-1.682343
	1.592000	-1.637216
	1.594000	-1.614652
	1.596000	-1.627546
	1.598000	-1.672673
	1.600000	-1.717800
	1.602000	-1.762927
	1.604000	-1.791937
	1.606000	-1.772597
	1.608000	-1.733916
	1.610000	-1.682343
	1.612000	-1.643662
	1.614000	-1.624322
	1.616000	-1.633992
	1.618000	-1.672673
	1.620000	-1.714576
	1.622000	-1.769373
	1.624000	-1.779043
	1.626000	-1.772597
	1.628000	-1.733916
	1.630000	-1.682343
	1.632000	-1.637216
	1.634000	-1.621099
	1.636000	-1.633992
	1.638000	-1.672673
	1.640000	-1.724246
	1.642000	-1.762927
	1.644000	-1.785490
	1.646000	-1.772597
	1.648000	-1.727470
	1.650000	-1.682343
	1.652000	-1.640439
	1.654000	-1.621099
	1.656000	-1.633992
	1.658000	-1.675896
	1.660000	-1.717800
	1.662000	-1.766150
	1.664000	-1.791937
	1.666000	-1.769373
	1.668000	-1.727470
	1.670000	-1.682343
	1.672000	-1.633992
	1.674000	-1.624322
	1.676000	-1.633992
	1.678000	-1.672673
	1.680000	-1.724246
	1.682000	-1.766150
	1.684000	-1.782267
	1.686000	-1.769373
	1.688000	-1.730693
	1.690000	-1.682343
	1.692000	-1.633992
	1.694000	-1.624322
	1.696000	-1.627546
	1.698000	-1.679119
	1.700000	-1.721023
	1.702000	-1.769373
	1.704000	-1.791937
	1.706000	-1.769373
	1.708000	-1.727470
	1.710000	-1.685566
	1.712000	-1.633992
	1.714000	-1.617875
	1.716000	-1.633992
	1.718000	-1.672673
	1.720000	-1.721023
	1.722000	-1.766150
	1.724000	-1.791937
	1.726000	-1.766150
	1.728000	-1.733916
	1.730000	-1.688789
	1.732000	-1.643662
	1.734000	-1.617875
	1.736000	-1.633992
	1.738000	-1.672673
	1.740000	-1.724246
	1.742000	-1.759703
	1.744000	-1.785490
	1.746000	-1.772597
	1.748000	-1.730693
	1.750000	-1.685566
	1.752000	-1.633992
	1.754000	-1.621099
	1.756000	-1.637216
	1.758000	-1.669449
	1.760000	-1.721023
	1.762000	-1.762927
	1.764000	-1.791937
	1.766000	-1.775820
	1.768000	-1.730693
	1.770000	-1.685566
	1.772000	-1.640439
	1.774000	-1.624322
	1.776000	-1.633992
	1.778000	-1.666226
	1.780000	-1.724246
	1.782000	-1.772597
	1.784000	-1.791937
	1.786000	-1.769373
	1.788000	-1.737140
	1.790000	-1.685566
	1.792000	-1.640439
	1.794000	-1.621099
	1.796000	-1.624322
	1.798000	-1.672673
	1.800000	-1.727470
	1.802000	-1.769373
	1.804000	-1.785490
	1.806000	-1.779043
	1.808000	-1.737140
	1.810000	-1.679119
	1.812000	-1.643662
	1.814000	-1.624322
	1.816000	-1.640439
	1.818000	-1.672673
	1.820000	-1.724246
	1.822000	-1.769373
	1.824000	-1.791937
	1.826000	-1.775820
	1.828000	-1.740363
	1.830000	-1.685566
	1.832000	-1.643662
	1.834000	-1.624322
	1.836000	-1.637216
	1.838000	-1.675896
	1.840000	-1.727470
	1.842000	-1.766150
	1.844000	-1.785490
	1.846000	-1.779043
	1.848000	-1.740363
	1.850000	-1.685566
	1.852000	-1.646886
	1.854000	-1.627546
	1.856000	-1.640439
	1.858000	-1.679119
	1.860000	-1.717800
	1.862000	-1.775820
	1.864000	-1.785490
	1.866000	-1.779043
	1.868000	-1.737140
	1.870000	-1.685566
	1.872000	-1.643662
	1.874000	-1.627546
	1.876000	-1.630769
	1.878000	-1.672673
	1.880000	-1.727470
	1.882000	-1.766150
	1.884000	-1.785490
	1.886000	-1.779043
	1.888000	-1.737140
	1.890000	-1.692013
	1.892000	-1.640439
	1.894000	-1.624322
	1.896000	-1.640439
	1.898000	-1.679119
	1.900000	-1.724246
	1.902000	-1.772597
	1.904000	-1.788713
	1.906000	-1.779043
	1.908000	-1.733916
	1.910000	-1.688789
	1.912000	-1.643662
	1.914000	-1.621099
	1.916000	-1.637216
	1.918000	-1.672673
	1.920000	-1.727470
	1.922000	-1.762927
	1.924000	-1.785490
	1.926000	-1.775820
	1.928000	-1.740363
	1.930000	-1.685566
	1.932000	-1.643662
	1.934000	-1.621099
	1.936000	-1.637216
	1.938000	-1.672673
	1.940000	-1.717800
	1.942000	-1.766150
	1.944000	-1.791937
	1.946000	-1.775820
	1.948000	-1.737140
	1.950000	-1.695236
	1.952000	-1.646886
	1.954000	-1.624322
	1.956000	-1.637216
	1.958000	-1.675896
	1.960000	-1.721023
	1.962000	-1.766150
	1.964000	-1.785490
	1.966000	-1.782267
	1.968000	-1.743586
	1.970000	-1.685566
	1.972000	-1.643662
	1.974000	-1.627546
	1.976000	-1.637216
	1.978000	-1.675896
	1.980000	-1.721023
	1.982000	-1.766150
	1.984000	-1.785490
	1.986000	-1.772597
	1.988000	-1.733916
	1.990000	-1.692013
	1.992000	-1.643662
	1.994000	-1.627546
	1.996000	-1.640439
	1.998000	-1.672673
	2.000000	-1.717800
	2.002000	-1.769373
	2.004000	-1.788713
	2.006000	-1.775820
	2.008000	-1.740363
	2.010000	-1.688789
	2.012000	-1.646886
	2.014000	-1.624322
	2.016000	-1.637216
	2.018000	-1.672673
	2.020000	-1.717800
	2.022000	-1.769373
	2.024000	-1.788713
	2.026000	-1.775820
	2.028000	-1.737140
	2.030000	-1.692013
	2.032000	-1.643662
	2.034000	-1.627546
	2.036000	-1.637216
	2.038000	-1.675896
	2.040000	-1.724246
	2.042000	-1.766150
	2.044000	-1.791937
	2.046000	-1.779043
	2.048000	-1.743586
	2.050000	-1.692013
	2.052000	-1.653332
	2.054000	-1.624322
	2.056000	-1.637216
	2.058000	-1.672673
	2.060000	-1.724246
	2.062000	-1.769373
	2.064000	-1.788713
	2.066000	-1.779043
	2.068000	-1.740363
	2.070000	-1.695236
	2.072000	-1.646886
	2.074000	-1.627546
	2.076000	-1.633992
	2.078000	-1.672673
	2.080000	-1.730693
	2.082000	-1.769373
	2.084000	-1.788713
	2.086000	-1.779043
	2.088000	-1.743586
	2.090000	-1.695236
	2.092000	-1.646886
	2.094000	-1.630769
	2.096000	-1.633992
	2.098000	-1.679119
	2.100000	-1.727470
	2.102000	-1.766150
	2.104000	-1.791937
	2.106000	-1.782267
	2.108000	-1.743586
	2.110000	-1.695236
	2.112000	-1.656556
	2.114000	-1.630769
	2.116000	-1.637216
	2.118000	-1.672673
	2.120000	-1.724246
	2.122000	-1.766150
	2.124000	-1.791937
	2.126000	-1.782267
	2.128000	-1.740363
	2.130000	-1.698459
	2.132000	-1.650109
	2.134000	-1.633992
	2.136000	-1.633992
	2.138000	-1.669449
	2.140000	-1.724246
	2.142000	-1.766150
	2.144000	-1.791937
	2.146000	-1.785490
	2.148000	-1.740363
	2.150000	-1.695236
	2.152000	-1.653332
	2.154000	-1.630769
	2.156000	-1.637216
	2.158000	-1.672673
	2.160000	-1.721023
	2.162000	-1.766150
	2.164000	-1.795160
	2.166000	-1.785490
	2.168000	-1.750033
	2.170000	-1.695236
	2.172000	-1.650109
	2.174000	-1.624322
	2.176000	-1.633992
	2.178000	-1.669449
	2.180000	-1.724246
	2.182000	-1.769373
	2.184000	-1.791937
	2.186000	-1.785490
	2.188000	-1.746810
	2.190000	-1.695236
	2.192000	-1.653332
	2.194000	-1.630769
	2.196000	-1.640439
	2.198000	-1.669449
	2.200000	-1.721023
	2.202000	-1.769373
	2.204000	-1.791937
	2.206000	-1.785490
	2.208000	-1.750033
	2.210000	-1.698459
	2.212000	-1.650109
	2.214000	-1.630769
	2.216000	-1.640439
	2.218000	-1.675896
	2.220000	-1.721023
	2.222000	-1.769373
	2.224000	-1.788713
	2.226000	-1.779043
	2.228000	-1.746810
	2.230000	-1.708129
	2.232000	-1.653332
	2.234000	-1.627546
	2.236000	-1.640439
	2.238000	-1.672673
	2.240000	-1.717800
	2.242000	-1.772597
	2.244000	-1.791937
	2.246000	-1.785490
	2.248000	-1.753257
	2.250000	-1.698459
	2.252000	-1.656556
	2.254000	-1.630769
	2.256000	-1.633992
	2.258000	-1.672673
	2.260000	-1.724246
	2.262000	-1.772597
	2.264000	-1.798384
	2.266000	-1.782267
	2.268000	-1.746810
	2.270000	-1.698459
	2.272000	-1.653332
	2.274000	-1.630769
	2.276000	-1.633992
	2.278000	-1.675896
	2.280000	-1.724246
	2.282000	-1.766150
	2.284000	-1.795160
	2.286000	-1.785490
	2.288000	-1.753257
	2.290000	-1.704906
	2.292000	-1.656556
	2.294000	-1.630769
	2.296000	-1.637216
	2.298000	-1.682343
	2.300000	-1.721023
	2.302000	-1.772597
	2.304000	-1.795160
	2.306000	-1.785490
	2.308000	-1.746810
	2.310000	-1.701683
	2.312000	-1.659779
	2.314000	-1.633992
	2.316000	-1.637216
	2.318000	-1.675896
	2.320000	-1.717800
	2.322000	-1.772597
	2.324000	-1.798384
	2.326000	-1.785490
	2.328000	-1.750033
	2.330000	-1.701683
	2.332000	-1.659779
	2.334000	-1.630769
	2.336000	-1.643662
	2.338000	-1.679119
	2.340000	-1.727470
	2.342000	-1.769373
	2.344000	-1.795160
	2.346000	-1.788713
	2.348000	-1.753257
	2.350000	-1.708129
	2.352000	-1.656556
	2.354000	-1.630769
	2.356000	-1.643662
	2.358000	-1.675896
	2.360000	-1.721023
	2.362000	-1.772597
	2.364000	-1.798384
	2.366000	-1.788713
	2.368000	-1.753257
	2.370000	-1.701683
	2.372000	-1.656556
	2.374000	-1.637216
	2.376000	-1.637216
	2.378000	-1.679119
	2.380000	-1.724246
	2.382000	-1.772597
	2.384000	-1.791937
	2.386000	-1.788713
	2.388000	-1.753257
	2.390000	-1.701683
	2.392000	-1.653332
	2.394000	-1.637216
	2.396000	-1.640439
	2.398000	-1.675896
	2.400000	-1.721023
	2.402000	-1.769373
	2.404000	-1.791937
	2.406000	-1.788713
	2.408000	-1.756480
	2.410000	-1.708129
	2.412000	-1.663002
	2.414000	-1.630769
	2.416000	-1.643662
	2.418000	-1.666226
	2.420000	-1.717800
	2.422000	-1.769373
	2.424000	-1.791937
	2.426000	-1.785490
	2.428000	-1.750033
	2.430000	-1.701683
	2.432000	-1.653332
	2.434000	-1.627546
	2.436000	-1.640439
	2.438000	-1.675896
	2.440000	-1.717800
	2.442000	-1.775820
	2.444000	-1.798384
	2.446000	-1.785490
	2.448000	-1.750033
	2.450000	-1.704906
	2.452000	-1.659779
	2.454000	-1.630769
	2.456000	-1.640439
	2.458000	-1.669449
	2.460000	-1.724246
	2.462000	-1.772597
	2.464000	-1.795160
	2.466000	-1.791937
	2.468000	-1.750033
	2.470000	-1.704906
	2.472000	-1.656556
	2.474000	-1.637216
	2.476000	-1.640439
	2.478000	-1.672673
	2.480000	-1.721023
	2.482000	-1.769373
	2.484000	-1.791937
	2.486000	-1.782267
	2.488000	-1.753257
	2.490000	-1.701683
	2.492000	-1.656556
	2.494000	-1.627546
	2.496000	-1.640439
	2.498000	-1.672673
	2.500000	-1.721023
	2.502000	-1.766150
	2.504000	-1.798384
	2.506000	-1.785490
	2.508000	-1.759703
	2.510000	-1.698459
	2.512000	-1.656556
	2.514000	-1.630769
	2.516000	-1.633992
	2.518000	-1.669449
	2.520000	-1.717800
	2.522000	-1.769373
	2.524000	-1.791937
	2.526000	-1.788713
	2.528000	-1.753257
	2.530000	-1.704906
	2.532000	-1.656556
	2.534000	-1.630769
	2.536000	-1.637216
	2.538000	-1.672673
	2.540000	-1.717800
	2.542000	-1.769373
	2.544000	-1.795160
	2.546000	-1.791937
	2.548000	-1.753257
	2.550000	-1.704906
	2.552000	-1.659779
	2.554000	-1.624322
	2.556000	-1.637216
	2.558000	-1.666226
	2.560000	-1.721023
	2.562000	-1.766150
	2.564000	-1.798384
	2.566000	-1.785490
	2.568000	-1.750033
	2.570000	-1.708129
	2.572000	-1.656556
	2.574000	-1.630769
	2.576000	-1.630769
	2.578000	-1.669449
	2.580000	-1.717800
	2.582000	-1.766150
	2.584000	-1.791937
	2.586000	-1.791937
	2.588000	-1.756480
	2.590000	-1.704906
	2.592000	-1.650109
	2.594000	-1.627546
	2.596000	-1.633992
	2.598000	-1.672673
	2.600000	-1.717800
	2.602000	-1.766150
	2.604000	-1.791937
	2.606000	-1.788713
	2.608000	-1.753257
	2.610000	-1.711353
	2.612000	-1.663002
	2.614000	-1.630769
	2.616000	-1.637216
	2.618000	-1.666226
	2.620000	-1.724246
	2.622000	-1.769373
	2.624000	-1.795160
	2.626000	-1.788713
	2.628000	-1.753257
	2.630000	-1.708129
	2.632000	-1.659779
	2.634000	-1.630769
	2.636000	-1.637216
	2.638000	-1.672673
	2.640000	-1.724246
	2.642000	-1.769373
	2.644000	-1.795160
	2.646000	-1.788713
	2.648000	-1.750033
	2.650000	-1.701683
	2.652000	-1.659779
	2.654000	-1.624322
	2.656000	-1.630769
	2.658000	-1.666226
	2.660000	-1.714576
	2.662000	-1.762927
	2.664000	-1.798384
	2.666000	-1.788713
	2.668000	-1.756480
	2.670000	-1.708129
	2.672000	-1.653332
	2.674000	-1.627546
	2.676000	-1.637216
	2.678000	-1.672673
	2.680000	-1.714576
	2.682000	-1.769373
	2.684000	-1.795160
	2.686000	-1.791937
	2.688000	-1.759703
	2.690000	-1.704906
	2.692000	-1.653332
	2.694000	-1.627546
	2.696000	-1.633992
	2.698000	-1.666226
	2.700000	-1.717800
	2.702000	-1.766150
	2.704000	-1.791937
	2.706000	-1.788713
	2.708000	-1.756480
	2.710000	-1.701683
	2.712000	-1.659779
	2.714000	-1.627546
	2.716000	-1.633992
	2.718000	-1.663002
	2.720000	-1.711353
	2.722000	-1.769373
	2.724000	-1.788713
	2.726000	-1.788713
	2.728000	-1.753257
	2.730000	-1.698459
	2.732000	-1.650109
	2.734000	-1.624322
	2.736000	-1.630769
	2.738000	-1.663002
	2.740000	-1.714576
	2.742000	-1.769373
	2.744000	-1.798384
	2.746000	-1.782267
	2.748000	-1.750033
	2.750000	-1.704906
	2.752000	-1.656556
	2.754000	-1.624322
	2.756000	-1.630769
	2.758000	-1.666226
	2.760000	-1.708129
	2.762000	-1.762927
	2.764000	-1.788713
	2.766000	-1.788713
	2.768000	-1.753257
	2.770000	-1.701683
	2.772000	-1.656556
	2.774000	-1.621099
	2.776000	-1.630769
	2.778000	-1.663002
	2.780000	-1.717800
	2.782000	-1.762927
	2.784000	-1.791937
	2.786000	-1.788713
	2.788000	-1.750033
	2.790000	-1.698459
	2.792000	-1.653332
	2.794000	-1.627546
	2.796000	-1.630769
	2.798000	-1.663002
	2.800000	-1.714576
	2.802000	-1.766150
	2.804000	-1.788713
	2.806000	-1.785490
	2.808000	-1.759703
	2.810000	-1.708129
	2.812000	-1.659779
	2.814000	-1.627546
	2.816000	-1.630769
	2.818000	-1.666226
	2.820000	-1.714576
	2.822000	-1.766150
	2.824000	-1.795160
	2.826000	-1.785490
	2.828000	-1.753257
	2.830000	-1.704906
	2.832000	-1.659779
	2.834000	-1.627546
	2.836000	-1.633992
	2.838000	-1.659779
	2.840000	-1.721023
	2.842000	-1.762927
	2.844000	-1.795160
	2.846000	-1.788713
	2.848000	-1.753257
	2.850000	-1.701683
	2.852000	-1.659779
	2.854000	-1.621099
	2.856000	-1.630769
	2.858000	-1.666226
	2.860000	-1.711353
	2.862000	-1.762927
	2.864000	-1.785490
	2.866000	-1.791937
	2.868000	-1.756480
	2.870000	-1.711353
	2.872000	-1.659779
	2.874000	-1.630769
	2.876000	-1.637216
	2.878000	-1.663002
	2.880000	-1.711353
	2.882000	-1.766150
	2.884000	-1.788713
	2.886000	-1.788713
	2.888000	-1.759703
	2.890000	-1.704906
	2.892000	-1.663002
	2.894000	-1.627546
	2.896000	-1.637216
	2.898000	-1.666226
	2.900000	-1.714576
	2.902000	-1.762927
	2.904000	-1.791937
	2.906000	-1.791937
	2.908000	-1.759703
	2.910000	-1.711353
	2.912000	-1.656556
	2.914000	-1.633992
	2.916000	-1.637216
	2.918000	-1.663002
	2.920000	-1.717800
	2.922000	-1.766150
	2.924000	-1.798384
	2.926000	-1.791937
	2.928000	-1.762927
	2.930000	-1.711353
	2.932000	-1.659779
	2.934000	-1.633992
	2.936000	-1.637216
	2.938000	-1.672673
	2.940000	-1.714576
	2.942000	-1.762927
	2.944000	-1.798384
	2.946000	-1.785490
	2.948000	-1.756480
	2.950000	-1.708129
	2.952000	-1.659779
	2.954000	-1.637216
	2.956000	-1.633992
	2.958000	-1.666226
	2.960000	-1.714576
	2.962000	-1.766150
	2.964000	-1.795160
	2.966000	-1.791937
	2.968000	-1.756480
	2.970000	-1.711353
	2.972000	-1.663002
	2.974000	-1.640439
	2.976000	-1.637216
	2.978000	-1.669449
	2.980000	-1.714576
	2.982000	-1.766150
	2.984000	-1.791937
	2.986000	-1.788713
	2.988000	-1.762927
	2.990000	-1.711353
	2.992000	-1.663002
	2.994000	-1.633992
	2.996000	-1.640439
	2.998000	-1.666226
	3.000000	-1.717800
	3.002000	-1.766150
	3.004000	-1.795160
	3.006000	-1.791937
	3.008000	-1.756480
	3.010000	-1.714576
	3.012000	-1.666226
	3.014000	-1.637216
	3.016000	-1.640439
	3.018000	-1.663002
	3.020000	-1.717800
	3.022000	-1.766150
	3.024000	-1.795160
	3.026000	-1.788713
	3.028000	-1.759703
	3.030000	-1.711353
	3.032000	-1.666226
	3.034000	-1.637216
	3.036000	-1.637216
	3.038000	-1.672673
	3.040000	-1.721023
	3.042000	-1.762927
	3.044000	-1.795160
	3.046000	-1.795160
	3.048000	-1.762927
	3.050000	-1.717800
	3.052000	-1.663002
	3.054000	-1.640439
	3.056000	-1.637216
	3.058000	-1.659779
	3.060000	-1.714576
	3.062000	-1.759703
	3.064000	-1.798384
	3.066000	-1.791937
	3.068000	-1.762927
	3.070000	-1.711353
	3.072000	-1.666226
	3.074000	-1.637216
	3.076000	-1.637216
	3.078000	-1.669449
	3.080000	-1.717800
	3.082000	-1.762927
	3.084000	-1.798384
	3.086000	-1.791937
	3.088000	-1.759703
	3.090000	-1.714576
	3.092000	-1.669449
	3.094000	-1.637216
	3.096000	-1.637216
	3.098000	-1.663002
	3.100000	-1.717800
	3.102000	-1.762927
	3.104000	-1.791937
	3.106000	-1.798384
	3.108000	-1.762927
	3.110000	-1.708129
	3.112000	-1.666226
	3.114000	-1.640439
	3.116000	-1.637216
	3.118000	-1.666226
	3.120000	-1.717800
	3.122000	-1.759703
	3.124000	-1.798384
	3.126000	-1.791937
	3.128000	-1.759703
	3.130000	-1.721023
	3.132000	-1.669449
	3.134000	-1.640439
	3.136000	-1.637216
	3.138000	-1.666226
	3.140000	-1.714576
	3.142000	-1.762927
	3.144000	-1.791937
	3.146000	-1.795160
	3.148000	-1.766150
	3.150000	-1.717800
	3.152000	-1.666226
	3.154000	-1.640439
	3.156000	-1.640439
	3.158000	-1.666226
	3.160000	-1.714576
	3.162000	-1.769373
	3.164000	-1.788713
	3.166000	-1.795160
	3.168000	-1.766150
	3.170000	-1.721023
	3.172000	-1.669449
	3.174000	-1.646886
	3.176000	-1.637216
	3.178000	-1.669449
	3.180000	-1.714576
	3.182000	-1.762927
	3.184000	-1.798384
	3.186000	-1.795160
	3.188000	-1.762927
	3.190000	-1.714576
	3.192000	-1.669449
	3.194000	-1.643662
	3.196000	-1.630769
	3.198000	-1.669449
	3.200000	-1.714576
	3.202000	-1.762927
	3.204000	-1.798384
	3.206000	-1.798384
	3.208000	-1.759703
	3.210000	-1.711353
	3.212000	-1.666226
	3.214000	-1.637216
	3.216000	-1.637216
	3.218000	-1.663002
	3.220000	-1.714576
	3.222000	-1.762927
	3.224000	-1.795160
	3.226000	-1.795160
	3.228000	-1.762927
	3.230000	-1.714576
	3.232000	-1.666226
	3.234000	-1.643662
	3.236000	-1.633992
	3.238000	-1.663002
	3.240000	-1.708129
	3.242000	-1.762927
	3.244000	-1.795160
	3.246000	-1.791937
	3.248000	-1.759703
	3.250000	-1.714576
	3.252000	-1.663002
	3.254000	-1.640439
	3.256000	-1.637216
	3.258000	-1.663002
	3.260000	-1.711353
	3.262000	-1.759703
	3.264000	-1.795160
	3.266000	-1.791937
	3.268000	-1.756480
	3.270000	-1.714576
	3.272000	-1.666226
	3.274000	-1.633992
	3.276000	-1.637216
	3.278000	-1.659779
	3.280000	-1.711353
	3.282000	-1.759703
	3.284000	-1.791937
	3.286000	-1.788713
	3.288000	-1.762927
	3.290000	-1.714576
	3.292000	-1.666226
	3.294000	-1.630769
	3.296000	-1.630769
	3.298000	-1.663002
	3.300000	-1.711353
	3.302000	-1.762927
	3.304000	-1.791937
	3.306000	-1.795160
	3.308000	-1.762927
	3.310000	-1.714576
	3.312000	-1.666226
	3.314000	-1.633992
	3.316000	-1.633992
	3.318000	-1.656556
	3.320000	-1.711353
	3.322000	-1.762927
	3.324000	-1.788713
	3.326000	-1.791937
	3.328000	-1.759703
	3.330000	-1.717800
	3.332000	-1.659779
	3.334000	-1.633992
	3.336000	-1.630769
	3.338000	-1.659779
	3.340000	-1.711353
	3.342000	-1.753257
	3.344000	-1.791937
	3.346000	-1.791937
	3.348000	-1.759703
	3.350000	-1.711353
	3.352000	-1.666226
	3.354000	-1.630769
	3.356000	-1.627546
	3.358000	-1.663002
	3.360000	-1.711353
	3.362000	-1.759703
	3.364000	-1.785490
	3.366000	-1.788713
	3.368000	-1.762927
	3.370000	-1.714576
	3.372000	-1.663002
	3.374000	-1.627546
	3.376000	-1.637216
	3.378000	-1.666226
	3.380000	-1.704906
	3.382000	-1.756480
	3.384000	-1.791937
	3.386000	-1.795160
	3.388000	-1.762927
	3.390000	-1.714576
	3.392000	-1.666226
	3.394000	-1.637216
	3.396000	-1.637216
	3.398000	-1.663002
	3.400000	-1.708129
	3.402000	-1.759703
	3.404000	-1.788713
	3.406000	-1.791937
	3.408000	-1.766150
	3.410000	-1.721023
	3.412000	-1.669449
	3.414000	-1.637216
	3.416000	-1.637216
	3.418000	-1.659779
	3.420000	-1.708129
	3.422000	-1.762927
	3.424000	-1.795160
	3.426000	-1.801607
	3.428000	-1.759703
	3.430000	-1.721023
	3.432000	-1.675896
	3.434000	-1.640439
	3.436000	-1.640439
	3.438000	-1.666226
	3.440000	-1.711353
	3.442000	-1.759703
	3.444000	-1.795160
	3.446000	-1.798384
	3.448000	-1.766150
	3.450000	-1.721023
	3.452000	-1.669449
	3.454000	-1.640439
	3.456000	-1.640439
	3.458000	-1.666226
	3.460000	-1.711353
	3.462000	-1.766150
	3.464000	-1.788713
	3.466000	-1.801607
	3.468000	-1.762927
	3.470000	-1.717800
	3.472000	-1.675896
	3.474000	-1.643662
	3.476000	-1.643662
	3.478000	-1.663002
	3.480000	-1.717800
	3.482000	-1.759703
	3.484000	-1.791937
	3.486000	-1.795160
	3.488000	-1.762927
	3.490000	-1.717800
	3.492000	-1.672673
	3.494000	-1.643662
	3.496000	-1.637216
	3.498000	-1.672673
	3.500000	-1.711353
	3.502000	-1.762927
	3.504000	-1.788713
	3.506000	-1.798384
	3.508000	-1.772597
	3.510000	-1.724246
	3.512000	-1.675896
	3.514000	-1.643662
	3.516000	-1.637216
	3.518000	-1.669449
	3.520000	-1.714576
	3.522000	-1.756480
	3.524000	-1.791937
	3.526000	-1.791937
	3.528000	-1.769373
	3.530000	-1.724246
	3.532000	-1.679119
	3.534000	-1.640439
	3.536000	-1.643662
	3.538000	-1.666226
	3.540000	-1.714576
	3.542000	-1.762927
	3.544000	-1.795160
	3.546000	-1.795160
	3.548000	-1.769373
	3.550000	-1.721023
	3.552000	-1.679119
	3.554000	-1.643662
	3.556000	-1.646886
	3.558000	-1.669449
	3.560000	-1.711353
	3.562000	-1.762927
	3.564000	-1.798384
	3.566000	-1.798384
	3.568000	-1.772597
	3.570000	-1.724246
	3.572000	-1.679119
	3.574000	-1.643662
	3.576000	-1.646886
	3.578000	-1.666226
	3.580000	-1.714576
	3.582000	-1.753257
	3.584000	-1.791937
	3.586000	-1.788713
	3.588000	-1.766150
	3.590000	-1.727470
	3.592000	-1.679119
	3.594000	-1.643662
	3.596000	-1.643662
	3.598000	-1.666226
	3.600000	-1.717800
	3.602000	-1.759703
	3.604000	-1.801607
	3.606000	-1.791937
	3.608000	-1.772597
	3.610000	-1.727470
	3.612000	-1.675896
	3.614000	-1.643662
	3.616000	-1.643662
	3.618000	-1.666226
	3.620000	-1.711353
	3.622000	-1.759703
	3.624000	-1.791937
	3.626000	-1.795160
	3.628000	-1.766150
	3.630000	-1.721023
	3.632000	-1.679119
	3.634000	-1.646886
	3.636000	-1.640439
	3.638000	-1.663002
	3.640000	-1.714576
	3.642000	-1.756480
	3.644000	-1.785490
	3.646000	-1.795160
	3.648000	-1.769373
	3.650000	-1.727470
	3.652000	-1.682343
	3.654000	-1.643662
	3.656000	-1.643662
	3.658000	-1.666226
	3.660000	-1.708129
	3.662000	-1.759703
	3.664000	-1.791937
	3.666000	-1.798384
	3.668000	-1.759703
	3.670000	-1.727470
	3.672000	-1.675896
	3.674000	-1.650109
	3.676000	-1.640439
	3.678000	-1.666226
	3.680000	-1.717800
	3.682000	-1.759703
	3.684000	-1.788713
	3.686000	-1.795160
	3.688000	-1.766150
	3.690000	-1.724246
	3.692000	-1.679119
	3.694000	-1.646886
	3.696000	-1.637216
	3.698000	-1.669449
	3.700000	-1.708129
	3.702000	-1.756480
	3.704000	-1.788713
	3.706000	-1.798384
	3.708000	-1.772597
	3.710000	-1.724246
	3.712000	-1.675896
	3.714000	-1.643662
	3.716000	-1.643662
	3.718000	-1.663002
	3.720000	-1.708129
	3.722000	-1.753257
	3.724000	-1.785490
	3.726000	-1.795160
	3.728000	-1.769373
	3.730000	-1.717800
	3.732000	-1.679119
	3.734000	-1.650109
	3.736000	-1.643662
	3.738000	-1.663002
	3.740000	-1.711353
	3.742000	-1.756480
	3.744000	-1.795160
	3.746000	-1.791937
	3.748000	-1.772597
	3.750000	-1.733916
	3.752000	-1.675896
	3.754000	-1.646886
	3.756000	-1.643662
	3.758000	-1.663002
	3.760000	-1.708129
	3.762000	-1.756480
	3.764000	-1.788713
	3.766000	-1.795160
	3.768000	-1.769373
	3.770000	-1.724246
	3.772000	-1.682343
	3.774000	-1.646886
	3.776000	-1.646886
	3.778000	-1.666226
	3.780000	-1.708129
	3.782000	-1.756480
	3.784000	-1.795160
	3.786000	-1.788713
	3.788000	-1.772597
	3.790000	-1.721023
	3.792000	-1.679119
	3.794000	-1.646886
	3.796000	-1.633992
	3.798000	-1.666226
	3.800000	-1.711353
	3.802000	-1.753257
	3.804000	-1.785490
	3.806000	-1.795160
	3.808000	-1.772597
	3.810000	-1.730693
	3.812000	-1.675896
	3.814000	-1.650109
	3.816000	-1.640439
	3.818000	-1.663002
	3.820000	-1.711353
	3.822000	-1.753257
	3.824000	-1.785490
	3.826000	-1.791937
	3.828000	-1.766150
	3.830000	-1.724246
	3.832000	-1.679119
	3.834000	-1.650109
	3.836000	-1.646886
	3.838000	-1.666226
	3.840000	-1.704906
	3.842000	-1.753257
	3.844000	-1.788713
	3.846000	-1.788713
	3.848000	-1.766150
	3.850000	-1.717800
	3.852000	-1.685566
	3.854000	-1.650109
	3.856000	-1.643662
	3.858000	-1.663002
	3.860000	-1.701683
	3.862000	-1.753257
	3.864000	-1.779043
	3.866000	-1.785490
	3.868000	-1.766150
	3.870000	-1.727470
	3.872000	-1.679119
	3.874000	-1.659779
	3.876000	-1.643662
	3.878000	-1.666226
	3.880000	-1.708129
	3.882000	-1.753257
	3.884000	-1.782267
	3.886000	-1.791937
	3.888000	-1.762927
	3.890000	-1.727470
	3.892000	-1.688789
	3.894000	-1.663002
	3.896000	-1.646886
	3.898000	-1.669449
	3.900000	-1.708129
	3.902000	-1.750033
	3.904000	-1.782267
	3.906000	-1.785490
	3.908000	-1.769373
	3.910000	-1.727470
	3.912000	-1.685566
	3.914000	-1.659779
	3.916000	-1.650109
	3.918000	-1.672673
	3.920000	-1.714576
	3.922000	-1.750033
	3.924000	-1.782267
	3.926000	-1.785490
	3.928000	-1.766150
	3.930000	-1.724246
	3.932000	-1.698459
	3.934000	-1.659779
	3.936000	-1.659779
	3.938000	-1.675896
	3.940000	-1.708129
	3.942000	-1.753257
	3.944000	-1.782267
	3.946000	-1.788713
	3.948000	-1.762927
	3.950000	-1.733916
	3.952000	-1.685566
	3.954000	-1.666226
	3.956000	-1.663002
	3.958000	-1.675896
	3.960000	-1.711353
	3.962000	-1.750033
	3.964000	-1.775820
	3.966000	-1.788713
	3.968000	-1.766150
	3.970000	-1.730693
	3.972000	-1.695236
	3.974000	-1.669449
	3.976000	-1.663002
	3.978000	-1.675896
	3.980000	-1.714576
	3.982000	-1.746810
	3.984000	-1.772597
	3.986000	-1.785490
	3.988000	-1.772597
	3.990000	-1.733916
	3.992000	-1.698459
	3.994000	-1.666226
	3.996000	-1.666226
	3.998000	-1.679119
	4.000000	-1.711353
	4.002000	-1.750033
	4.004000	-1.779043
	4.006000	-1.779043
	4.008000	-1.769373
	4.010000	-1.737140
	4.012000	-1.704906
	4.014000	-1.675896
	4.016000	-1.666226
	4.018000	-1.682343
	4.020000	-1.717800
	4.022000	-1.750033
	4.024000	-1.775820
	4.026000	-1.785490
	4.028000	-1.762927
	4.030000	-1.733916
	4.032000	-1.698459
	4.034000	-1.666226
	4.036000	-1.659779
	4.038000	-1.679119
	4.040000	-1.695236
	4.042000	-1.737140
	4.044000	-1.766150
	4.046000	-1.769373
	4.048000	-1.746810
	4.050000	-1.724246
	4.052000	-1.685566
	4.054000	-1.663002
	4.056000	-1.656556
	4.058000	-1.666226
	4.060000	-1.698459
	4.062000	-1.733916
	4.064000	-1.753257
	4.066000	-1.759703
	4.068000	-1.746810
	4.070000	-1.721023
	4.072000	-1.688789
	4.074000	-1.663002
	4.076000	-1.659779
	4.078000	-1.669449
	4.080000	-1.698459
	4.082000	-1.737140
	4.084000	-1.759703
	4.086000	-1.756480
	4.088000	-1.753257
	4.090000	-1.724246
	4.092000	-1.692013
	4.094000	-1.666226
	4.096000	-1.656556
	4.098000	-1.672673
	4.100000	-1.704906
	4.102000	-1.733916
	4.104000	-1.766150
	4.106000	-1.769373
	4.108000	-1.750033
	4.110000	-1.721023
	4.112000	-1.695236
	4.114000	-1.672673
	4.116000	-1.663002
	4.118000	-1.672673
	4.120000	-1.711353
	4.122000	-1.733916
	4.124000	-1.762927
	4.126000	-1.775820
	4.128000	-1.756480
	4.130000	-1.721023
	4.132000	-1.692013
	4.134000	-1.672673
	4.136000	-1.666226
	4.138000	-1.679119
	4.140000	-1.701683
	4.142000	-1.733916
	4.144000	-1.766150
	4.146000	-1.779043
	4.148000	-1.756480
	4.150000	-1.724246
	4.152000	-1.701683
	4.154000	-1.672673
	4.156000	-1.666226
	4.158000	-1.682343
	4.160000	-1.708129
	4.162000	-1.740363
	4.164000	-1.769373
	4.166000	-1.775820
	4.168000	-1.759703
	4.170000	-1.730693
	4.172000	-1.695236
	4.174000	-1.675896
	4.176000	-1.666226
	4.178000	-1.682343
	4.180000	-1.711353
	4.182000	-1.743586
	4.184000	-1.769373
	4.186000	-1.772597
	4.188000	-1.766150
	4.190000	-1.733916
	4.192000	-1.704906
	4.194000	-1.675896
	4.196000	-1.669449
	4.198000	-1.682343
	4.200000	-1.704906
	4.202000	-1.743586
	4.204000	-1.772597
	4.206000	-1.772597
	4.208000	-1.762927
	4.210000	-1.733916
	4.212000	-1.708129
	4.214000	-1.679119
	4.216000	-1.666226
	4.218000	-1.679119
	4.220000	-1.714576
	4.222000	-1.743586
	4.224000	-1.772597
	4.226000	-1.779043
	4.228000	-1.766150
	4.230000	-1.740363
	4.232000	-1.704906
	4.234000	-1.675896
	4.236000	-1.669449
	4.238000	-1.679119
	4.240000	-1.711353
	4.242000	-1.740363
	4.244000	-1.772597
	4.246000	-1.775820
	4.248000	-1.766150
	4.250000	-1.733916
	4.252000	-1.708129
	4.254000	-1.685566
	4.256000	-1.679119
	4.258000	-1.688789
	4.260000	-1.711353
	4.262000	-1.743586
	4.264000	-1.775820
	4.266000	-1.779043
	4.268000	-1.766150
	4.270000	-1.733916
	4.272000	-1.704906
	4.274000	-1.685566
	4.276000	-1.675896
	4.278000	-1.685566
	4.280000	-1.711353
	4.282000	-1.746810
	4.284000	-1.775820
	4.286000	-1.779043
	4.288000	-1.766150
	4.290000	-1.740363
	4.292000	-1.708129
	4.294000	-1.679119
	4.296000	-1.672673
	4.298000	-1.685566
	4.300000	-1.717800
	4.302000	-1.750033
	4.304000	-1.769373
	4.306000	-1.782267
	4.308000	-1.766150
	4.310000	-1.740363
	4.312000	-1.711353
	4.314000	-1.679119
	4.316000	-1.675896
	4.318000	-1.682343
	4.320000	-1.717800
	4.322000	-1.746810
	4.324000	-1.772597
	4.326000	-1.785490
	4.328000	-1.772597
	4.330000	-1.746810
	4.332000	-1.714576
	4.334000	-1.688789
	4.336000	-1.675896
	4.338000	-1.685566
	4.340000	-1.714576
	4.342000	-1.746810
	4.344000	-1.769373
	4.346000	-1.779043
	4.348000	-1.775820
	4.350000	-1.746810
	4.352000	-1.708129
	4.354000	-1.688789
	4.356000	-1.679119
	4.358000	-1.692013
	4.360000	-1.708129
	4.362000	-1.750033
	4.364000	-1.779043
	4.366000	-1.782267
	4.368000	-1.772597
	4.370000	-1.743586
	4.372000	-1.708129
	4.374000	-1.685566
	4.376000	-1.679119
	4.378000	-1.685566
	4.380000	-1.714576
	4.382000	-1.750033
	4.384000	-1.769373
	4.386000	-1.779043
	4.388000	-1.772597
	4.390000	-1.750033
	4.392000	-1.714576
	4.394000	-1.682343
	4.396000	-1.675896
	4.398000	-1.688789
	4.400000	-1.717800
	4.402000	-1.743586
	4.404000	-1.772597
	4.406000	-1.782267
	4.408000	-1.772597
	4.410000	-1.740363
	4.412000	-1.708129
	4.414000	-1.685566
	4.416000	-1.679119
	4.418000	-1.685566
	4.420000	-1.711353
	4.422000	-1.746810
	4.424000	-1.769373
	4.426000	-1.782267
	4.428000	-1.769373
	4.430000	-1.743586
	4.432000	-1.711353
	4.434000	-1.692013
	4.436000	-1.675896
	4.438000	-1.692013
	4.440000	-1.714576
	4.442000	-1.746810
	4.444000	-1.779043
	4.446000	-1.782267
	4.448000	-1.769373
	4.450000	-1.746810
	4.452000	-1.714576
	4.454000	-1.688789
	4.456000	-1.679119
	4.458000	-1.692013
	4.460000	-1.714576
	4.462000	-1.746810
	4.464000	-1.769373
	4.466000	-1.779043
	4.468000	-1.772597
	4.470000	-1.743586
	4.472000	-1.721023
	4.474000	-1.685566
	4.476000	-1.675896
	4.478000	-1.688789
	4.480000	-1.711353
	4.482000	-1.746810
	4.484000	-1.779043
	4.486000	-1.788713
	4.488000	-1.766150
	4.490000	-1.746810
	4.492000	-1.708129
	4.494000	-1.685566
	4.496000	-1.675896
	4.498000	-1.695236
	4.500000	-1.721023
	4.502000	-1.743586
	4.504000	-1.772597
	4.506000	-1.775820
	4.508000	-1.769373
	4.510000	-1.743586
	4.512000	-1.714576
	4.514000	-1.688789
	4.516000	-1.672673
	4.518000	-1.688789
	4.520000	-1.717800
	4.522000	-1.746810
	4.524000	-1.775820
	4.526000	-1.779043
	4.528000	-1.769373
	4.530000	-1.746810
	4.532000	-1.714576
	4.534000	-1.692013
	4.536000	-1.675896
	4.538000	-1.695236
	4.540000	-1.721023
	4.542000	-1.740363
	4.544000	-1.772597
	4.546000	-1.779043
	4.548000	-1.772597
	4.550000	-1.750033
	4.552000	-1.704906
	4.554000	-1.688789
	4.556000	-1.682343
	4.558000	-1.688789
	4.560000	-1.714576
	4.562000	-1.746810
	4.564000	-1.769373
	4.566000	-1.782267
	4.568000	-1.772597
	4.570000	-1.746810
	4.572000	-1.708129
	4.574000	-1.688789
	4.576000	-1.685566
	4.578000	-1.688789
	4.580000	-1.708129
	4.582000	-1.746810
	4.584000	-1.769373
	4.586000	-1.782267
	4.588000	-1.766150
	4.590000	-1.740363
	4.592000	-1.717800
	4.594000	-1.692013
	4.596000	-1.679119
	4.598000	-1.692013
	4.600000	-1.714576
	4.602000	-1.743586
	4.604000	-1.772597
	4.606000	-1.779043
	4.608000	-1.779043
	4.610000	-1.743586
	4.612000	-1.717800
	4.614000	-1.692013
	4.616000	-1.682343
	4.618000	-1.688789
	4.620000	-1.711353
	4.622000	-1.750033
	4.624000	-1.775820
	4.626000	-1.782267
	4.628000	-1.769373
	4.630000	-1.746810
	4.632000	-1.714576
	4.634000	-1.685566
	4.636000	-1.675896
	4.638000	-1.692013
	4.640000	-1.714576
	4.642000	-1.740363
	4.644000	-1.772597
	4.646000	-1.779043
	4.648000	-1.769373
	4.650000	-1.746810
	4.652000	-1.721023
	4.654000	-1.692013
	4.656000	-1.679119
	4.658000	-1.692013
	4.660000	-1.714576
	4.662000	-1.750033
	4.664000	-1.772597
	4.666000	-1.791937
	4.668000	-1.775820
	4.670000	-1.743586
	4.672000	-1.717800
	4.674000	-1.692013
	4.676000	-1.682343
	4.678000	-1.692013
	4.680000	-1.714576
	4.682000	-1.750033
	4.684000	-1.779043
	4.686000	-1.782267
	4.688000	-1.775820
	4.690000	-1.746810
	4.692000	-1.721023
	4.694000	-1.685566
	4.696000	-1.682343
	4.698000	-1.682343
	4.700000	-1.711353
	4.702000	-1.753257
	4.704000	-1.779043
	4.706000	-1.782267
	4.708000	-1.775820
	4.710000	-1.756480
	4.712000	-1.714576
	4.714000	-1.692013
	4.716000	-1.675896
	4.718000	-1.682343
	4.720000	-1.714576
	4.722000	-1.750033
	4.724000	-1.775820
	4.726000	-1.788713
	4.728000	-1.775820
	4.730000	-1.743586
	4.732000	-1.717800
	4.734000	-1.682343
	4.736000	-1.682343
	4.738000	-1.692013
	4.740000	-1.717800
	4.742000	-1.750033
	4.744000	-1.785490
	4.746000	-1.791937
	4.748000	-1.779043
	4.750000	-1.750033
	4.752000	-1.708129
	4.754000	-1.685566
	4.756000	-1.669449
	4.758000	-1.685566
	4.760000	-1.714576
	4.762000	-1.750033
	4.764000	-1.779043
	4.766000	-1.788713
	4.768000	-1.782267
	4.770000	-1.753257
	4.772000	-1.714576
	4.774000	-1.682343
	4.776000	-1.675896
	4.778000	-1.688789
	4.780000	-1.714576
	4.782000	-1.756480
	4.784000	-1.785490
	4.786000	-1.795160
	4.788000	-1.785490
	4.790000	-1.756480
	4.792000	-1.714576
	4.794000	-1.682343
	4.796000	-1.672673
	4.798000	-1.682343
	4.800000	-1.714576
	4.802000	-1.756480
	4.804000	-1.788713
	4.806000	-1.798384
	4.808000	-1.785490
	4.810000	-1.750033
	4.812000	-1.717800
	4.814000	-1.688789
	4.816000	-1.669449
	4.818000	-1.685566
	4.820000	-1.714576
	4.822000	-1.756480
	4.824000	-1.782267
	4.826000	-1.798384
	4.828000	-1.785490
	4.830000	-1.750033
	4.832000	-1.711353
	4.834000	-1.679119
	4.836000	-1.666226
	4.838000	-1.682343
	4.840000	-1.714576
	4.842000	-1.753257
	4.844000	-1.791937
	4.846000	-1.804830
	4.848000	-1.785490
	4.850000	-1.756480
	4.852000	-1.717800
	4.854000	-1.679119
	4.856000	-1.669449
	4.858000	-1.675896
	4.860000	-1.711353
	4.862000	-1.759703
	4.864000	-1.785490
	4.866000	-1.798384
	4.868000	-1.788713
	4.870000	-1.750033
	4.872000	-1.714576
	4.874000	-1.679119
	4.876000	-1.669449
	4.878000	-1.675896
	4.880000	-1.704906
	4.882000	-1.756480
	4.884000	-1.788713
	4.886000	-1.801607
	4.888000	-1.785490
	4.890000	-1.746810
	4.892000	-1.711353
	4.894000	-1.675896
	4.896000	-1.663002
	4.898000	-1.679119
	4.900000	-1.711353
	4.902000	-1.750033
	4.904000	-1.791937
	4.906000	-1.798384
	4.908000	-1.791937
	4.910000	-1.746810
	4.912000	-1.711353
	4.914000	-1.675896
	4.916000	-1.659779
	4.918000	-1.679119
	4.920000	-1.711353
	4.922000	-1.750033
	4.924000	-1.795160
	4.926000	-1.801607
	4.928000	-1.788713
	4.930000	-1.753257
	4.932000	-1.704906
	4.934000	-1.675896
	4.936000	-1.663002
	4.938000	-1.679119
	4.940000	-1.708129
	4.942000	-1.756480
	4.944000	-1.791937
	4.946000	-1.801607
	4.948000	-1.791937
	4.950000	-1.759703
	4.952000	-1.708129
	4.954000	-1.672673
	4.956000	-1.656556
	4.958000	-1.672673
	4.960000	-1.714576
	4.962000	-1.753257
	4.964000	-1.785490
	4.966000	-1.811277
	4.968000	-1.788713
	4.970000	-1.750033
	4.972000	-1.711353
	4.974000	-1.675896
	4.976000	-1.666226
	4.978000	-1.675896
	4.980000	-1.708129
	4.982000	-1.750033
	4.984000	-1.791937
	4.986000	-1.804830
	4.988000	-1.795160
	4.990000	-1.756480
	4.992000	-1.708129
	4.994000	-1.675896
	4.996000	-1.663002
	4.998000	-1.669449
	5.000000	-1.704906
	5.002000	-1.753257
	5.004000	-1.795160
	5.006000	-1.811277
	5.008000	-1.798384
	5.010000	-1.756480
	5.012000	-1.714576
	5.014000	-1.672673
	5.016000	-1.656556
	5.018000	-1.672673
	5.020000	-1.708129
	5.022000	-1.753257
	5.024000	-1.798384
	5.026000	-1.808054
	5.028000	-1.791937
	5.030000	-1.759703
	5.032000	-1.714576
	5.034000	-1.672673
	5.036000	-1.663002
	5.038000	-1.666226
	5.040000	-1.704906
	5.042000	-1.759703
	5.044000	-1.798384
	5.046000	-1.808054
	5.048000	-1.795160
	5.050000	-1.759703
	5.052000	-1.708129
	5.054000	-1.675896
	5.056000	-1.656556
	5.058000	-1.669449
	5.060000	-1.704906
	5.062000	-1.753257
	5.064000	-1.791937
	5.066000	-1.811277
	5.068000	-1.791937
	5.070000	-1.759703
	5.072000	-1.711353
	5.074000	-1.675896
	5.076000	-1.656556
	5.078000	-1.669449
	5.080000	-1.708129
	5.082000	-1.753257
	5.084000	-1.795160
	5.086000	-1.808054
	5.088000	-1.791937
	5.090000	-1.759703
	5.092000	-1.711353
	5.094000	-1.672673
	5.096000	-1.650109
	5.098000	-1.669449
	5.100000	-1.704906
	5.102000	-1.756480
	5.104000	-1.798384
	5.106000	-1.808054
	5.108000	-1.798384
	5.110000	-1.753257
	5.112000	-1.711353
	5.114000	-1.666226
	5.116000	-1.656556
	5.118000	-1.669449
	5.120000	-1.704906
	5.122000	-1.753257
	5.124000	-1.798384
	5.126000	-1.814500
	5.128000	-1.801607
	5.130000	-1.756480
	5.132000	-1.711353
	5.134000	-1.672673
	5.136000	-1.656556
	5.138000	-1.669449
	5.140000	-1.708129
	5.142000	-1.756480
	5.144000	-1.795160
	5.146000	-1.817724
	5.148000	-1.801607
	5.150000	-1.756480
	5.152000	-1.708129
	5.154000	-1.666226
	5.156000	-1.650109
	5.158000	-1.663002
	5.160000	-1.701683
	5.162000	-1.756480
	5.164000	-1.798384
	5.166000	-1.814500
	5.168000	-1.798384
	5.170000	-1.759703
	5.172000	-1.708129
	5.174000	-1.669449
	5.176000	-1.653332
	5.178000	-1.669449
	5.180000	-1.711353
	5.182000	-1.756480
	5.184000	-1.791937
	5.186000	-1.817724
	5.188000	-1.801607
	5.190000	-1.753257
	5.192000	-1.708129
	5.194000	-1.666226
	5.196000	-1.653332
	5.198000	-1.666226
	5.200000	-1.701683
	5.202000	-1.753257
	5.204000	-1.791937
	5.206000	-1.814500
	5.208000	-1.798384
	5.210000	-1.756480
	5.212000	-1.711353
	5.214000	-1.663002
	5.216000	-1.653332
	5.218000	-1.666226
	5.220000	-1.701683
	5.222000	-1.753257
	5.224000	-1.798384
	5.226000	-1.814500
	5.228000	-1.795160
	5.230000	-1.756480
	5.232000	-1.708129
	5.234000	-1.672673
	5.236000	-1.646886
	5.238000	-1.659779
	5.240000	-1.708129
	5.242000	-1.753257
	5.244000	-1.791937
	5.246000	-1.820947
	5.248000	-1.795160
	5.250000	-1.756480
	5.252000	-1.708129
	5.254000	-1.666226
	5.256000	-1.643662
	5.258000	-1.663002
	5.260000	-1.704906
	5.262000	-1.759703
	5.264000	-1.795160
	5.266000	-1.814500
	5.268000	-1.798384
	5.270000	-1.759703
	5.272000	-1.704906
	5.274000	-1.669449
	5.276000	-1.646886
	5.278000	-1.659779
	5.280000	-1.704906
	5.282000	-1.753257
	5.284000	-1.798384
	5.286000	-1.814500
	5.288000	-1.798384
	5.290000	-1.762927
	5.292000	-1.708129
	5.294000	-1.669449
	5.296000	-1.650109
	5.298000	-1.659779
	5.300000	-1.701683
	5.302000	-1.756480
	5.304000	-1.798384
	5.306000	-1.808054
	5.308000	-1.798384
	5.310000	-1.759703
	5.312000	-1.708129
	5.314000	-1.666226
	5.316000	-1.653332
	5.318000	-1.656556
	5.320000	-1.701683
	5.322000	-1.750033
	5.324000	-1.801607
	5.326000	-1.808054
	5.328000	-1.801607
	5.330000	-1.756480
	5.332000	-1.708129
	5.334000	-1.663002
	5.336000	-1.643662
	5.338000	-1.659779
	5.340000	-1.701683
	5.342000	-1.750033
	5.344000	-1.795160
	5.346000	-1.811277
	5.348000	-1.795160
	5.350000	-1.759703
	5.352000	-1.711353
	5.354000	-1.666226
	5.356000	-1.650109
	5.358000	-1.659779
	5.360000	-1.695236
	5.362000	-1.750033
	5.364000	-1.795160
	5.366000	-1.814500
	5.368000	-1.798384
	5.370000	-1.753257
	5.372000	-1.711353
	5.374000	-1.666226
	5.376000	-1.656556
	5.378000	-1.656556
	5.380000	-1.698459
	5.382000	-1.756480
	5.384000	-1.798384
	5.386000	-1.811277
	5.388000	-1.795160
	5.390000	-1.759703
	5.392000	-1.704906
	5.394000	-1.669449
	5.396000	-1.646886
	5.398000	-1.656556
	5.400000	-1.695236
	5.402000	-1.746810
	5.404000	-1.798384
	5.406000	-1.808054
	5.408000	-1.798384
	5.410000	-1.756480
	5.412000	-1.701683
	5.414000	-1.666226
	5.416000	-1.640439
	5.418000	-1.659779
	5.420000	-1.692013
	5.422000	-1.750033
	5.424000	-1.795160
	5.426000	-1.808054
	5.428000	-1.798384
	5.430000	-1.759703
	5.432000	-1.708129
	5.434000	-1.663002
	5.436000	-1.643662
	5.438000	-1.659779
	5.440000	-1.695236
	5.442000	-1.746810
	5.444000	-1.791937
	5.446000	-1.811277
	5.448000	-1.798384
	5.450000	-1.759703
	5.452000	-1.704906
	5.454000	-1.659779
	5.456000	-1.643662
	5.458000	-1.653332
	5.460000	-1.692013
	5.462000	-1.743586
	5.464000	-1.788713
	5.466000	-1.808054
	5.468000	-1.795160
	5.470000	-1.759703
	5.472000	-1.708129
	5.474000	-1.663002
	5.476000	-1.643662
	5.478000	-1.653332
	5.480000	-1.695236
	5.482000	-1.740363
	5.484000	-1.788713
	5.486000	-1.808054
	5.488000	-1.795160
	5.490000	-1.756480
	5.492000	-1.708129
	5.494000	-1.659779
	5.496000	-1.640439
	5.498000	-1.650109
	5.500000	-1.698459
	5.502000	-1.743586
	5.504000	-1.791937
	5.506000	-1.808054
	5.508000	-1.795160
	5.510000	-1.756480
	5.512000	-1.708129
	5.514000	-1.666226
	5.516000	-1.643662
	5.518000	-1.650109
	5.520000	-1.695236
	5.522000	-1.740363
	5.524000	-1.788713
	5.526000	-1.811277
	5.528000	-1.801607
	5.530000	-1.756480
	5.532000	-1.708129
	5.534000	-1.659779
	5.536000	-1.637216
	5.538000	-1.650109
	5.540000	-1.695236
	5.542000	-1.746810
	5.544000	-1.791937
	5.546000	-1.814500
	5.548000	-1.795160
	5.550000	-1.753257
	5.552000	-1.701683
	5.554000	-1.659779
	5.556000	-1.650109
	5.558000	-1.653332
	5.560000	-1.688789
	5.562000	-1.737140
	5.564000	-1.791937
	5.566000	-1.808054
	5.568000	-1.798384
	5.570000	-1.759703
	5.572000	-1.708129
	5.574000	-1.659779
	5.576000	-1.646886
	5.578000	-1.650109
	5.580000	-1.695236
	5.582000	-1.740363
	5.584000	-1.795160
	5.586000	-1.811277
	5.588000	-1.801607
	5.590000	-1.756480
	5.592000	-1.704906
	5.594000	-1.663002
	5.596000	-1.640439
	5.598000	-1.650109
	5.600000	-1.692013
	5.602000	-1.746810
	5.604000	-1.788713
	5.606000	-1.808054
	5.608000	-1.798384
	5.610000	-1.759703
	5.612000	-1.704906
	5.614000	-1.659779
	5.616000	-1.643662
	5.618000	-1.656556
	5.620000	-1.685566
	5.622000	-1.746810
	5.624000	-1.795160
	5.626000	-1.811277
	5.628000	-1.791937
	5.630000	-1.756480
	5.632000	-1.704906
	5.634000	-1.659779
	5.636000	-1.640439
	5.638000	-1.659779
	5.640000	-1.698459
	5.642000	-1.743586
	5.644000	-1.791937
	5.646000	-1.814500
	5.648000	-1.798384
	5.650000	-1.756480
	5.652000	-1.708129
	5.654000	-1.663002
	5.656000	-1.640439
	5.658000	-1.656556
	5.660000	-1.692013
	5.662000	-1.750033
	5.664000	-1.791937
	5.666000	-1.814500
	5.668000	-1.798384
	5.670000	-1.766150
	5.672000	-1.711353
	5.674000	-1.656556
	5.676000	-1.637216
	5.678000	-1.659779
	5.680000	-1.701683
	5.682000	-1.743586
	5.684000	-1.791937
	5.686000	-1.808054
	5.688000	-1.798384
	5.690000	-1.766150
	5.692000	-1.711353
	5.694000	-1.663002
	5.696000	-1.643662
	5.698000	-1.659779
	5.700000	-1.695236
	5.702000	-1.746810
	5.704000	-1.788713
	5.706000	-1.811277
	5.708000	-1.798384
	5.710000	-1.766150
	5.712000	-1.711353
	5.714000	-1.669449
	5.716000	-1.643662
	5.718000	-1.656556
	5.720000	-1.698459
	5.722000	-1.750033
	5.724000	-1.788713
	5.726000	-1.811277
	5.728000	-1.798384
	5.730000	-1.759703
	5.732000	-1.714576
	5.734000	-1.666226
	5.736000	-1.640439
	5.738000	-1.656556
	5.740000	-1.695236
	5.742000	-1.743586
	5.744000	-1.791937
	5.746000	-1.814500
	5.748000	-1.798384
	5.750000	-1.759703
	5.752000	-1.714576
	5.754000	-1.666226
	5.756000	-1.643662
	5.758000	-1.653332
	5.760000	-1.692013
	5.762000	-1.743586
	5.764000	-1.798384
	5.766000	-1.814500
	5.768000	-1.801607
	5.770000	-1.756480
	5.772000	-1.714576
	5.774000	-1.659779
	5.776000	-1.646886
	5.778000	-1.656556
	5.780000	-1.688789
	5.782000	-1.743586
	5.784000	-1.788713
	5.786000	-1.808054
	5.788000	-1.795160
	5.790000	-1.759703
	5.792000	-1.711353
	5.794000	-1.666226
	5.796000	-1.640439
	5.798000	-1.656556
	5.800000	-1.695236
	5.802000	-1.746810
	5.804000	-1.795160
	5.806000	-1.814500
	5.808000	-1.798384
	5.810000	-1.759703
	5.812000	-1.708129
	5.814000	-1.666226
	5.816000	-1.643662
	5.818000	-1.656556
	5.820000	-1.692013
	5.822000	-1.746810
	5.824000	-1.785490
	5.826000	-1.811277
	5.828000	-1.798384
	5.830000	-1.759703
	5.832000	-1.714576
	5.834000	-1.663002
	5.836000	-1.640439
	5.838000	-1.650109
	5.840000	-1.692013
	5.842000	-1.746810
	5.844000	-1.795160
	5.846000	-1.811277
	5.848000	-1.804830
	5.850000	-1.762927
	5.852000	-1.711353
	5.854000	-1.666226
	5.856000	-1.640439
	5.858000	-1.646886
	5.860000	-1.688789
	5.862000	-1.743586
	5.864000	-1.795160
	5.866000	-1.808054
	5.868000	-1.801607
	5.870000	-1.769373
	5.872000	-1.708129
	5.874000	-1.666226
	5.876000	-1.646886
	5.878000	-1.650109
	5.880000	-1.695236
	5.882000	-1.740363
	5.884000	-1.788713
	5.886000	-1.817724
	5.888000	-1.804830
	5.890000	-1.762927
	5.892000	-1.708129
	5.894000	-1.669449
	5.896000	-1.637216
	5.898000	-1.653332
	5.900000	-1.692013
	5.902000	-1.750033
	5.904000	-1.791937
	5.906000	-1.814500
	5.908000	-1.798384
	5.910000	-1.759703
	5.912000	-1.714576
	5.914000	-1.669449
	5.916000	-1.646886
	5.918000	-1.650109
	5.920000	-1.695236
	5.922000	-1.743586
	5.924000	-1.785490
	5.926000	-1.814500
	5.928000	-1.804830
	5.930000	-1.762927
	5.932000	-1.704906
	5.934000	-1.669449
	5.936000	-1.643662
	5.938000	-1.653332
	5.940000	-1.688789
	5.942000	-1.746810
	5.944000	-1.791937
	5.946000	-1.817724
	5.948000	-1.804830
	5.950000	-1.762927
	5.952000	-1.711353
	5.954000	-1.666226
	5.956000	-1.646886
	5.958000	-1.656556
	5.960000	-1.692013
	5.962000	-1.743586
	5.964000	-1.785490
	5.966000	-1.814500
	5.968000	-1.801607
	5.970000	-1.766150
	5.972000	-1.717800
	5.974000	-1.669449
	5.976000	-1.640439
	5.978000	-1.656556
	5.980000	-1.688789
	5.982000	-1.743586
	5.984000	-1.782267
	5.986000	-1.808054
	5.988000	-1.804830
	5.990000	-1.762927
	5.992000	-1.714576
	5.994000	-1.669449
	5.996000	-1.643662
	5.998000	-1.653332
	6.000000	-1.692013
	6.002000	-1.740363
	6.004000	-1.785490
	6.006000	-1.811277
	6.008000	-1.801607
	6.010000	-1.759703
	6.012000	-1.711353
	6.014000	-1.666226
	6.016000	-1.640439
	6.018000	-1.650109
	6.020000	-1.688789
	6.022000	-1.740363
	6.024000	-1.782267
	6.026000	-1.808054
	6.028000	-1.801607
	6.030000	-1.766150
	6.032000	-1.708129
	6.034000	-1.675896
	6.036000	-1.640439
	6.038000	-1.653332
	6.040000	-1.682343
	6.042000	-1.737140
	6.044000	-1.795160
	6.046000	-1.804830
	6.048000	-1.798384
	6.050000	-1.762927
	6.052000	-1.711353
	6.054000	-1.663002
	6.056000	-1.640439
	6.058000	-1.650109
	6.060000	-1.695236
	6.062000	-1.743586
	6.064000	-1.791937
	6.066000	-1.811277
	6.068000	-1.801607
	6.070000	-1.766150
	6.072000	-1.714576
	6.074000	-1.669449
	6.076000	-1.640439
	6.078000	-1.650109
	6.080000	-1.682343
	6.082000	-1.746810
	6.084000	-1.791937
	6.086000	-1.811277
	6.088000	-1.798384
	6.090000	-1.766150
	6.092000	-1.714576
	6.094000	-1.666226
	6.096000	-1.643662
	6.098000	-1.646886
	6.100000	-1.692013
	6.102000	-1.737140
	6.104000	-1.788713
	6.106000	-1.814500
	6.108000	-1.801607
	6.110000	-1.762927
	6.112000	-1.714576
	6.114000	-1.669449
	6.116000	-1.640439
	6.118000	-1.650109
	6.120000	-1.685566
	6.122000	-1.737140
	6.124000	-1.785490
	6.126000	-1.808054
	6.128000	-1.804830
	6.130000	-1.759703
	6.132000	-1.711353
	6.134000	-1.666226
	6.136000	-1.643662
	6.138000	-1.650109
	6.140000	-1.682343
	6.142000	-1.746810
	6.144000	-1.785490
	6.146000	-1.814500
	6.148000	-1.798384
	6.150000	-1.762927
	6.152000	-1.708129
	6.154000	-1.663002
	6.156000	-1.643662
	6.158000	-1.646886
	6.160000	-1.682343
	6.162000	-1.740363
	6.164000	-1.785490
	6.166000	-1.808054
	6.168000	-1.798384
	6.170000	-1.766150
	6.172000	-1.714576
	6.174000	-1.663002
	6.176000	-1.640439
	6.178000	-1.650109
	6.180000	-1.688789
	6.182000	-1.733916
	6.184000	-1.782267
	6.186000	-1.804830
	6.188000	-1.798384
	6.190000	-1.759703
	6.192000	-1.708129
	6.194000	-1.663002
	6.196000	-1.640439
	6.198000	-1.646886
	6.200000	-1.685566
	6.202000	-1.737140
	6.204000	-1.788713
	6.206000	-1.804830
	6.208000	-1.798384
	6.210000	-1.762927
	6.212000	-1.708129
	6.214000	-1.669449
	6.216000	-1.643662
	6.218000	-1.646886
	6.220000	-1.682343
	6.222000	-1.737140
	6.224000	-1.788713
	6.226000	-1.808054
	6.228000	-1.798384
	6.230000	-1.756480
	6.232000	-1.714576
	6.234000	-1.666226
	6.236000	-1.643662
	6.238000	-1.646886
	6.240000	-1.685566
	6.242000	-1.740363
	6.244000	-1.782267
	6.246000	-1.808054
	6.248000	-1.804830
	6.250000	-1.762927
	6.252000	-1.711353
	6.254000	-1.669449
	6.256000	-1.646886
	6.258000	-1.650109
	6.260000	-1.688789
	6.262000	-1.737140
	6.264000	-1.779043
	6.266000	-1.804830
	6.268000	-1.801607
	6.270000	-1.766150
	6.272000	-1.714576
	6.274000	-1.663002
	6.276000	-1.646886
	6.278000	-1.653332
	6.280000	-1.685566
	6.282000	-1.733916
	6.284000	-1.788713
	6.286000	-1.814500
	6.288000	-1.801607
	6.290000	-1.769373
	6.292000	-1.714576
	6.294000	-1.669449
	6.296000	-1.643662
	6.298000	-1.650109
	6.300000	-1.685566
	6.302000	-1.733916
	6.304000	-1.785490
	6.306000	-1.814500
	6.308000	-1.808054
	6.310000	-1.762927
	6.312000	-1.714576
	6.314000	-1.666226
	6.316000	-1.646886
	6.318000	-1.646886
	6.320000	-1.685566
	6.322000	-1.737140
	6.324000	-1.782267
	6.326000	-1.814500
	6.328000	-1.801607
	6.330000	-1.766150
	6.332000	-1.714576
	6.334000	-1.663002
	6.336000	-1.640439
	6.338000	-1.650109
	6.340000	-1.682343
	6.342000	-1.740363
	6.344000	-1.788713
	6.346000	-1.808054
	6.348000	-1.798384
	6.350000	-1.775820
	6.352000	-1.714576
	6.354000	-1.672673
	6.356000	-1.646886
	6.358000	-1.650109
	6.360000	-1.685566
	6.362000	-1.733916
	6.364000	-1.791937
	6.366000	-1.811277
	6.368000	-1.808054
	6.370000	-1.766150
	6.372000	-1.717800
	6.374000	-1.666226
	6.376000	-1.646886
	6.378000	-1.650109
	6.380000	-1.685566
	6.382000	-1.740363
	6.384000	-1.788713
	6.386000	-1.811277
	6.388000	-1.808054
	6.390000	-1.766150
	6.392000	-1.721023
	6.394000	-1.675896
	6.396000	-1.646886
	6.398000	-1.646886
	6.400000	-1.685566
	6.402000	-1.740363
	6.404000	-1.788713
	6.406000	-1.811277
	6.408000	-1.804830
	6.410000	-1.772597
	6.412000	-1.721023
	6.414000	-1.675896
	6.416000	-1.643662
	6.418000	-1.653332
	6.420000	-1.685566
	6.422000	-1.740363
	6.424000	-1.788713
	6.426000	-1.814500
	6.428000	-1.804830
	6.430000	-1.772597
	6.432000	-1.721023
	6.434000	-1.672673
	6.436000	-1.643662
	6.438000	-1.656556
	6.440000	-1.682343
	6.442000	-1.740363
	6.444000	-1.788713
	6.446000	-1.814500
	6.448000	-1.808054
	6.450000	-1.769373
	6.452000	-1.717800
	6.454000	-1.675896
	6.456000	-1.650109
	6.458000	-1.656556
	6.460000	-1.685566
	6.462000	-1.737140
	6.464000	-1.791937
	6.466000	-1.817724
	6.468000	-1.804830
	6.470000	-1.775820
	6.472000	-1.721023
	6.474000	-1.669449
	6.476000	-1.643662
	6.478000	-1.653332
	6.480000	-1.685566
	6.482000	-1.737140
	6.484000	-1.791937
	6.486000	-1.814500
	6.488000	-1.808054
	6.490000	-1.772597
	6.492000	-1.724246
	6.494000	-1.672673
	6.496000	-1.646886
	6.498000	-1.650109
	6.500000	-1.688789
	6.502000	-1.743586
	6.504000	-1.791937
	6.506000	-1.814500
	6.508000	-1.804830
	6.510000	-1.779043
	6.512000	-1.727470
	6.514000	-1.672673
	6.516000	-1.643662
	6.518000	-1.656556
	6.520000	-1.692013
	6.522000	-1.737140
	6.524000	-1.785490
	6.526000	-1.811277
	6.528000	-1.811277
	6.530000	-1.772597
	6.532000	-1.724246
	6.534000	-1.672673
	6.536000	-1.650109
	6.538000	-1.643662
	6.540000	-1.695236
	6.542000	-1.740363
	6.544000	-1.791937
	6.546000	-1.814500
	6.548000	-1.808054
	6.550000	-1.769373
	6.552000	-1.717800
	6.554000	-1.672673
	6.556000	-1.643662
	6.558000	-1.650109
	6.560000	-1.682343
	6.562000	-1.740363
	6.564000	-1.791937
	6.566000	-1.814500
	6.568000	-1.811277
	6.570000	-1.775820
	6.572000	-1.724246
	6.574000	-1.679119
	6.576000	-1.640439
	6.578000	-1.650109
	6.580000	-1.685566
	6.582000	-1.737140
	6.584000	-1.791937
	6.586000	-1.817724
	6.588000	-1.808054
	6.590000	-1.769373
	6.592000	-1.721023
	6.594000	-1.669449
	6.596000	-1.646886
	6.598000	-1.653332
	6.600000	-1.692013
	6.602000	-1.733916
	6.604000	-1.788713
	6.606000	-1.811277
	6.608000	-1.811277
	6.610000	-1.775820
	6.612000	-1.721023
	6.614000	-1.675896
	6.616000	-1.643662
	6.618000	-1.650109
	6.620000	-1.685566
	6.622000	-1.733916
	6.624000	-1.785490
	6.626000	-1.814500
	6.628000	-1.811277
	6.630000	-1.775820
	6.632000	-1.724246
	6.634000	-1.672673
	6.636000	-1.650109
	6.638000	-1.653332
	6.640000	-1.679119
	6.642000	-1.740363
	6.644000	-1.791937
	6.646000	-1.817724
	6.648000	-1.804830
	6.650000	-1.769373
	6.652000	-1.717800
	6.654000	-1.669449
	6.656000	-1.643662
	6.658000	-1.650109
	6.660000	-1.682343
	6.662000	-1.740363
	6.664000	-1.791937
	6.666000	-1.817724
	6.668000	-1.808054
	6.670000	-1.779043
	6.672000	-1.721023
	6.674000	-1.672673
	6.676000	-1.646886
	6.678000	-1.650109
	6.680000	-1.682343
	6.682000	-1.737140
	6.684000	-1.785490
	6.686000	-1.811277
	6.688000	-1.808054
	6.690000	-1.772597
	6.692000	-1.724246
	6.694000	-1.672673
	6.696000	-1.646886
	6.698000	-1.656556
	6.700000	-1.679119
	6.702000	-1.730693
	6.704000	-1.782267
	6.706000	-1.811277
	6.708000	-1.804830
	6.710000	-1.782267
	6.712000	-1.724246
	6.714000	-1.675896
	6.716000	-1.646886
	6.718000	-1.656556
	6.720000	-1.682343
	6.722000	-1.737140
	6.724000	-1.788713
	6.726000	-1.808054
	6.728000	-1.811277
	6.730000	-1.779043
	6.732000	-1.724246
	6.734000	-1.679119
	6.736000	-1.646886
	6.738000	-1.646886
	6.740000	-1.682343
	6.742000	-1.737140
	6.744000	-1.791937
	6.746000	-1.811277
	6.748000	-1.811277
	6.750000	-1.769373
	6.752000	-1.721023
	6.754000	-1.675896
	6.756000	-1.646886
	6.758000	-1.650109
	6.760000	-1.679119
	6.762000	-1.730693
	6.764000	-1.782267
	6.766000	-1.811277
	6.768000	-1.808054
	6.770000	-1.775820
	6.772000	-1.721023
	6.774000	-1.675896
	6.776000	-1.646886
	6.778000	-1.653332
	6.780000	-1.682343
	6.782000	-1.733916
	6.784000	-1.785490
	6.786000	-1.814500
	6.788000	-1.808054
	6.790000	-1.772597
	6.792000	-1.724246
	6.794000	-1.679119
	6.796000	-1.650109
	6.798000	-1.656556
	6.800000	-1.685566
	6.802000	-1.737140
	6.804000	-1.785490
	6.806000	-1.814500
	6.808000	-1.814500
	6.810000	-1.775820
	6.812000	-1.727470
	6.814000	-1.675896
	6.816000	-1.646886
	6.818000	-1.653332
	6.820000	-1.682343
	6.822000	-1.740363
	6.824000	-1.791937
	6.826000	-1.811277
	6.828000	-1.811277
	6.830000	-1.772597
	6.832000	-1.727470
	6.834000	-1.675896
	6.836000	-1.650109
	6.838000	-1.646886
	6.840000	-1.675896
	6.842000	-1.737140
	6.844000	-1.791937
	6.846000	-1.814500
	6.848000	-1.811277
	6.850000	-1.772597
	6.852000	-1.730693
	6.854000	-1.675896
	6.856000	-1.656556
	6.858000	-1.650109
	6.860000	-1.682343
	6.862000	-1.740363
	6.864000	-1.785490
	6.866000	-1.817724
	6.868000	-1.814500
	6.870000	-1.779043
	6.872000	-1.724246
	6.874000	-1.682343
	6.876000	-1.646886
	6.878000	-1.656556
	6.880000	-1.685566
	6.882000	-1.730693
	6.884000	-1.785490
	6.886000	-1.817724
	6.888000	-1.814500
	6.890000	-1.779043
	6.892000	-1.727470
	6.894000	-1.679119
	6.896000	-1.653332
	6.898000	-1.653332
	6.900000	-1.685566
	6.902000	-1.737140
	6.904000	-1.788713
	6.906000	-1.817724
	6.908000	-1.811277
	6.910000	-1.779043
	6.912000	-1.727470
	6.914000	-1.682343
	6.916000	-1.653332
	6.918000	-1.653332
	6.920000	-1.688789
	6.922000	-1.733916
	6.924000	-1.788713
	6.926000	-1.814500
	6.928000	-1.814500
	6.930000	-1.779043
	6.932000	-1.727470
	6.934000	-1.679119
	6.936000	-1.656556
	6.938000	-1.650109
	6.940000	-1.685566
	6.942000	-1.733916
	6.944000	-1.785490
	6.946000	-1.817724
	6.948000	-1.811277
	6.950000	-1.775820
	6.952000	-1.727470
	6.954000	-1.679119
	6.956000	-1.653332
	6.958000	-1.653332
	6.960000	-1.692013
	6.962000	-1.733916
	6.964000	-1.791937
	6.966000	-1.814500
	6.968000	-1.811277
	6.970000	-1.782267
	6.972000	-1.727470
	6.974000	-1.682343
	6.976000	-1.646886
	6.978000	-1.653332
	6.980000	-1.688789
	6.982000	-1.733916
	6.984000	-1.782267
	6.986000	-1.817724
	6.988000	-1.804830
	6.990000	-1.779043
	6.992000	-1.727470
	6.994000	-1.685566
	6.996000	-1.656556
	6.998000	-1.656556
	7.000000	-1.685566
	7.002000	-1.737140
	7.004000	-1.785490
	7.006000	-1.814500
	7.008000	-1.814500
	7.010000	-1.782267
	7.012000	-1.733916
	7.014000	-1.679119
	7.016000	-1.653332
	7.018000	-1.656556
	7.020000	-1.682343
	7.022000	-1.737140
	7.024000	-1.785490
	7.026000	-1.817724
	7.028000	-1.804830
	7.030000	-1.779043
	7.032000	-1.733916
	7.034000	-1.679119
	7.036000	-1.653332
	7.038000	-1.656556
	7.040000	-1.688789
	7.042000	-1.733916
	7.044000	-1.788713
	7.046000	-1.814500
	7.048000	-1.811277
	7.050000	-1.785490
	7.052000	-1.730693
	7.054000	-1.682343
	7.056000	-1.656556
	7.058000	-1.650109
	7.060000	-1.688789
	7.062000	-1.730693
	7.064000	-1.785490
	7.066000	-1.808054
	7.068000	-1.817724
	7.070000	-1.782267
	7.072000	-1.727470
	7.074000	-1.679119
	7.076000	-1.650109
	7.078000	-1.653332
	7.080000	-1.682343
	7.082000	-1.733916
	7.084000	-1.782267
	7.086000	-1.817724
	7.088000	-1.814500
	7.090000	-1.779043
	7.092000	-1.733916
	7.094000	-1.675896
	7.096000	-1.650109
	7.098000	-1.656556
	7.100000	-1.682343
	7.102000	-1.733916
	7.104000	-1.785490
	7.106000	-1.817724
	7.108000	-1.817724
	7.110000	-1.782267
	7.112000	-1.730693
	7.114000	-1.682343
	7.116000	-1.650109
	7.118000	-1.650109
	7.120000	-1.688789
	7.122000	-1.733916
	7.124000	-1.779043
	7.126000	-1.820947
	7.128000	-1.814500
	7.130000	-1.782267
	7.132000	-1.737140
	7.134000	-1.675896
	7.136000	-1.656556
	7.138000	-1.653332
	7.140000	-1.682343
	7.142000	-1.730693
	7.144000	-1.785490
	7.146000	-1.814500
	7.148000	-1.811277
	7.150000	-1.782267
	7.152000	-1.733916
	7.154000	-1.685566
	7.156000	-1.653332
	7.158000	-1.656556
	7.160000	-1.685566
	7.162000	-1.730693
	7.164000	-1.788713
	7.166000	-1.814500
	7.168000	-1.817724
	7.170000	-1.782267
	7.172000	-1.733916
	7.174000	-1.679119
	7.176000	-1.653332
	7.178000	-1.656556
	7.180000	-1.685566
	7.182000	-1.730693
	7.184000	-1.788713
	7.186000	-1.814500
	7.188000	-1.811277
	7.190000	-1.779043
	7.192000	-1.733916
	7.194000	-1.685566
	7.196000	-1.653332
	7.198000	-1.646886
	7.200000	-1.685566
	7.202000	-1.733916
	7.204000	-1.788713
	7.206000	-1.817724
	7.208000	-1.811277
	7.210000	-1.785490
	7.212000	-1.733916
	7.214000	-1.682343
	7.216000	-1.650109
	7.218000	-1.650109
	7.220000	-1.679119
	7.222000	-1.737140
	7.224000	-1.785490
	7.226000	-1.814500
	7.228000	-1.811277
	7.230000	-1.779043
	7.232000	-1.730693
	7.234000	-1.682343
	7.236000	-1.656556
	7.238000	-1.650109
	7.240000	-1.679119
	7.242000	-1.727470
	7.244000	-1.785490
	7.246000	-1.811277
	7.248000	-1.817724
	7.250000	-1.782267
	7.252000	-1.733916
	7.254000	-1.682343
	7.256000	-1.653332
	7.258000	-1.653332
	7.260000	-1.682343
	7.262000	-1.737140
	7.264000	-1.785490
	7.266000	-1.817724
	7.268000	-1.817724
	7.270000	-1.782267
	7.272000	-1.727470
	7.274000	-1.682343
	7.276000	-1.653332
	7.278000	-1.650109
	7.280000	-1.682343
	7.282000	-1.727470
	7.284000	-1.785490
	7.286000	-1.811277
	7.288000	-1.808054
	7.290000	-1.782267
	7.292000	-1.737140
	7.294000	-1.682343
	7.296000	-1.659779
	7.298000	-1.656556
	7.300000	-1.682343
	7.302000	-1.727470
	7.304000	-1.782267
	7.306000	-1.811277
	7.308000	-1.820947
	7.310000	-1.782267
	7.312000	-1.730693
	7.314000	-1.679119
	7.316000	-1.650109
	7.318000	-1.656556
	7.320000	-1.675896
	7.322000	-1.730693
	7.324000	-1.785490
	7.326000	-1.817724
	7.328000	-1.814500
	7.330000	-1.782267
	7.332000	-1.737140
	7.334000	-1.685566
	7.336000	-1.653332
	7.338000	-1.646886
	7.340000	-1.685566
	7.342000	-1.733916
	7.344000	-1.782267
	7.346000	-1.808054
	7.348000	-1.811277
	7.350000	-1.782267
	7.352000	-1.733916
	7.354000	-1.685566
	7.356000	-1.650109
	7.358000	-1.659779
	7.360000	-1.679119
	7.362000	-1.727470
	7.364000	-1.788713
	7.366000	-1.814500
	7.368000	-1.814500
	7.370000	-1.779043
	7.372000	-1.733916
	7.374000	-1.682343
	7.376000	-1.653332
	7.378000	-1.650109
	7.380000	-1.688789
	7.382000	-1.733916
	7.384000	-1.782267
	7.386000	-1.811277
	7.388000	-1.817724
	7.390000	-1.785490
	7.392000	-1.730693
	7.394000	-1.685566
	7.396000	-1.650109
	7.398000	-1.653332
	7.400000	-1.685566
	7.402000	-1.737140
	7.404000	-1.782267
	7.406000	-1.811277
	7.408000	-1.817724
	7.410000	-1.782267
	7.412000	-1.737140
	7.414000	-1.682343
	7.416000	-1.653332
	7.418000	-1.653332
	7.420000	-1.682343
	7.422000	-1.733916
	7.424000	-1.779043
	7.426000	-1.814500
	7.428000	-1.811277
	7.430000	-1.785490
	7.432000	-1.737140
	7.434000	-1.682343
	7.436000	-1.646886
	7.438000	-1.650109
	7.440000	-1.682343
	7.442000	-1.727470
	7.444000	-1.782267
	7.446000	-1.811277
	7.448000	-1.817724
	7.450000	-1.782267
	7.452000	-1.737140
	7.454000	-1.685566
	7.456000	-1.650109
	7.458000	-1.653332
	7.460000	-1.688789
	7.462000	-1.733916
	7.464000	-1.791937
	7.466000	-1.811277
	7.468000	-1.817724
	7.470000	-1.785490
	7.472000	-1.737140
	7.474000	-1.685566
	7.476000	-1.653332
	7.478000	-1.653332
	7.480000	-1.679119
	7.482000	-1.730693
	7.484000	-1.779043
	7.486000	-1.814500
	7.488000	-1.817724
	7.490000	-1.775820
	7.492000	-1.730693
	7.494000	-1.688789
	7.496000	-1.653332
	7.498000	-1.650109
	7.500000	-1.682343
	7.502000	-1.733916
	7.504000	-1.785490
	7.506000	-1.814500
	7.508000	-1.814500
	7.510000	-1.785490
	7.512000	-1.737140
	7.514000	-1.682343
	7.516000	-1.656556
	7.518000	-1.656556
	7.520000	-1.679119
	7.522000	-1.730693
	7.524000	-1.785490
	7.526000	-1.814500
	7.528000	-1.811277
	7.530000	-1.791937
	7.532000	-1.737140
	7.534000	-1.688789
	7.536000	-1.656556
	7.538000	-1.659779
	7.540000	-1.679119
	7.542000	-1.733916
	7.544000	-1.788713
	7.546000	-1.817724
	7.548000	-1.817724
	7.550000	-1.788713
	7.552000	-1.740363
	7.554000	-1.682343
	7.556000	-1.656556
	7.558000	-1.650109
	7.560000	-1.675896
	7.562000	-1.733916
	7.564000	-1.779043
	7.566000	-1.811277
	7.568000	-1.814500
	7.570000	-1.785490
	7.572000	-1.733916
	7.574000	-1.685566
	7.576000	-1.659779
	7.578000	-1.650109
	7.580000	-1.682343
	7.582000	-1.737140
	7.584000	-1.779043
	7.586000	-1.811277
	7.588000	-1.817724
	7.590000	-1.785490
	7.592000	-1.737140
	7.594000	-1.685566
	7.596000	-1.653332
	7.598000	-1.650109
	7.600000	-1.688789
	7.602000	-1.724246
	7.604000	-1.785490
	7.606000	-1.820947
	7.608000	-1.811277
	7.610000	-1.788713
	7.612000	-1.740363
	7.614000	-1.685566
	7.616000	-1.650109
	7.618000	-1.646886
	7.620000	-1.679119
	7.622000	-1.730693
	7.624000	-1.785490
	7.626000	-1.817724
	7.628000	-1.820947
	7.630000	-1.785490
	7.632000	-1.737140
	7.634000	-1.685566
	7.636000	-1.656556
	7.638000	-1.653332
	7.640000	-1.682343
	7.642000	-1.730693
	7.644000	-1.779043
	7.646000	-1.817724
	7.648000	-1.827394
	7.650000	-1.788713
	7.652000	-1.737140
	7.654000	-1.692013
	7.656000	-1.653332
	7.658000	-1.650109
	7.660000	-1.675896
	7.662000	-1.730693
	7.664000	-1.779043
	7.666000	-1.814500
	7.668000	-1.817724
	7.670000	-1.791937
	7.672000	-1.740363
	7.674000	-1.688789
	7.676000	-1.653332
	7.678000	-1.650109
	7.680000	-1.682343
	7.682000	-1.727470
	7.684000	-1.779043
	7.686000	-1.814500
	7.688000	-1.814500
	7.690000	-1.788713
	7.692000	-1.740363
	7.694000	-1.685566
	7.696000	-1.653332
	7.698000	-1.646886
	7.700000	-1.679119
	7.702000	-1.730693
	7.704000	-1.782267
	7.706000	-1.814500
	7.708000	-1.817724
	7.710000	-1.791937
	7.712000	-1.740363
	7.714000	-1.692013
	7.716000	-1.650109
	7.718000	-1.653332
	7.720000	-1.682343
	7.722000	-1.727470
	7.724000	-1.782267
	7.726000	-1.814500
	7.728000	-1.817724
	7.730000	-1.788713
	7.732000	-1.743586
	7.734000	-1.688789
	7.736000	-1.653332
	7.738000	-1.653332
	7.740000	-1.679119
	7.742000	-1.730693
	7.744000	-1.782267
	7.746000	-1.817724
	7.748000	-1.814500
	7.750000	-1.795160
	7.752000	-1.737140
	7.754000	-1.688789
	7.756000	-1.653332
	7.758000	-1.650109
	7.760000	-1.679119
	7.762000	-1.733916
	7.764000	-1.779043
	7.766000	-1.817724
	7.768000	-1.814500
	7.770000	-1.788713
	7.772000	-1.740363
	7.774000	-1.688789
	7.776000	-1.653332
	7.778000	-1.646886
	7.780000	-1.685566
	7.782000	-1.727470
	7.784000	-1.785490
	7.786000	-1.814500
	7.788000	-1.824170
	7.790000	-1.788713
	7.792000	-1.743586
	7.794000	-1.685566
	7.796000	-1.656556
	7.798000	-1.646886
	7.800000	-1.675896
	7.802000	-1.727470
	7.804000	-1.782267
	7.806000	-1.817724
	7.808000	-1.820947
	7.810000	-1.785490
	7.812000	-1.750033
	7.814000	-1.688789
	7.816000	-1.653332
	7.818000	-1.656556
	7.820000	-1.675896
	7.822000	-1.727470
	7.824000	-1.779043
	7.826000	-1.814500
	7.828000	-1.820947
	7.830000	-1.788713
	7.832000	-1.743586
	7.834000	-1.688789
	7.836000	-1.653332
	7.838000	-1.653332
	7.840000	-1.675896
	7.842000	-1.727470
	7.844000	-1.779043
	7.846000	-1.814500
	7.848000	-1.817724
	7.850000	-1.788713
	7.852000	-1.740363
	7.854000	-1.685566
	7.856000	-1.656556
	7.858000	-1.653332
	7.860000	-1.679119
	7.862000	-1.730693
	7.864000	-1.782267
	7.866000	-1.814500
	7.868000	-1.820947
	7.870000	-1.791937
	7.872000	-1.740363
	7.874000	-1.688789
	7.876000	-1.653332
	7.878000	-1.656556
	7.880000	-1.679119
	7.882000	-1.730693
	7.884000	-1.779043
	7.886000	-1.814500
	7.888000	-1.817724
	7.890000	-1.785490
	7.892000	-1.740363
	7.894000	-1.692013
	7.896000	-1.653332
	7.898000	-1.650109
	7.900000	-1.675896
	7.902000	-1.727470
	7.904000	-1.775820
	7.906000	-1.817724
	7.908000	-1.820947
	7.910000	-1.788713
	7.912000	-1.743586
	7.914000	-1.688789
	7.916000	-1.653332
	7.918000	-1.650109
	7.920000	-1.675896
	7.922000	-1.724246
	7.924000	-1.775820
	7.926000	-1.814500
	7.928000	-1.820947
	7.930000	-1.791937
	7.932000	-1.737140
	7.934000	-1.688789
	7.936000	-1.650109
	7.938000	-1.653332
	7.940000	-1.679119
	7.942000	-1.727470
	7.944000	-1.775820
	7.946000	-1.817724
	7.948000	-1.820947
	7.950000	-1.791937
	7.952000	-1.740363
	7.954000	-1.688789
	7.956000	-1.656556
	7.958000	-1.646886
	7.960000	-1.675896
	7.962000	-1.724246
	7.964000	-1.769373
	7.966000	-1.811277
	7.968000	-1.817724
	7.970000	-1.788713
	7.972000	-1.743586
	7.974000	-1.692013
	7.976000	-1.653332
	7.978000	-1.653332
	7.980000	-1.675896
	7.982000	-1.724246
	7.984000	-1.775820
	7.986000	-1.814500
	7.988000	-1.817724
	7.990000	-1.788713
	7.992000	-1.737140
	7.994000	-1.695236
	7.996000	-1.656556
	7.998000	-1.646886
	8.000000	-1.672673
	8.002000	-1.727470
	8.004000	-1.779043
	8.006000	-1.811277
	8.008000	-1.811277
	8.010000	-1.791937
	8.012000	-1.737140
	8.014000	-1.688789
	8.016000	-1.656556
	8.018000	-1.646886
	8.020000	-1.675896
	8.022000	-1.724246
	8.024000	-1.775820
	8.026000	-1.811277
	8.028000	-1.814500
	8.030000	-1.788713
	8.032000	-1.743586
	8.034000	-1.688789
	8.036000	-1.650109
	8.038000	-1.653332
	8.040000	-1.675896
	8.042000	-1.727470
	8.044000	-1.775820
	8.046000	-1.814500
	8.048000	-1.817724
	8.050000	-1.788713
	8.052000	-1.740363
	8.054000	-1.695236
	8.056000	-1.653332
	8.058000	-1.650109
	8.060000	-1.672673
	8.062000	-1.727470
	8.064000	-1.785490
	8.066000	-1.817724
	8.068000	-1.817724
	8.070000	-1.788713
	8.072000	-1.743586
	8.074000	-1.685566
	8.076000	-1.653332
	8.078000	-1.650109
	8.080000	-1.672673
	8.082000	-1.721023
	8.084000	-1.779043
	8.086000	-1.814500
	8.088000	-1.817724
	8.090000	-1.791937
	8.092000	-1.746810
	8.094000	-1.692013
	8.096000	-1.653332
	8.098000	-1.643662
	8.100000	-1.675896
	8.102000	-1.721023
	8.104000	-1.779043
	8.106000	-1.811277
	8.108000	-1.817724
	8.110000	-1.788713
	8.112000	-1.740363
	8.114000	-1.692013
	8.116000	-1.653332
	8.118000	-1.653332
	8.120000	-1.669449
	8.122000	-1.721023
	8.124000	-1.779043
	8.126000	-1.814500
	8.128000	-1.820947
	8.130000	-1.791937
	8.132000	-1.743586
	8.134000	-1.688789
	8.136000	-1.653332
	8.138000	-1.646886
	8.140000	-1.675896
	8.142000	-1.727470
	8.144000	-1.772597
	8.146000	-1.817724
	8.148000	-1.817724
	8.150000	-1.788713
	8.152000	-1.746810
