2024/7/21 	 8:57:00 
 This file comes from Vt only measurement 	 1.000000E-1 
 Voltage Sensitivity 	 0.000000E+0 
 Sampling rate 	 200 
 Number of samples per channel 	 -1 
 No filter from Labview 	 	 	 
 	 
 ***End_of_Header*** 
 	 Time 	  Voltage 	 Filtered Voltage 	 
	0.000000	-0.439128
	0.005000	-0.557522
	0.010000	-0.343755
	0.015000	-0.225361
	0.020000	-0.432550
	0.025000	-0.550944
	0.030000	-0.343755
	0.035000	-0.222072
	0.040000	-0.432550
	0.045000	-0.554233
	0.050000	-0.340466
	0.055000	-0.222072
	0.060000	-0.432550
	0.065000	-0.550944
	0.070000	-0.340466
	0.075000	-0.222072
	0.080000	-0.432550
	0.085000	-0.550944
	0.090000	-0.340466
	0.095000	-0.222072
	0.100000	-0.435839
	0.105000	-0.550944
	0.110000	-0.337177
	0.115000	-0.218783
	0.120000	-0.429262
	0.125000	-0.547656
	0.130000	-0.333889
	0.135000	-0.218783
	0.140000	-0.432550
	0.145000	-0.547656
	0.150000	-0.337177
	0.155000	-0.218783
	0.160000	-0.429262
	0.165000	-0.544367
	0.170000	-0.333889
	0.175000	-0.215495
	0.180000	-0.425973
	0.185000	-0.544367
	0.190000	-0.327311
	0.195000	-0.208917
	0.200000	-0.422684
	0.205000	-0.534501
	0.210000	-0.327311
	0.215000	-0.208917
	0.220000	-0.422684
	0.225000	-0.537790
	0.230000	-0.320734
	0.235000	-0.208917
	0.240000	-0.422684
	0.245000	-0.541078
	0.250000	-0.327311
	0.255000	-0.208917
	0.260000	-0.422684
	0.265000	-0.541078
	0.270000	-0.324023
	0.275000	-0.208917
	0.280000	-0.419395
	0.285000	-0.537790
	0.290000	-0.327311
	0.295000	-0.205628
	0.300000	-0.422684
	0.305000	-0.537790
	0.310000	-0.324023
	0.315000	-0.208917
	0.320000	-0.425973
	0.325000	-0.537790
	0.330000	-0.327311
	0.335000	-0.208917
	0.340000	-0.419395
	0.345000	-0.534501
	0.350000	-0.327311
	0.355000	-0.205628
	0.360000	-0.419395
	0.365000	-0.534501
	0.370000	-0.320734
	0.375000	-0.205628
	0.380000	-0.419395
	0.385000	-0.537790
	0.390000	-0.320734
	0.395000	-0.202340
	0.400000	-0.422684
	0.405000	-0.534501
	0.410000	-0.317445
	0.415000	-0.202340
	0.420000	-0.422684
	0.425000	-0.534501
	0.430000	-0.320734
	0.435000	-0.208917
	0.440000	-0.422684
	0.445000	-0.534501
	0.450000	-0.324023
	0.455000	-0.208917
	0.460000	-0.429262
	0.465000	-0.534501
	0.470000	-0.320734
	0.475000	-0.208917
	0.480000	-0.425973
	0.485000	-0.534501
	0.490000	-0.324023
	0.495000	-0.215495
	0.500000	-0.422684
	0.505000	-0.541078
	0.510000	-0.320734
	0.515000	-0.208917
	0.520000	-0.422684
	0.525000	-0.534501
	0.530000	-0.320734
	0.535000	-0.205628
	0.540000	-0.422684
	0.545000	-0.531212
	0.550000	-0.314156
	0.555000	-0.205628
	0.560000	-0.419395
	0.565000	-0.531212
	0.570000	-0.314156
	0.575000	-0.199051
	0.580000	-0.419395
	0.585000	-0.527923
	0.590000	-0.310868
	0.595000	-0.202340
	0.600000	-0.422684
	0.605000	-0.531212
	0.610000	-0.314156
	0.615000	-0.202340
	0.620000	-0.422684
	0.625000	-0.531212
	0.630000	-0.317445
	0.635000	-0.205628
	0.640000	-0.422684
	0.645000	-0.527923
	0.650000	-0.317445
	0.655000	-0.202340
	0.660000	-0.422684
	0.665000	-0.531212
	0.670000	-0.314156
	0.675000	-0.205628
	0.680000	-0.419395
	0.685000	-0.527923
	0.690000	-0.314156
	0.695000	-0.205628
	0.700000	-0.416107
	0.705000	-0.527923
	0.710000	-0.314156
	0.715000	-0.205628
	0.720000	-0.419395
	0.725000	-0.527923
	0.730000	-0.310868
	0.735000	-0.199051
	0.740000	-0.416107
	0.745000	-0.521346
	0.750000	-0.307579
	0.755000	-0.202340
	0.760000	-0.419395
	0.765000	-0.527923
	0.770000	-0.310868
	0.775000	-0.192474
	0.780000	-0.419395
	0.785000	-0.521346
	0.790000	-0.310868
	0.795000	-0.199051
	0.800000	-0.416107
	0.805000	-0.524635
	0.810000	-0.310868
	0.815000	-0.199051
	0.820000	-0.416107
	0.825000	-0.524635
	0.830000	-0.307579
	0.835000	-0.199051
	0.840000	-0.412818
	0.845000	-0.521346
	0.850000	-0.310868
	0.855000	-0.199051
	0.860000	-0.416107
	0.865000	-0.524635
	0.870000	-0.307579
	0.875000	-0.199051
	0.880000	-0.412818
	0.885000	-0.518057
	0.890000	-0.307579
	0.895000	-0.195762
	0.900000	-0.412818
	0.905000	-0.514768
	0.910000	-0.307579
	0.915000	-0.195762
	0.920000	-0.409529
	0.925000	-0.514768
	0.930000	-0.304290
	0.935000	-0.195762
	0.940000	-0.406241
	0.945000	-0.511480
	0.950000	-0.304290
	0.955000	-0.195762
	0.960000	-0.402952
	0.965000	-0.508191
	0.970000	-0.304290
	0.975000	-0.199051
	0.980000	-0.402952
	0.985000	-0.508191
	0.990000	-0.307579
	0.995000	-0.199051
	1.000000	-0.376642
	1.005000	-0.481881
	1.010000	-0.307579
	1.015000	-0.212206
	1.020000	-0.383220
	1.025000	-0.485170
	1.030000	-0.317445
	1.035000	-0.238516
	1.040000	-0.360198
	1.045000	-0.412818
	1.050000	-0.268114
	1.055000	-0.205628
	1.060000	-0.340466
	1.065000	-0.399663
	1.070000	-0.258248
	1.075000	-0.202340
	1.080000	-0.337177
	1.085000	-0.393086
	1.090000	-0.254959
	1.095000	-0.195762
	1.100000	-0.330600
	1.105000	-0.386508
	1.110000	-0.248382
	1.115000	-0.195762
	1.120000	-0.327311
	1.125000	-0.383220
	1.130000	-0.238516
	1.135000	-0.185896
	1.140000	-0.327311
	1.145000	-0.383220
	1.150000	-0.238516
	1.155000	-0.189185
	1.160000	-0.327311
	1.165000	-0.379931
	1.170000	-0.238516
	1.175000	-0.185896
	1.180000	-0.330600
	1.185000	-0.383220
	1.190000	-0.238516
	1.195000	-0.189185
	1.200000	-0.330600
	1.205000	-0.379931
	1.210000	-0.238516
	1.215000	-0.192474
	1.220000	-0.327311
	1.225000	-0.383220
	1.230000	-0.238516
	1.235000	-0.185896
	1.240000	-0.324023
	1.245000	-0.389797
	1.250000	-0.248382
	1.255000	-0.182607
	1.260000	-0.330600
	1.265000	-0.402952
	1.270000	-0.254959
	1.275000	-0.185896
	1.280000	-0.340466
	1.285000	-0.402952
	1.290000	-0.254959
	1.295000	-0.192474
	1.300000	-0.337177
	1.305000	-0.402952
	1.310000	-0.258248
	1.315000	-0.189185
	1.320000	-0.340466
	1.325000	-0.402952
	1.330000	-0.254959
	1.335000	-0.192474
	1.340000	-0.333889
	1.345000	-0.399663
	1.350000	-0.254959
	1.355000	-0.189185
	1.360000	-0.333889
	1.365000	-0.399663
	1.370000	-0.251671
	1.375000	-0.185896
	1.380000	-0.333889
	1.385000	-0.399663
	1.390000	-0.245093
	1.395000	-0.166164
	1.400000	-0.324023
	1.405000	-0.396374
	1.410000	-0.245093
	1.415000	-0.182607
	1.420000	-0.333889
	1.425000	-0.396374
	1.430000	-0.248382
	1.435000	-0.169453
	1.440000	-0.350332
	1.445000	-0.432550
	1.450000	-0.294424
	1.455000	-0.238516
	1.460000	-0.370065
	1.465000	-0.409529
	1.470000	-0.261537
	1.475000	-0.205628
	1.480000	-0.340466
	1.485000	-0.383220
	1.490000	-0.235227
	1.495000	-0.182607
	1.500000	-0.324023
	1.505000	-0.366776
	1.510000	-0.228650
	1.515000	-0.179319
	1.520000	-0.317445
	1.525000	-0.363487
	1.530000	-0.222072
	1.535000	-0.172741
	1.540000	-0.310868
	1.545000	-0.356910
	1.550000	-0.215495
	1.555000	-0.166164
	1.560000	-0.307579
	1.565000	-0.353621
	1.570000	-0.215495
	1.575000	-0.162875
	1.580000	-0.304290
	1.585000	-0.353621
	1.590000	-0.212206
	1.595000	-0.159586
	1.600000	-0.301001
	1.605000	-0.347044
	1.610000	-0.208917
	1.615000	-0.159586
	1.620000	-0.294424
	1.625000	-0.340466
	1.630000	-0.205628
	1.635000	-0.156298
	1.640000	-0.294424
	1.645000	-0.347044
	1.650000	-0.208917
	1.655000	-0.159586
	1.660000	-0.297713
	1.665000	-0.340466
	1.670000	-0.205628
	1.675000	-0.159586
	1.680000	-0.294424
	1.685000	-0.340466
	1.690000	-0.205628
	1.695000	-0.149720
	1.700000	-0.294424
	1.705000	-0.337177
	1.710000	-0.199051
	1.715000	-0.146431
	1.720000	-0.287847
	1.725000	-0.330600
	1.730000	-0.189185
	1.735000	-0.139854
	1.740000	-0.284558
	1.745000	-0.327311
	1.750000	-0.189185
	1.755000	-0.133277
	1.760000	-0.287847
	1.765000	-0.327311
	1.770000	-0.185896
	1.775000	-0.136565
	1.780000	-0.284558
	1.785000	-0.330600
	1.790000	-0.153009
	1.795000	-0.080657
	1.800000	-0.324023
	1.805000	-0.429262
	1.810000	-0.215495
	1.815000	-0.126699
	1.820000	-0.356910
	1.825000	-0.448994
	1.830000	-0.228650
	1.835000	-0.139854
	1.840000	-0.363487
	1.845000	-0.452283
	1.850000	-0.231938
	1.855000	-0.133277
	1.860000	-0.363487
	1.865000	-0.452283
	1.870000	-0.225361
	1.875000	-0.129988
	1.880000	-0.356910
	1.885000	-0.448994
	1.890000	-0.218783
	1.895000	-0.129988
	1.900000	-0.350332
	1.905000	-0.442417
	1.910000	-0.212206
	1.915000	-0.129988
	1.920000	-0.353621
	1.925000	-0.442417
	1.930000	-0.215495
	1.935000	-0.129988
	1.940000	-0.360198
	1.945000	-0.452283
	1.950000	-0.222072
	1.955000	-0.136565
	1.960000	-0.363487
	1.965000	-0.455571
	1.970000	-0.235227
	1.975000	-0.143143
	1.980000	-0.376642
	1.985000	-0.462149
	1.990000	-0.241804
	1.995000	-0.153009
	2.000000	-0.379931
	2.005000	-0.472015
	2.010000	-0.248382
	2.015000	-0.156298
	2.020000	-0.383220
	2.025000	-0.475304
	2.030000	-0.245093
	2.035000	-0.146431
	2.040000	-0.376642
	2.045000	-0.462149
	2.050000	-0.235227
	2.055000	-0.146431
	2.060000	-0.370065
	2.065000	-0.455571
	2.070000	-0.222072
	2.075000	-0.136565
	2.080000	-0.356910
	2.085000	-0.445705
	2.090000	-0.215495
	2.095000	-0.126699
	2.100000	-0.356910
	2.105000	-0.442417
	2.110000	-0.218783
	2.115000	-0.123410
	2.120000	-0.356910
	2.125000	-0.445705
	2.130000	-0.215495
	2.135000	-0.133277
	2.140000	-0.360198
	2.145000	-0.448994
	2.150000	-0.225361
	2.155000	-0.139854
	2.160000	-0.370065
	2.165000	-0.455571
	2.170000	-0.231938
	2.175000	-0.143143
	2.180000	-0.373353
	2.185000	-0.458860
	2.190000	-0.228650
	2.195000	-0.143143
	2.200000	-0.373353
	2.205000	-0.462149
	2.210000	-0.231938
	2.215000	-0.146431
	2.220000	-0.373353
	2.225000	-0.455571
	2.230000	-0.231938
	2.235000	-0.139854
	2.240000	-0.366776
	2.245000	-0.455571
	2.250000	-0.228650
	2.255000	-0.136565
	2.260000	-0.363487
	2.265000	-0.452283
	2.270000	-0.228650
	2.275000	-0.136565
	2.280000	-0.366776
	2.285000	-0.452283
	2.290000	-0.218783
	2.295000	-0.136565
	2.300000	-0.363487
	2.305000	-0.448994
	2.310000	-0.225361
	2.315000	-0.133277
	2.320000	-0.366776
	2.325000	-0.452283
	2.330000	-0.222072
	2.335000	-0.133277
	2.340000	-0.370065
	2.345000	-0.448994
	2.350000	-0.222072
	2.355000	-0.139854
	2.360000	-0.366776
	2.365000	-0.448994
	2.370000	-0.218783
	2.375000	-0.133277
	2.380000	-0.363487
	2.385000	-0.452283
	2.390000	-0.218783
	2.395000	-0.129988
	2.400000	-0.363487
	2.405000	-0.448994
	2.410000	-0.218783
	2.415000	-0.133277
	2.420000	-0.360198
	2.425000	-0.448994
	2.430000	-0.215495
	2.435000	-0.133277
	2.440000	-0.356910
	2.445000	-0.445705
	2.450000	-0.218783
	2.455000	-0.126699
	2.460000	-0.360198
	2.465000	-0.445705
	2.470000	-0.222072
	2.475000	-0.129988
	2.480000	-0.356910
	2.485000	-0.439128
	2.490000	-0.215495
	2.495000	-0.129988
	2.500000	-0.350332
	2.505000	-0.442417
	2.510000	-0.218783
	2.515000	-0.129988
	2.520000	-0.356910
	2.525000	-0.435839
	2.530000	-0.218783
	2.535000	-0.133277
	2.540000	-0.350332
	2.545000	-0.435839
	2.550000	-0.218783
	2.555000	-0.129988
	2.560000	-0.343755
	2.565000	-0.429262
	2.570000	-0.218783
	2.575000	-0.133277
	2.580000	-0.340466
	2.585000	-0.425973
	2.590000	-0.225361
	2.595000	-0.136565
	2.600000	-0.324023
	2.605000	-0.402952
	2.610000	-0.271403
	2.615000	-0.218783
	2.620000	-0.360198
	2.625000	-0.383220
	2.630000	-0.235227
	2.635000	-0.185896
	2.640000	-0.324023
	2.645000	-0.353621
	2.650000	-0.202340
	2.655000	-0.162875
	2.660000	-0.294424
	2.665000	-0.333889
	2.670000	-0.189185
	2.675000	-0.143143
	2.680000	-0.284558
	2.685000	-0.324023
	2.690000	-0.179319
	2.695000	-0.136565
	2.700000	-0.277980
	2.705000	-0.320734
	2.710000	-0.172741
	2.715000	-0.133277
	2.720000	-0.274692
	2.725000	-0.317445
	2.730000	-0.172741
	2.735000	-0.133277
	2.740000	-0.277980
	2.745000	-0.310868
	2.750000	-0.172741
	2.755000	-0.126699
	2.760000	-0.268114
	2.765000	-0.310868
	2.770000	-0.166164
	2.775000	-0.126699
	2.780000	-0.264826
	2.785000	-0.301001
	2.790000	-0.156298
	2.795000	-0.120122
	2.800000	-0.264826
	2.805000	-0.297713
	2.810000	-0.153009
	2.815000	-0.123410
	2.820000	-0.258248
	2.825000	-0.294424
	2.830000	-0.156298
	2.835000	-0.116833
	2.840000	-0.254959
	2.845000	-0.291135
	2.850000	-0.146431
	2.855000	-0.113544
	2.860000	-0.264826
	2.865000	-0.297713
	2.870000	-0.097101
	2.875000	-0.034615
	2.880000	-0.274692
	2.885000	-0.373353
	2.890000	-0.159586
	2.895000	-0.087234
	2.900000	-0.317445
	2.905000	-0.402952
	2.910000	-0.185896
	2.915000	-0.100389
	2.920000	-0.327311
	2.925000	-0.409529
	2.930000	-0.189185
	2.935000	-0.106967
	2.940000	-0.333889
	2.945000	-0.412818
	2.950000	-0.189185
	2.955000	-0.113544
	2.960000	-0.330600
	2.965000	-0.409529
	2.970000	-0.192474
	2.975000	-0.100389
	2.980000	-0.320734
	2.985000	-0.406241
	2.990000	-0.185896
	2.995000	-0.103678
	3.000000	-0.327311
	3.005000	-0.402952
	3.010000	-0.179319
	3.015000	-0.100389
	3.020000	-0.324023
	3.025000	-0.409529
	3.030000	-0.176030
	3.035000	-0.097101
	3.040000	-0.320734
	3.045000	-0.402952
	3.050000	-0.176030
	3.055000	-0.097101
	3.060000	-0.327311
	3.065000	-0.399663
	3.070000	-0.172741
	3.075000	-0.093812
	3.080000	-0.327311
	3.085000	-0.409529
	3.090000	-0.179319
	3.095000	-0.106967
	3.100000	-0.330600
	3.105000	-0.412818
	3.110000	-0.185896
	3.115000	-0.110256
	3.120000	-0.340466
	3.125000	-0.416107
	3.130000	-0.192474
	3.135000	-0.113544
	3.140000	-0.343755
	3.145000	-0.422684
	3.150000	-0.189185
	3.155000	-0.113544
	3.160000	-0.340466
	3.165000	-0.416107
	3.170000	-0.185896
	3.175000	-0.106967
	3.180000	-0.330600
	3.185000	-0.409529
	3.190000	-0.179319
	3.195000	-0.097101
	3.200000	-0.324023
	3.205000	-0.399663
	3.210000	-0.169453
	3.215000	-0.090523
	3.220000	-0.324023
	3.225000	-0.396374
	3.230000	-0.162875
	3.235000	-0.093812
	3.240000	-0.314156
	3.245000	-0.396374
	3.250000	-0.162875
	3.255000	-0.087234
	3.260000	-0.324023
	3.265000	-0.399663
	3.270000	-0.169453
	3.275000	-0.093812
	3.280000	-0.324023
	3.285000	-0.402952
	3.290000	-0.179319
	3.295000	-0.106967
	3.300000	-0.337177
	3.305000	-0.416107
	3.310000	-0.185896
	3.315000	-0.116833
	3.320000	-0.343755
	3.325000	-0.419395
	3.330000	-0.195762
	3.335000	-0.113544
	3.340000	-0.343755
	3.345000	-0.422684
	3.350000	-0.192474
	3.355000	-0.113544
	3.360000	-0.340466
	3.365000	-0.416107
	3.370000	-0.185896
	3.375000	-0.106967
	3.380000	-0.333889
	3.385000	-0.409529
	3.390000	-0.176030
	3.395000	-0.097101
	3.400000	-0.330600
	3.405000	-0.399663
	3.410000	-0.172741
	3.415000	-0.093812
	3.420000	-0.324023
	3.425000	-0.396374
	3.430000	-0.166164
	3.435000	-0.090523
	3.440000	-0.320734
	3.445000	-0.389797
	3.450000	-0.169453
	3.455000	-0.097101
	3.460000	-0.320734
	3.465000	-0.396374
	3.470000	-0.172741
	3.475000	-0.097101
	3.480000	-0.330600
	3.485000	-0.402952
	3.490000	-0.169453
	3.495000	-0.103678
	3.500000	-0.327311
	3.505000	-0.402952
	3.510000	-0.172741
	3.515000	-0.100389
	3.520000	-0.330600
	3.525000	-0.402952
	3.530000	-0.176030
	3.535000	-0.103678
	3.540000	-0.330600
	3.545000	-0.402952
	3.550000	-0.182607
	3.555000	-0.106967
	3.560000	-0.330600
	3.565000	-0.406241
	3.570000	-0.176030
	3.575000	-0.100389
	3.580000	-0.327311
	3.585000	-0.402952
	3.590000	-0.172741
	3.595000	-0.097101
	3.600000	-0.327311
	3.605000	-0.396374
	3.610000	-0.176030
	3.615000	-0.097101
	3.620000	-0.327311
	3.625000	-0.399663
	3.630000	-0.169453
	3.635000	-0.097101
	3.640000	-0.320734
	3.645000	-0.396374
	3.650000	-0.172741
	3.655000	-0.093812
	3.660000	-0.324023
	3.665000	-0.396374
	3.670000	-0.172741
	3.675000	-0.097101
	3.680000	-0.330600
	3.685000	-0.396374
	3.690000	-0.172741
	3.695000	-0.100389
	3.700000	-0.327311
	3.705000	-0.402952
	3.710000	-0.169453
	3.715000	-0.100389
	3.720000	-0.330600
	3.725000	-0.396374
	3.730000	-0.169453
	3.735000	-0.093812
	3.740000	-0.324023
	3.745000	-0.396374
	3.750000	-0.166164
	3.755000	-0.097101
	3.760000	-0.320734
	3.765000	-0.396374
	3.770000	-0.169453
	3.775000	-0.090523
	3.780000	-0.320734
	3.785000	-0.396374
	3.790000	-0.169453
	3.795000	-0.093812
	3.800000	-0.320734
	3.805000	-0.389797
	3.810000	-0.169453
	3.815000	-0.093812
	3.820000	-0.320734
	3.825000	-0.393086
	3.830000	-0.162875
	3.835000	-0.093812
	3.840000	-0.317445
	3.845000	-0.396374
	3.850000	-0.162875
	3.855000	-0.093812
	3.860000	-0.314156
	3.865000	-0.383220
	3.870000	-0.162875
	3.875000	-0.093812
	3.880000	-0.317445
	3.885000	-0.389797
	3.890000	-0.166164
	3.895000	-0.090523
	3.900000	-0.314156
	3.905000	-0.386508
	3.910000	-0.162875
	3.915000	-0.090523
	3.920000	-0.317445
	3.925000	-0.389797
	3.930000	-0.166164
	3.935000	-0.090523
	3.940000	-0.314156
	3.945000	-0.389797
	3.950000	-0.159586
	3.955000	-0.087234
	3.960000	-0.317445
	3.965000	-0.386508
	3.970000	-0.162875
	3.975000	-0.090523
	3.980000	-0.314156
	3.985000	-0.389797
	3.990000	-0.159586
	3.995000	-0.090523
	4.000000	-0.314156
	4.005000	-0.386508
	4.010000	-0.159586
	4.015000	-0.087234
	4.020000	-0.310868
	4.025000	-0.383220
	4.030000	-0.159586
	4.035000	-0.083946
	4.040000	-0.307579
	4.045000	-0.379931
	4.050000	-0.159586
	4.055000	-0.083946
	4.060000	-0.304290
	4.065000	-0.370065
	4.070000	-0.156298
	4.075000	-0.083946
	4.080000	-0.301001
	4.085000	-0.376642
	4.090000	-0.159586
	4.095000	-0.080657
	4.100000	-0.294424
	4.105000	-0.363487
	4.110000	-0.156298
	4.115000	-0.080657
	4.120000	-0.301001
	4.125000	-0.370065
	4.130000	-0.153009
	4.135000	-0.083946
	4.140000	-0.301001
	4.145000	-0.373353
	4.150000	-0.156298
	4.155000	-0.083946
	4.160000	-0.297713
	4.165000	-0.373353
	4.170000	-0.149720
	4.175000	-0.080657
	4.180000	-0.304290
	4.185000	-0.373353
	4.190000	-0.156298
	4.195000	-0.083946
	4.200000	-0.304290
	4.205000	-0.376642
	4.210000	-0.153009
	4.215000	-0.083946
	4.220000	-0.304290
	4.225000	-0.373353
	4.230000	-0.149720
	4.235000	-0.083946
	4.240000	-0.304290
	4.245000	-0.373353
	4.250000	-0.149720
	4.255000	-0.077368
	4.260000	-0.304290
	4.265000	-0.373353
	4.270000	-0.149720
	4.275000	-0.083946
	4.280000	-0.287847
	4.285000	-0.366776
	4.290000	-0.228650
	4.295000	-0.195762
	4.300000	-0.327311
	4.305000	-0.340466
	4.310000	-0.189185
	4.315000	-0.146431
	4.320000	-0.287847
	4.325000	-0.297713
	4.330000	-0.146431
	4.335000	-0.113544
	4.340000	-0.251671
	4.345000	-0.274692
	4.350000	-0.129988
	4.355000	-0.093812
	4.360000	-0.238516
	4.365000	-0.268114
	4.370000	-0.123410
	4.375000	-0.093812
	4.380000	-0.238516
	4.385000	-0.264826
	4.390000	-0.120122
	4.395000	-0.083946
	4.400000	-0.235227
	4.405000	-0.274692
	4.410000	-0.064213
	4.415000	-0.018171
	4.420000	-0.258248
	4.425000	-0.340466
	4.430000	-0.116833
	4.435000	-0.054347
	4.440000	-0.291135
	4.445000	-0.363487
	4.450000	-0.136565
	4.455000	-0.067502
	4.460000	-0.301001
	4.465000	-0.366776
	4.470000	-0.129988
	4.475000	-0.070791
	4.480000	-0.297713
	4.485000	-0.360198
	4.490000	-0.129988
	4.495000	-0.067502
	4.500000	-0.297713
	4.505000	-0.363487
	4.510000	-0.129988
	4.515000	-0.060925
	4.520000	-0.294424
	4.525000	-0.356910
	4.530000	-0.120122
	4.535000	-0.054347
	4.540000	-0.294424
	4.545000	-0.356910
	4.550000	-0.120122
	4.555000	-0.057636
	4.560000	-0.291135
	4.565000	-0.356910
	4.570000	-0.123410
	4.575000	-0.057636
	4.580000	-0.294424
	4.585000	-0.363487
	4.590000	-0.129988
	4.595000	-0.067502
	4.600000	-0.301001
	4.605000	-0.366776
	4.610000	-0.136565
	4.615000	-0.074080
	4.620000	-0.307579
	4.625000	-0.370065
	4.630000	-0.133277
	4.635000	-0.070791
	4.640000	-0.304290
	4.645000	-0.366776
	4.650000	-0.133277
	4.655000	-0.067502
	4.660000	-0.301001
	4.665000	-0.356910
	4.670000	-0.120122
	4.675000	-0.054347
	4.680000	-0.284558
	4.685000	-0.347044
	4.690000	-0.113544
	4.695000	-0.051059
	4.700000	-0.277980
	4.705000	-0.340466
	4.710000	-0.106967
	4.715000	-0.044481
	4.720000	-0.274692
	4.725000	-0.340466
	4.730000	-0.100389
	4.735000	-0.041192
	4.740000	-0.281269
	4.745000	-0.337177
	4.750000	-0.106967
	4.755000	-0.047770
	4.760000	-0.277980
	4.765000	-0.343755
	4.770000	-0.113544
	4.775000	-0.051059
	4.780000	-0.291135
	4.785000	-0.353621
	4.790000	-0.120122
	4.795000	-0.057636
	4.800000	-0.294424
	4.805000	-0.356910
	4.810000	-0.123410
	4.815000	-0.064213
	4.820000	-0.294424
	4.825000	-0.350332
	4.830000	-0.120122
	4.835000	-0.057636
	4.840000	-0.284558
	4.845000	-0.340466
	4.850000	-0.106967
	4.855000	-0.044481
	4.860000	-0.277980
	4.865000	-0.337177
	4.870000	-0.103678
	4.875000	-0.041192
	4.880000	-0.271403
	4.885000	-0.333889
	4.890000	-0.097101
	4.895000	-0.028037
	4.900000	-0.261537
	4.905000	-0.324023
	4.910000	-0.093812
	4.915000	-0.028037
	4.920000	-0.258248
	4.925000	-0.320734
	4.930000	-0.097101
	4.935000	-0.031326
	4.940000	-0.264826
	4.945000	-0.327311
	4.950000	-0.097101
	4.955000	-0.034615
	4.960000	-0.271403
	4.965000	-0.330600
	4.970000	-0.103678
	4.975000	-0.037904
	4.980000	-0.274692
	4.985000	-0.333889
	4.990000	-0.106967
	4.995000	-0.044481
	5.000000	-0.277980
	5.005000	-0.337177
	5.010000	-0.113544
	5.015000	-0.047770
	5.020000	-0.274692
	5.025000	-0.333889
	5.030000	-0.106967
	5.035000	-0.044481
	5.040000	-0.271403
	5.045000	-0.330600
	5.050000	-0.100389
	5.055000	-0.041192
	5.060000	-0.268114
	5.065000	-0.320734
	5.070000	-0.103678
	5.075000	-0.037904
	5.080000	-0.261537
	5.085000	-0.324023
	5.090000	-0.093812
	5.095000	-0.031326
	5.100000	-0.258248
	5.105000	-0.310868
	5.110000	-0.090523
	5.115000	-0.028037
	5.120000	-0.258248
	5.125000	-0.314156
	5.130000	-0.093812
	5.135000	-0.028037
	5.140000	-0.251671
	5.145000	-0.314156
	5.150000	-0.093812
	5.155000	-0.028037
	5.160000	-0.254959
	5.165000	-0.317445
	5.170000	-0.093812
	5.175000	-0.031326
	5.180000	-0.254959
	5.185000	-0.317445
	5.190000	-0.093812
	5.195000	-0.034615
	5.200000	-0.258248
	5.205000	-0.320734
	5.210000	-0.093812
	5.215000	-0.034615
	5.220000	-0.258248
	5.225000	-0.314156
	5.230000	-0.097101
	5.235000	-0.034615
	5.240000	-0.251671
	5.245000	-0.317445
	5.250000	-0.093812
	5.255000	-0.031326
	5.260000	-0.251671
	5.265000	-0.314156
	5.270000	-0.093812
	5.275000	-0.031326
	5.280000	-0.251671
	5.285000	-0.310868
	5.290000	-0.090523
	5.295000	-0.028037
	5.300000	-0.251671
	5.305000	-0.307579
	5.310000	-0.090523
	5.315000	-0.028037
	5.320000	-0.251671
	5.325000	-0.304290
	5.330000	-0.083946
	5.335000	-0.024749
	5.340000	-0.245093
	5.345000	-0.307579
	5.350000	-0.083946
	5.355000	-0.024749
	5.360000	-0.245093
	5.365000	-0.304290
	5.370000	-0.087234
	5.375000	-0.028037
	5.380000	-0.245093
	5.385000	-0.304290
	5.390000	-0.090523
	5.395000	-0.018171
	5.400000	-0.169453
	5.405000	-0.205628
	5.410000	-0.060925
	5.415000	-0.041192
	5.420000	-0.182607
	5.425000	-0.208917
	5.430000	-0.057636
	5.435000	-0.031326
	5.440000	-0.176030
	5.445000	-0.199051
	5.450000	-0.057636
	5.455000	-0.028037
	5.460000	-0.172741
	5.465000	-0.202340
	5.470000	-0.047770
	5.475000	-0.024749
	5.480000	-0.172741
	5.485000	-0.192474
	5.490000	-0.044481
	5.495000	-0.018171
	5.500000	-0.162875
	5.505000	-0.189185
	5.510000	-0.044481
	5.515000	-0.014883
	5.520000	-0.159586
	5.525000	-0.189185
	5.530000	-0.041192
	5.535000	-0.011594
	5.540000	-0.159586
	5.545000	-0.185896
	5.550000	-0.041192
	5.555000	-0.011594
	5.560000	-0.159586
	5.565000	-0.182607
	5.570000	-0.041192
	5.575000	-0.008305
	5.580000	-0.159586
	5.585000	-0.189185
	5.590000	-0.037904
	5.595000	-0.011594
	5.600000	-0.156298
	5.605000	-0.182607
	5.610000	-0.037904
	5.615000	-0.008305
	5.620000	-0.153009
	5.625000	-0.176030
	5.630000	-0.037904
	5.635000	-0.005016
	5.640000	-0.156298
	5.645000	-0.179319
	5.650000	-0.034615
	5.655000	-0.005016
	5.660000	-0.153009
	5.665000	-0.179319
	5.670000	-0.028037
	5.675000	-0.001728
	5.680000	-0.149720
	5.685000	-0.176030
	5.690000	-0.028037
	5.695000	0.001561
	5.700000	-0.146431
	5.705000	-0.172741
	5.710000	-0.024749
	5.715000	-0.001728
	5.720000	-0.143143
	5.725000	-0.169453
	5.730000	-0.024749
	5.735000	0.001561
	5.740000	-0.143143
	5.745000	-0.169453
	5.750000	-0.021460
	5.755000	0.001561
	5.760000	-0.143143
	5.765000	-0.169453
	5.770000	-0.024749
	5.775000	0.008138
	5.780000	-0.146431
	5.785000	-0.172741
	5.790000	-0.021460
	5.795000	0.004850
	5.800000	-0.139854
	5.805000	-0.169453
	5.810000	-0.024749
	5.815000	0.004850
	5.820000	-0.146431
	5.825000	-0.169453
	5.830000	-0.021460
	5.835000	0.004850
	5.840000	-0.139854
	5.845000	-0.169453
	5.850000	-0.014883
	5.855000	0.004850
	5.860000	-0.139854
	5.865000	-0.162875
	5.870000	-0.014883
	5.875000	0.014716
	5.880000	-0.136565
	5.885000	-0.159586
	5.890000	-0.011594
	5.895000	0.011427
	5.900000	-0.133277
	5.905000	-0.159586
	5.910000	-0.011594
	5.915000	0.014716
	5.920000	-0.129988
	5.925000	-0.156298
	5.930000	-0.011594
	5.935000	0.014716
	5.940000	-0.136565
	5.945000	-0.156298
	5.950000	-0.014883
	5.955000	0.011427
	5.960000	-0.133277
	5.965000	-0.156298
	5.970000	-0.011594
	5.975000	0.014716
	5.980000	-0.126699
	5.985000	-0.153009
	5.990000	-0.008305
	5.995000	0.014716
	6.000000	-0.133277
	6.005000	-0.146431
	6.010000	-0.008305
	6.015000	0.018005
	6.020000	-0.129988
	6.025000	-0.149720
	6.030000	-0.005016
	6.035000	0.018005
	6.040000	-0.126699
	6.045000	-0.146431
	6.050000	-0.005016
	6.055000	0.011427
	6.060000	-0.129988
	6.065000	-0.153009
	6.070000	-0.011594
	6.075000	0.014716
	6.080000	-0.129988
	6.085000	-0.153009
	6.090000	-0.008305
	6.095000	0.011427
	6.100000	-0.133277
	6.105000	-0.156298
	6.110000	-0.014883
	6.115000	0.011427
	6.120000	-0.133277
	6.125000	-0.156298
	6.130000	-0.014883
	6.135000	0.011427
	6.140000	-0.136565
	6.145000	-0.156298
	6.150000	-0.011594
	6.155000	0.011427
	6.160000	-0.133277
	6.165000	-0.153009
	6.170000	-0.011594
	6.175000	0.014716
	6.180000	-0.129988
	6.185000	-0.153009
	6.190000	-0.008305
	6.195000	0.018005
	6.200000	-0.129988
	6.205000	-0.143143
	6.210000	0.001561
	6.215000	0.024582
	6.220000	-0.116833
	6.225000	-0.139854
	6.230000	0.008138
	6.235000	0.034448
	6.240000	-0.110256
	6.245000	-0.129988
	6.250000	0.011427
	6.255000	0.037737
	6.260000	-0.106967
	6.265000	-0.129988
	6.270000	0.008138
	6.275000	0.037737
	6.280000	-0.110256
	6.285000	-0.133277
	6.290000	0.004850
	6.295000	0.027871
	6.300000	-0.120122
	6.305000	-0.139854
	6.310000	0.001561
	6.315000	0.024582
	6.320000	-0.120122
	6.325000	-0.146431
	6.330000	-0.001728
	6.335000	0.018005
	6.340000	-0.126699
	6.345000	-0.149720
	6.350000	-0.005016
	6.355000	0.018005
	6.360000	-0.126699
	6.365000	-0.139854
	6.370000	-0.001728
	6.375000	0.027871
	6.380000	-0.116833
	6.385000	-0.136565
	6.390000	0.011427
	6.395000	0.034448
	6.400000	-0.113544
	6.405000	-0.126699
	6.410000	0.018005
	6.415000	0.041026
	6.420000	-0.103678
	6.425000	-0.123410
	6.430000	0.021293
	6.435000	0.047603
	6.440000	-0.103678
	6.445000	-0.123410
	6.450000	0.024582
	6.455000	0.041026
	6.460000	-0.100389
	6.465000	-0.126699
	6.470000	0.014716
	6.475000	0.037737
	6.480000	-0.110256
	6.485000	-0.133277
	6.490000	0.008138
	6.495000	0.027871
	6.500000	-0.113544
	6.505000	-0.139854
	6.510000	0.008138
	6.515000	0.024582
	6.520000	-0.120122
	6.525000	-0.143143
	6.530000	0.004850
	6.535000	0.027871
	6.540000	-0.113544
	6.545000	-0.139854
	6.550000	0.011427
	6.555000	0.034448
	6.560000	-0.110256
	6.565000	-0.133277
	6.570000	0.011427
	6.575000	0.037737
	6.580000	-0.106967
	6.585000	-0.129988
	6.590000	0.024582
	6.595000	0.047603
	6.600000	-0.097101
	6.605000	-0.120122
	6.610000	0.021293
	6.615000	0.050892
	6.620000	-0.093812
	6.625000	-0.120122
	6.630000	0.027871
	6.635000	0.050892
	6.640000	-0.097101
	6.645000	-0.120122
	6.650000	0.018005
	6.655000	0.047603
	6.660000	-0.103678
	6.665000	-0.126699
	6.670000	0.021293
	6.675000	0.041026
	6.680000	-0.106967
	6.685000	-0.129988
	6.690000	0.014716
	6.695000	0.037737
	6.700000	-0.110256
	6.705000	-0.133277
	6.710000	0.011427
	6.715000	0.037737
	6.720000	-0.110256
	6.725000	-0.133277
	6.730000	0.014716
	6.735000	0.037737
	6.740000	-0.110256
	6.745000	-0.133277
	6.750000	0.011427
	6.755000	0.037737
	6.760000	-0.110256
	6.765000	-0.126699
	6.770000	0.018005
	6.775000	0.044314
	6.780000	-0.106967
	6.785000	-0.126699
	6.790000	0.014716
	6.795000	0.037737
	6.800000	-0.106967
	6.805000	-0.126699
	6.810000	0.021293
	6.815000	0.044314
	6.820000	-0.110256
	6.825000	-0.126699
	6.830000	0.021293
	6.835000	0.041026
	6.840000	-0.103678
	6.845000	-0.123410
	6.850000	0.018005
	6.855000	0.041026
	6.860000	-0.097101
	6.865000	-0.126699
	6.870000	0.021293
	6.875000	0.047603
	6.880000	-0.100389
	6.885000	-0.123410
	6.890000	0.024582
	6.895000	0.047603
	6.900000	-0.100389
	6.905000	-0.123410
	6.910000	0.024582
	6.915000	0.047603
	6.920000	-0.100389
	6.925000	-0.116833
	6.930000	0.024582
	6.935000	0.050892
	6.940000	-0.097101
	6.945000	-0.120122
	6.950000	0.024582
	6.955000	0.044314
	6.960000	-0.097101
	6.965000	-0.123410
	6.970000	0.024582
	6.975000	0.047603
	6.980000	-0.100389
	6.985000	-0.120122
	6.990000	0.024582
	6.995000	0.047603
	7.000000	-0.100389
	7.005000	-0.120122
	7.010000	0.027871
	7.015000	0.050892
	7.020000	-0.097101
	7.025000	-0.123410
	7.030000	0.021293
	7.035000	0.054181
	7.040000	-0.093812
	7.045000	-0.120122
	7.050000	0.027871
	7.055000	0.054181
	7.060000	-0.093812
	7.065000	-0.116833
	7.070000	0.031160
	7.075000	0.050892
	7.080000	-0.093812
	7.085000	-0.120122
	7.090000	0.034448
	7.095000	0.057469
	7.100000	-0.093812
	7.105000	-0.113544
	7.110000	0.031160
	7.115000	0.054181
	7.120000	-0.090523
	7.125000	-0.113544
	7.130000	0.034448
	7.135000	0.054181
	7.140000	-0.093812
	7.145000	-0.113544
	7.150000	0.027871
	7.155000	0.057469
	7.160000	-0.093812
	7.165000	-0.113544
	7.170000	0.034448
	7.175000	0.054181
	7.180000	-0.090523
	7.185000	-0.113544
	7.190000	0.031160
	7.195000	0.054181
	7.200000	-0.093812
	7.205000	-0.116833
	7.210000	0.027871
	7.215000	0.057469
	7.220000	-0.093812
	7.225000	-0.120122
	7.230000	0.027871
	7.235000	0.054181
	7.240000	-0.090523
	7.245000	-0.113544
	7.250000	0.031160
	7.255000	0.054181
	7.260000	-0.090523
	7.265000	-0.116833
	7.270000	0.031160
	7.275000	0.054181
	7.280000	-0.093812
	7.285000	-0.113544
	7.290000	0.037737
	7.295000	0.054181
	7.300000	-0.090523
	7.305000	-0.116833
	7.310000	0.031160
	7.315000	0.050892
	7.320000	-0.093812
	7.325000	-0.116833
	7.330000	0.027871
	7.335000	0.050892
	7.340000	-0.097101
	7.345000	-0.120122
	7.350000	0.027871
	7.355000	0.050892
	7.360000	-0.097101
	7.365000	-0.113544
	7.370000	0.027871
	7.375000	0.050892
	7.380000	-0.093812
	7.385000	-0.113544
	7.390000	0.031160
	7.395000	0.050892
	7.400000	-0.090523
	7.405000	-0.110256
	7.410000	0.034448
	7.415000	0.054181
	7.420000	-0.093812
	7.425000	-0.106967
	7.430000	0.037737
	7.435000	0.057469
	7.440000	-0.083946
	7.445000	-0.106967
	7.450000	0.037737
	7.455000	0.057469
	7.460000	-0.090523
	7.465000	-0.103678
	7.470000	0.041026
	7.475000	0.057469
	7.480000	-0.090523
	7.485000	-0.110256
	7.490000	0.034448
	7.495000	0.060758
	7.500000	-0.087234
	7.505000	-0.110256
	7.510000	0.037737
	7.515000	0.057469
	7.520000	-0.090523
	7.525000	-0.113544
	7.530000	0.034448
	7.535000	0.057469
	7.540000	-0.087234
	7.545000	-0.113544
	7.550000	0.037737
	7.555000	0.057469
	7.560000	-0.090523
	7.565000	-0.110256
	7.570000	0.037737
	7.575000	0.057469
	7.580000	-0.087234
	7.585000	-0.106967
	7.590000	0.041026
	7.595000	0.064047
	7.600000	-0.083946
	7.605000	-0.106967
	7.610000	0.041026
	7.615000	0.064047
	7.620000	-0.083946
	7.625000	-0.103678
	7.630000	0.037737
	7.635000	0.060758
	7.640000	-0.087234
	7.645000	-0.106967
	7.650000	0.041026
	7.655000	0.057469
	7.660000	-0.087234
	7.665000	-0.106967
	7.670000	0.037737
	7.675000	0.054181
	7.680000	-0.083946
	7.685000	-0.103678
	7.690000	0.041026
	7.695000	0.064047
	7.700000	-0.083946
	7.705000	-0.106967
	7.710000	0.041026
	7.715000	0.064047
	7.720000	-0.083946
	7.725000	-0.100389
	7.730000	0.041026
	7.735000	0.067335
	7.740000	-0.080657
	7.745000	-0.100389
	7.750000	0.044314
	7.755000	0.064047
	7.760000	-0.080657
	7.765000	-0.097101
	7.770000	0.044314
	7.775000	0.067335
	7.780000	-0.080657
	7.785000	-0.093812
	7.790000	0.047603
	7.795000	0.067335
	7.800000	-0.080657
	7.805000	-0.097101
	7.810000	0.047603
	7.815000	0.064047
	7.820000	-0.083946
	7.825000	-0.097101
	7.830000	0.044314
	7.835000	0.064047
	7.840000	-0.083946
	7.845000	-0.100389
	7.850000	0.044314
	7.855000	0.064047
	7.860000	-0.080657
	7.865000	-0.100389
	7.870000	0.041026
	7.875000	0.064047
	7.880000	-0.083946
	7.885000	-0.100389
	7.890000	0.044314
	7.895000	0.064047
	7.900000	-0.080657
	7.905000	-0.097101
	7.910000	0.047603
	7.915000	0.067335
	7.920000	-0.077368
	7.925000	-0.090523
	7.930000	0.050892
	7.935000	0.070624
	7.940000	-0.074080
	7.945000	-0.090523
	7.950000	0.057469
	7.955000	0.073913
	7.960000	-0.067502
	7.965000	-0.087234
	7.970000	0.057469
	7.975000	0.077202
	7.980000	-0.070791
	7.985000	-0.083946
	7.990000	0.060758
	7.995000	0.080490
	8.000000	-0.064213
	8.005000	-0.087234
	8.010000	0.060758
	8.015000	0.077202
	8.020000	-0.074080
	8.025000	-0.093812
	8.030000	0.054181
	8.035000	0.067335
	8.040000	-0.080657
	8.045000	-0.106967
	8.050000	0.044314
	8.055000	0.060758
	8.060000	-0.083946
	8.065000	-0.100389
	8.070000	0.041026
	8.075000	0.064047
	8.080000	-0.083946
	8.085000	-0.100389
	8.090000	0.041026
	8.095000	0.064047
	8.100000	-0.083946
	8.105000	-0.103678
	8.110000	0.044314
	8.115000	0.067335
	8.120000	-0.074080
	8.125000	-0.103678
	8.130000	0.050892
	8.135000	0.073913
	8.140000	-0.074080
	8.145000	-0.093812
	8.150000	0.054181
	8.155000	0.077202
	8.160000	-0.067502
	8.165000	-0.087234
	8.170000	0.060758
	8.175000	0.083779
	8.180000	-0.060925
	8.185000	-0.080657
	8.190000	0.067335
	8.195000	0.087068
	8.200000	-0.064213
	8.205000	-0.080657
	8.210000	0.067335
	8.215000	0.083779
	8.220000	-0.064213
	8.225000	-0.087234
	8.230000	0.060758
	8.235000	0.080490
	8.240000	-0.067502
	8.245000	-0.090523
	8.250000	0.054181
	8.255000	0.077202
	8.260000	-0.074080
	8.265000	-0.097101
	8.270000	0.054181
	8.275000	0.073913
	8.280000	-0.074080
	8.285000	-0.087234
	8.290000	0.054181
	8.295000	0.080490
	8.300000	-0.074080
	8.305000	-0.090523
	8.310000	0.064047
	8.315000	0.087068
	8.320000	-0.060925
	8.325000	-0.080657
	8.330000	0.067335
	8.335000	0.083779
	8.340000	-0.057636
	8.345000	-0.077368
	8.350000	0.070624
	8.355000	0.096934
	8.360000	-0.054347
	8.365000	-0.074080
	8.370000	0.073913
	8.375000	0.100223
	8.380000	-0.051059
	8.385000	-0.070791
	8.390000	0.073913
	8.395000	0.093645
	8.400000	-0.054347
	8.405000	-0.074080
	8.410000	0.067335
	8.415000	0.090357
	8.420000	-0.057636
	8.425000	-0.077368
	8.430000	0.067335
	8.435000	0.090357
	8.440000	-0.057636
	8.445000	-0.080657
	8.450000	0.067335
	8.455000	0.087068
	8.460000	-0.060925
	8.465000	-0.080657
	8.470000	0.067335
	8.475000	0.087068
	8.480000	-0.057636
	8.485000	-0.077368
	8.490000	0.067335
	8.495000	0.090357
	8.500000	-0.060925
	8.505000	-0.074080
	8.510000	0.073913
	8.515000	0.093645
	8.520000	-0.054347
	8.525000	-0.074080
	8.530000	0.073913
	8.535000	0.096934
	8.540000	-0.054347
	8.545000	-0.074080
	8.550000	0.073913
	8.555000	0.093645
	8.560000	-0.051059
	8.565000	-0.070791
	8.570000	0.077202
	8.575000	0.100223
	8.580000	-0.051059
	8.585000	-0.070791
	8.590000	0.080490
	8.595000	0.096934
	8.600000	-0.054347
	8.605000	-0.067502
	8.610000	0.073913
	8.615000	0.100223
	8.620000	-0.051059
	8.625000	-0.067502
	8.630000	0.077202
	8.635000	0.096934
	8.640000	-0.054347
	8.645000	-0.067502
	8.650000	0.077202
	8.655000	0.090357
	8.660000	-0.047770
	8.665000	-0.064213
	8.670000	0.073913
	8.675000	0.096934
	8.680000	-0.047770
	8.685000	-0.067502
	8.690000	0.077202
	8.695000	0.100223
	8.700000	-0.047770
	8.705000	-0.070791
	8.710000	0.080490
	8.715000	0.100223
	8.720000	-0.054347
	8.725000	-0.070791
	8.730000	0.077202
	8.735000	0.096934
	8.740000	-0.044481
	8.745000	-0.067502
	8.750000	0.080490
	8.755000	0.100223
	8.760000	-0.047770
	8.765000	-0.067502
	8.770000	0.083779
	8.775000	0.100223
	8.780000	-0.044481
	8.785000	-0.067502
	8.790000	0.083779
	8.795000	0.103511
	8.800000	-0.047770
	8.805000	-0.067502
	8.810000	0.083779
	8.815000	0.100223
	8.820000	-0.047770
	8.825000	-0.070791
	8.830000	0.077202
	8.835000	0.100223
	8.840000	-0.044481
	8.845000	-0.064213
	8.850000	0.077202
	8.855000	0.100223
	8.860000	-0.044481
	8.865000	-0.060925
	8.870000	0.083779
	8.875000	0.106800
	8.880000	-0.047770
	8.885000	-0.064213
	8.890000	0.083779
	8.895000	0.106800
	8.900000	-0.044481
	8.905000	-0.057636
	8.910000	0.080490
	8.915000	0.106800
	8.920000	-0.041192
	8.925000	-0.057636
	8.930000	0.090357
	8.935000	0.106800
	8.940000	-0.041192
	8.945000	-0.054347
	8.950000	0.087068
	8.955000	0.110089
	8.960000	-0.034615
	8.965000	-0.054347
	8.970000	0.087068
	8.975000	0.110089
	8.980000	-0.037904
	8.985000	-0.054347
	8.990000	0.087068
	8.995000	0.110089
	9.000000	-0.037904
	9.005000	-0.057636
	9.010000	0.090357
	9.015000	0.106800
	9.020000	-0.037904
	9.025000	-0.057636
	9.030000	0.083779
	9.035000	0.106800
	9.040000	-0.041192
	9.045000	-0.057636
	9.050000	0.087068
	9.055000	0.110089
	9.060000	-0.044481
	9.065000	-0.060925
	9.070000	0.087068
	9.075000	0.103511
	9.080000	-0.041192
	9.085000	-0.060925
	9.090000	0.090357
	9.095000	0.106800
	9.100000	-0.041192
	9.105000	-0.057636
	9.110000	0.087068
	9.115000	0.110089
	9.120000	-0.037904
	9.125000	-0.054347
	9.130000	0.087068
	9.135000	0.110089
	9.140000	-0.037904
	9.145000	-0.057636
	9.150000	0.090357
	9.155000	0.106800
	9.160000	-0.037904
	9.165000	-0.060925
	9.170000	0.093645
	9.175000	0.110089
	9.180000	-0.037904
	9.185000	-0.054347
	9.190000	0.096934
	9.195000	0.113378
	9.200000	-0.037904
	9.205000	-0.051059
	9.210000	0.093645
	9.215000	0.113378
	9.220000	-0.034615
	9.225000	-0.054347
	9.230000	0.096934
	9.235000	0.113378
	9.240000	-0.037904
	9.245000	-0.051059
	9.250000	0.093645
	9.255000	0.113378
	9.260000	-0.031326
	9.265000	-0.057636
	9.270000	0.093645
	9.275000	0.113378
	9.280000	-0.034615
	9.285000	-0.051059
	9.290000	0.093645
	9.295000	0.116666
	9.300000	-0.031326
	9.305000	-0.051059
	9.310000	0.096934
	9.315000	0.116666
	9.320000	-0.031326
	9.325000	-0.051059
	9.330000	0.096934
	9.335000	0.113378
	9.340000	-0.031326
	9.345000	-0.047770
	9.350000	0.093645
	9.355000	0.116666
	9.360000	-0.031326
	9.365000	-0.051059
	9.370000	0.096934
	9.375000	0.110089
	9.380000	-0.031326
	9.385000	-0.051059
	9.390000	0.093645
	9.395000	0.116666
	9.400000	-0.034615
	9.405000	-0.047770
	9.410000	0.100223
	9.415000	0.116666
	9.420000	-0.028037
	9.425000	-0.047770
	9.430000	0.096934
	9.435000	0.119955
	9.440000	-0.034615
	9.445000	-0.044481
	9.450000	0.100223
	9.455000	0.116666
	9.460000	-0.031326
	9.465000	-0.047770
	9.470000	0.103511
	9.475000	0.123244
	9.480000	-0.024749
	9.485000	-0.044481
	9.490000	0.106800
	9.495000	0.123244
	9.500000	-0.031326
	9.505000	-0.047770
	9.510000	0.096934
	9.515000	0.123244
	9.520000	-0.024749
	9.525000	-0.044481
	9.530000	0.103511
	9.535000	0.123244
	9.540000	-0.021460
	9.545000	-0.044481
	9.550000	0.100223
	9.555000	0.123244
	9.560000	-0.028037
	9.565000	-0.044481
	9.570000	0.103511
	9.575000	0.123244
	9.580000	-0.024749
	9.585000	-0.041192
	9.590000	0.100223
	9.595000	0.123244
	9.600000	-0.024749
	9.605000	-0.041192
	9.610000	0.106800
	9.615000	0.119955
	9.620000	-0.024749
	9.625000	-0.044481
	9.630000	0.100223
	9.635000	0.123244
	9.640000	-0.028037
	9.645000	-0.037904
	9.650000	0.103511
	9.655000	0.126533
	9.660000	-0.018171
	9.665000	-0.041192
	9.670000	0.110089
	9.675000	0.129821
	9.680000	-0.021460
	9.685000	-0.034615
	9.690000	0.106800
	9.695000	0.129821
	9.700000	-0.018171
	9.705000	-0.034615
	9.710000	0.113378
	9.715000	0.129821
	9.720000	-0.018171
	9.725000	-0.031326
	9.730000	0.110089
	9.735000	0.133110
	9.740000	-0.014883
	9.745000	-0.028037
	9.750000	0.110089
	9.755000	0.129821
	9.760000	-0.011594
	9.765000	-0.031326
	9.770000	0.110089
	9.775000	0.129821
	9.780000	-0.011594
	9.785000	-0.031326
	9.790000	0.116666
	9.795000	0.129821
	9.800000	-0.011594
	9.805000	-0.031326
	9.810000	0.113378
	9.815000	0.133110
	9.820000	-0.014883
	9.825000	-0.034615
	9.830000	0.110089
	9.835000	0.123244
	9.840000	-0.021460
	9.845000	-0.034615
	9.850000	0.106800
	9.855000	0.126533
	9.860000	-0.018171
	9.865000	-0.031326
	9.870000	0.110089
	9.875000	0.126533
	9.880000	-0.024749
	9.885000	-0.037904
	9.890000	0.110089
	9.895000	0.129821
	9.900000	-0.014883
	9.905000	-0.034615
	9.910000	0.110089
	9.915000	0.129821
	9.920000	-0.011594
	9.925000	-0.021460
	9.930000	0.123244
	9.935000	0.142976
	9.940000	-0.001728
	9.945000	-0.018171
	9.950000	0.126533
	9.955000	0.142976
	9.960000	0.001561
	9.965000	-0.014883
	9.970000	0.129821
	9.975000	0.142976
	9.980000	-0.005016
	9.985000	-0.018171
	9.990000	0.119955
	9.995000	0.136399
	10.000000	-0.014883
	10.005000	-0.024749
	10.010000	0.116666
	10.015000	0.129821
	10.020000	-0.021460
	10.025000	-0.034615
	10.030000	0.110089
	10.035000	0.126533
	10.040000	-0.024749
	10.045000	-0.037904
	10.050000	0.106800
	10.055000	0.129821
	10.060000	-0.018171
	10.065000	-0.031326
	10.070000	0.116666
	10.075000	0.133110
	10.080000	-0.011594
	10.085000	-0.024749
	10.090000	0.119955
	10.095000	0.142976
	10.100000	-0.001728
	10.105000	-0.021460
	10.110000	0.129821
	10.115000	0.146265
	10.120000	0.008138
	10.125000	-0.011594
	10.130000	0.136399
	10.135000	0.149554
	10.140000	0.004850
	10.145000	-0.008305
	10.150000	0.129821
	10.155000	0.149554
	10.160000	0.001561
	10.165000	-0.021460
	10.170000	0.126533
	10.175000	0.142976
	10.180000	-0.008305
	10.185000	-0.024749
	10.190000	0.116666
	10.195000	0.129821
	10.200000	-0.014883
	10.205000	-0.031326
	10.210000	0.110089
	10.215000	0.126533
	10.220000	-0.021460
	10.225000	-0.034615
	10.230000	0.106800
	10.235000	0.129821
	10.240000	-0.021460
	10.245000	-0.034615
	10.250000	0.113378
	10.255000	0.136399
	10.260000	-0.011594
	10.265000	-0.028037
	10.270000	0.119955
	10.275000	0.142976
	10.280000	-0.005016
	10.285000	-0.018171
	10.290000	0.133110
	10.295000	0.149554
	10.300000	0.001561
	10.305000	-0.018171
	10.310000	0.129821
	10.315000	0.149554
	10.320000	0.001561
	10.325000	-0.014883
	10.330000	0.123244
	10.335000	0.149554
	10.340000	-0.005016
	10.345000	-0.024749
	10.350000	0.119955
	10.355000	0.142976
	10.360000	-0.008305
	10.365000	-0.028037
	10.370000	0.116666
	10.375000	0.136399
	10.380000	-0.014883
	10.385000	-0.028037
	10.390000	0.113378
	10.395000	0.139687
	10.400000	-0.014883
	10.405000	-0.034615
	10.410000	0.113378
	10.415000	0.139687
	10.420000	-0.001728
	10.425000	-0.024749
	10.430000	0.119955
	10.435000	0.142976
	10.440000	-0.008305
	10.445000	-0.021460
	10.450000	0.126533
	10.455000	0.146265
	10.460000	-0.005016
	10.465000	-0.024749
	10.470000	0.129821
	10.475000	0.146265
	10.480000	-0.001728
	10.485000	-0.021460
	10.490000	0.123244
	10.495000	0.142976
	10.500000	-0.005016
	10.505000	-0.024749
	10.510000	0.123244
	10.515000	0.142976
	10.520000	-0.008305
	10.525000	-0.028037
	10.530000	0.116666
	10.535000	0.142976
	10.540000	-0.008305
	10.545000	-0.031326
	10.550000	0.119955
	10.555000	0.142976
	10.560000	-0.008305
	10.565000	-0.028037
	10.570000	0.119955
	10.575000	0.142976
	10.580000	-0.005016
	10.585000	-0.021460
	10.590000	0.123244
	10.595000	0.142976
	10.600000	-0.001728
	10.605000	-0.021460
	10.610000	0.126533
	10.615000	0.142976
	10.620000	-0.001728
	10.625000	-0.024749
	10.630000	0.126533
	10.635000	0.142976
	10.640000	-0.005016
	10.645000	-0.021460
	10.650000	0.123244
	10.655000	0.146265
	10.660000	-0.001728
	10.665000	-0.028037
	10.670000	0.123244
	10.675000	0.139687
	10.680000	-0.008305
	10.685000	-0.028037
	10.690000	0.116666
	10.695000	0.139687
	10.700000	-0.011594
	10.705000	-0.028037
	10.710000	0.123244
	10.715000	0.142976
	10.720000	-0.011594
	10.725000	-0.021460
	10.730000	0.123244
	10.735000	0.146265
	10.740000	-0.005016
	10.745000	-0.024749
	10.750000	0.126533
	10.755000	0.146265
	10.760000	-0.005016
	10.765000	-0.024749
	10.770000	0.126533
	10.775000	0.149554
	10.780000	-0.005016
	10.785000	-0.021460
	10.790000	0.126533
	10.795000	0.142976
	10.800000	-0.001728
	10.805000	-0.021460
	10.810000	0.129821
	10.815000	0.146265
	10.820000	-0.001728
	10.825000	-0.021460
	10.830000	0.126533
	10.835000	0.149554
	10.840000	0.001561
	10.845000	-0.018171
	10.850000	0.129821
	10.855000	0.149554
	10.860000	0.001561
	10.865000	-0.018171
	10.870000	0.126533
	10.875000	0.149554
	10.880000	0.001561
	10.885000	-0.021460
	10.890000	0.123244
	10.895000	0.149554
	10.900000	0.001561
	10.905000	-0.021460
	10.910000	0.126533
	10.915000	0.149554
	10.920000	0.001561
	10.925000	-0.018171
	10.930000	0.129821
	10.935000	0.149554
	10.940000	-0.001728
	10.945000	-0.018171
	10.950000	0.126533
	10.955000	0.149554
	10.960000	0.004850
	10.965000	-0.021460
	10.970000	0.129821
	10.975000	0.149554
	10.980000	0.001561
	10.985000	-0.018171
	10.990000	0.129821
	10.995000	0.149554
	11.000000	0.001561
	11.005000	-0.018171
	11.010000	0.129821
	11.015000	0.149554
	11.020000	0.008138
	11.025000	-0.018171
	11.030000	0.123244
	11.035000	0.149554
	11.040000	0.001561
	11.045000	-0.018171
	11.050000	0.129821
	11.055000	0.146265
	11.060000	-0.001728
	11.065000	-0.021460
	11.070000	0.129821
	11.075000	0.149554
	11.080000	-0.005016
	11.085000	-0.018171
	11.090000	0.133110
	11.095000	0.149554
	11.100000	-0.001728
	11.105000	-0.021460
	11.110000	0.126533
	11.115000	0.146265
	11.120000	0.001561
	11.125000	-0.018171
	11.130000	0.129821
	11.135000	0.149554
	11.140000	-0.001728
	11.145000	-0.021460
	11.150000	0.129821
	11.155000	0.149554
	11.160000	0.001561
	11.165000	-0.018171
	11.170000	0.133110
	11.175000	0.156131
	11.180000	0.001561
	11.185000	-0.014883
	11.190000	0.133110
	11.195000	0.152842
	11.200000	0.004850
	11.205000	-0.014883
	11.210000	0.133110
	11.215000	0.149554
	11.220000	0.008138
	11.225000	-0.011594
	11.230000	0.136399
	11.235000	0.156131
	11.240000	0.004850
	11.245000	-0.014883
	11.250000	0.133110
	11.255000	0.156131
	11.260000	0.004850
	11.265000	-0.008305
	11.270000	0.133110
	11.275000	0.156131
	11.280000	0.004850
	11.285000	-0.014883
	11.290000	0.133110
	11.295000	0.159420
	11.300000	0.004850
	11.305000	-0.011594
	11.310000	0.133110
	11.315000	0.156131
	11.320000	0.004850
	11.325000	-0.011594
	11.330000	0.133110
	11.335000	0.156131
	11.340000	0.004850
	11.345000	-0.014883
	11.350000	0.136399
	11.355000	0.156131
	11.360000	0.008138
	11.365000	-0.008305
	11.370000	0.136399
	11.375000	0.156131
	11.380000	0.004850
	11.385000	-0.014883
	11.390000	0.133110
	11.395000	0.152842
	11.400000	0.011427
	11.405000	-0.014883
	11.410000	0.136399
	11.415000	0.156131
	11.420000	0.011427
	11.425000	-0.011594
	11.430000	0.133110
	11.435000	0.156131
	11.440000	0.011427
	11.445000	-0.011594
	11.450000	0.129821
	11.455000	0.152842
	11.460000	0.011427
	11.465000	-0.011594
	11.470000	0.139687
	11.475000	0.159420
	11.480000	0.008138
	11.485000	-0.014883
	11.490000	0.139687
	11.495000	0.156131
	11.500000	0.008138
	11.505000	-0.011594
	11.510000	0.133110
	11.515000	0.159420
	11.520000	0.011427
	11.525000	-0.011594
	11.530000	0.136399
	11.535000	0.156131
	11.540000	0.004850
	11.545000	-0.008305
	11.550000	0.142976
	11.555000	0.152842
	11.560000	0.011427
	11.565000	-0.008305
	11.570000	0.139687
	11.575000	0.159420
	11.580000	0.014716
	11.585000	-0.001728
	11.590000	0.139687
	11.595000	0.159420
	11.600000	0.014716
	11.605000	-0.001728
	11.610000	0.146265
	11.615000	0.162708
	11.620000	0.021293
	11.625000	0.001561
	11.630000	0.146265
	11.635000	0.165997
	11.640000	0.014716
	11.645000	0.001561
	11.650000	0.146265
	11.655000	0.159420
	11.660000	0.018005
	11.665000	-0.001728
	11.670000	0.142976
	11.675000	0.159420
	11.680000	0.014716
	11.685000	-0.005016
	11.690000	0.139687
	11.695000	0.156131
	11.700000	0.011427
	11.705000	-0.005016
	11.710000	0.139687
	11.715000	0.156131
	11.720000	0.014716
	11.725000	-0.005016
	11.730000	0.142976
	11.735000	0.159420
	11.740000	0.014716
	11.745000	-0.005016
	11.750000	0.142976
	11.755000	0.162708
	11.760000	0.021293
	11.765000	-0.001728
	11.770000	0.142976
	11.775000	0.169286
	11.780000	0.021293
	11.785000	0.001561
	11.790000	0.149554
	11.795000	0.172575
	11.800000	0.027871
	11.805000	0.008138
	11.810000	0.152842
	11.815000	0.175863
	11.820000	0.031160
	11.825000	0.008138
	11.830000	0.159420
	11.835000	0.175863
	11.840000	0.024582
	11.845000	0.008138
	11.850000	0.152842
	11.855000	0.169286
	11.860000	0.027871
	11.865000	0.004850
	11.870000	0.146265
	11.875000	0.162708
	11.880000	0.018005
	11.885000	-0.005016
	11.890000	0.142976
	11.895000	0.156131
	11.900000	0.011427
	11.905000	-0.008305
	11.910000	0.139687
	11.915000	0.162708
	11.920000	0.014716
	11.925000	-0.001728
	11.930000	0.142976
	11.935000	0.162708
	11.940000	0.024582
	11.945000	0.004850
	11.950000	0.152842
	11.955000	0.175863
	11.960000	0.034448
	11.965000	0.008138
	11.970000	0.162708
	11.975000	0.185730
	11.980000	0.037737
	11.985000	0.021293
	11.990000	0.169286
	11.995000	0.192307
	12.000000	0.044314
	12.005000	0.024582
	12.010000	0.169286
	12.015000	0.192307
	12.020000	0.041026
	12.025000	0.021293
	12.030000	0.162708
	12.035000	0.182441
	12.040000	0.034448
	12.045000	0.011427
	12.050000	0.156131
	12.055000	0.172575
	12.060000	0.027871
	12.065000	-0.001728
	12.070000	0.142976
	12.075000	0.162708
	12.080000	0.021293
	12.085000	-0.005016
	12.090000	0.136399
	12.095000	0.169286
	12.100000	0.014716
	12.105000	-0.008305
	12.110000	0.142976
	12.115000	0.162708
	12.120000	0.021293
	12.125000	0.001561
	12.130000	0.142976
	12.135000	0.169286
	12.140000	0.024582
	12.145000	0.008138
	12.150000	0.152842
	12.155000	0.172575
	12.160000	0.031160
	12.165000	0.008138
	12.170000	0.165997
	12.175000	0.182441
	12.180000	0.037737
	12.185000	0.014716
	12.190000	0.165997
	12.195000	0.185730
	12.200000	0.037737
	12.205000	0.018005
	12.210000	0.162708
	12.215000	0.182441
	12.220000	0.034448
	12.225000	0.011427
	12.230000	0.156131
	12.235000	0.179152
	12.240000	0.031160
	12.245000	0.011427
	12.250000	0.149554
	12.255000	0.169286
	12.260000	0.024582
	12.265000	-0.001728
	12.270000	0.142976
	12.275000	0.172575
	12.280000	0.018005
	12.285000	0.001561
	12.290000	0.149554
	12.295000	0.172575
	12.300000	0.024582
	12.305000	-0.001728
	12.310000	0.146265
	12.315000	0.172575
	12.320000	0.027871
	12.325000	0.001561
	12.330000	0.146265
	12.335000	0.175863
	12.340000	0.024582
	12.345000	0.004850
	12.350000	0.152842
	12.355000	0.179152
	12.360000	0.027871
	12.365000	0.004850
	12.370000	0.152842
	12.375000	0.179152
	12.380000	0.027871
	12.385000	0.008138
	12.390000	0.152842
	12.395000	0.175863
	12.400000	0.024582
	12.405000	0.004850
	12.410000	0.149554
	12.415000	0.175863
	12.420000	0.024582
	12.425000	0.004850
	12.430000	0.149554
	12.435000	0.175863
	12.440000	0.024582
	12.445000	0.004850
	12.450000	0.149554
	12.455000	0.172575
	12.460000	0.027871
	12.465000	0.004850
	12.470000	0.152842
	12.475000	0.175863
	12.480000	0.031160
	12.485000	0.011427
	12.490000	0.149554
	12.495000	0.175863
	12.500000	0.027871
	12.505000	0.011427
	12.510000	0.156131
	12.515000	0.179152
	12.520000	0.031160
	12.525000	0.004850
	12.530000	0.152842
	12.535000	0.179152
	12.540000	0.027871
	12.545000	0.008138
	12.550000	0.156131
	12.555000	0.179152
	12.560000	0.027871
	12.565000	0.008138
	12.570000	0.146265
	12.575000	0.175863
	12.580000	0.031160
	12.585000	0.004850
	12.590000	0.149554
	12.595000	0.172575
	12.600000	0.031160
	12.605000	0.004850
	12.610000	0.152842
	12.615000	0.175863
	12.620000	0.031160
	12.625000	0.004850
	12.630000	0.156131
	12.635000	0.182441
	12.640000	0.031160
	12.645000	0.011427
	12.650000	0.156131
	12.655000	0.179152
	12.660000	0.037737
	12.665000	0.014716
	12.670000	0.162708
	12.675000	0.182441
	12.680000	0.034448
	12.685000	0.014716
	12.690000	0.162708
	12.695000	0.182441
	12.700000	0.037737
	12.705000	0.011427
	12.710000	0.156131
	12.715000	0.182441
	12.720000	0.037737
	12.725000	0.014716
	12.730000	0.156131
	12.735000	0.185730
	12.740000	0.037737
	12.745000	0.011427
	12.750000	0.152842
	12.755000	0.182441
	12.760000	0.034448
	12.765000	0.011427
	12.770000	0.159420
	12.775000	0.182441
	12.780000	0.037737
	12.785000	0.011427
	12.790000	0.156131
	12.795000	0.189018
	12.800000	0.037737
	12.805000	0.014716
	12.810000	0.159420
	12.815000	0.189018
	12.820000	0.037737
	12.825000	0.014716
	12.830000	0.162708
	12.835000	0.189018
	12.840000	0.041026
	12.845000	0.014716
	12.850000	0.162708
	12.855000	0.189018
	12.860000	0.037737
	12.865000	0.014716
	12.870000	0.162708
	12.875000	0.192307
	12.880000	0.037737
	12.885000	0.011427
	12.890000	0.159420
	12.895000	0.189018
	12.900000	0.034448
	12.905000	0.011427
	12.910000	0.156131
	12.915000	0.185730
	12.920000	0.037737
	12.925000	0.014716
	12.930000	0.162708
	12.935000	0.185730
	12.940000	0.037737
	12.945000	0.014716
	12.950000	0.159420
	12.955000	0.189018
	12.960000	0.037737
	12.965000	0.011427
	12.970000	0.159420
	12.975000	0.189018
	12.980000	0.041026
	12.985000	0.018005
	12.990000	0.165997
	12.995000	0.189018
	13.000000	0.041026
	13.005000	0.014716
	13.010000	0.162708
	13.015000	0.185730
	13.020000	0.041026
	13.025000	0.011427
	13.030000	0.162708
	13.035000	0.185730
	13.040000	0.037737
	13.045000	0.011427
	13.050000	0.162708
	13.055000	0.182441
	13.060000	0.041026
	13.065000	0.018005
	13.070000	0.156131
	13.075000	0.189018
	13.080000	0.037737
	13.085000	0.018005
	13.090000	0.159420
	13.095000	0.185730
	13.100000	0.041026
	13.105000	0.011427
	13.110000	0.159420
	13.115000	0.185730
	13.120000	0.037737
	13.125000	0.014716
	13.130000	0.159420
	13.135000	0.189018
	13.140000	0.037737
	13.145000	0.014716
	13.150000	0.159420
	13.155000	0.192307
	13.160000	0.041026
	13.165000	0.014716
	13.170000	0.159420
	13.175000	0.192307
	13.180000	0.041026
	13.185000	0.011427
	13.190000	0.165997
	13.195000	0.189018
	13.200000	0.037737
	13.205000	0.014716
	13.210000	0.162708
	13.215000	0.195596
	13.220000	0.044314
	13.225000	0.021293
	13.230000	0.165997
	13.235000	0.192307
	13.240000	0.041026
	13.245000	0.018005
	13.250000	0.165997
	13.255000	0.189018
	13.260000	0.044314
	13.265000	0.021293
	13.270000	0.162708
	13.275000	0.192307
	13.280000	0.041026
	13.285000	0.018005
	13.290000	0.162708
	13.295000	0.185730
	13.300000	0.041026
	13.305000	0.018005
	13.310000	0.165997
	13.315000	0.189018
	13.320000	0.041026
	13.325000	0.021293
	13.330000	0.162708
	13.335000	0.189018
	13.340000	0.041026
	13.345000	0.018005
	13.350000	0.162708
	13.355000	0.189018
	13.360000	0.044314
	13.365000	0.014716
	13.370000	0.162708
	13.375000	0.189018
	13.380000	0.044314
	13.385000	0.021293
	13.390000	0.162708
	13.395000	0.192307
	13.400000	0.047603
	13.405000	0.018005
	13.410000	0.172575
	13.415000	0.189018
	13.420000	0.047603
	13.425000	0.021293
	13.430000	0.165997
	13.435000	0.192307
	13.440000	0.044314
	13.445000	0.021293
	13.450000	0.169286
	13.455000	0.192307
	13.460000	0.044314
	13.465000	0.021293
	13.470000	0.169286
	13.475000	0.192307
	13.480000	0.044314
	13.485000	0.021293
	13.490000	0.162708
	13.495000	0.189018
	13.500000	0.041026
	13.505000	0.018005
	13.510000	0.162708
	13.515000	0.195596
	13.520000	0.044314
	13.525000	0.014716
	13.530000	0.165997
	13.535000	0.192307
	13.540000	0.047603
	13.545000	0.018005
	13.550000	0.162708
	13.555000	0.192307
	13.560000	0.044314
	13.565000	0.024582
	13.570000	0.162708
	13.575000	0.189018
	13.580000	0.044314
	13.585000	0.024582
	13.590000	0.169286
	13.595000	0.195596
	13.600000	0.050892
	13.605000	0.027871
	13.610000	0.172575
	13.615000	0.195596
	13.620000	0.050892
	13.625000	0.031160
	13.630000	0.169286
	13.635000	0.195596
	13.640000	0.050892
	13.645000	0.027871
	13.650000	0.172575
	13.655000	0.195596
	13.660000	0.050892
	13.665000	0.024582
	13.670000	0.165997
	13.675000	0.192307
	13.680000	0.047603
	13.685000	0.021293
	13.690000	0.169286
	13.695000	0.195596
	13.700000	0.050892
	13.705000	0.024582
	13.710000	0.165997
	13.715000	0.189018
	13.720000	0.047603
	13.725000	0.021293
	13.730000	0.169286
	13.735000	0.198884
	13.740000	0.050892
	13.745000	0.027871
	13.750000	0.165997
	13.755000	0.198884
	13.760000	0.050892
	13.765000	0.024582
	13.770000	0.172575
	13.775000	0.195596
	13.780000	0.054181
	13.785000	0.024582
	13.790000	0.172575
	13.795000	0.198884
	13.800000	0.050892
	13.805000	0.027871
	13.810000	0.172575
	13.815000	0.195596
	13.820000	0.054181
	13.825000	0.031160
	13.830000	0.179152
	13.835000	0.198884
	13.840000	0.057469
	13.845000	0.037737
	13.850000	0.182441
	13.855000	0.208751
	13.860000	0.064047
	13.865000	0.041026
	13.870000	0.182441
	13.875000	0.205462
	13.880000	0.067335
	13.885000	0.041026
	13.890000	0.182441
	13.895000	0.202173
	13.900000	0.057469
	13.905000	0.037737
	13.910000	0.175863
	13.915000	0.202173
	13.920000	0.054181
	13.925000	0.034448
	13.930000	0.172575
	13.935000	0.198884
	13.940000	0.050892
	13.945000	0.027871
	13.950000	0.172575
	13.955000	0.202173
	13.960000	0.054181
	13.965000	0.034448
	13.970000	0.179152
	13.975000	0.208751
	13.980000	0.057469
	13.985000	0.037737
	13.990000	0.185730
	13.995000	0.212039
	14.000000	0.064047
	14.005000	0.044314
	14.010000	0.195596
	14.015000	0.218617
	14.020000	0.077202
	14.025000	0.050892
	14.030000	0.195596
	14.035000	0.218617
	14.040000	0.073913
	14.045000	0.047603
	14.050000	0.189018
	14.055000	0.218617
	14.060000	0.070624
	14.065000	0.041026
	14.070000	0.182441
	14.075000	0.208751
	14.080000	0.060758
	14.085000	0.031160
	14.090000	0.175863
	14.095000	0.202173
	14.100000	0.047603
	14.105000	0.024582
	14.110000	0.169286
	14.115000	0.198884
	14.120000	0.047603
	14.125000	0.021293
	14.130000	0.162708
	14.135000	0.195596
	14.140000	0.050892
	14.145000	0.018005
	14.150000	0.169286
	14.155000	0.202173
	14.160000	0.054181
	14.165000	0.031160
	14.170000	0.175863
	14.175000	0.208751
	14.180000	0.057469
	14.185000	0.037737
	14.190000	0.185730
	14.195000	0.215328
	14.200000	0.070624
	14.205000	0.044314
	14.210000	0.195596
	14.215000	0.218617
	14.220000	0.073913
	14.225000	0.044314
	14.230000	0.185730
	14.235000	0.218617
	14.240000	0.067335
	14.245000	0.041026
	14.250000	0.182441
	14.255000	0.212039
	14.260000	0.067335
	14.265000	0.037737
	14.270000	0.182441
	14.275000	0.212039
	14.280000	0.060758
	14.285000	0.034448
	14.290000	0.175863
	14.295000	0.205462
	14.300000	0.060758
	14.305000	0.031160
	14.310000	0.172575
	14.315000	0.205462
	14.320000	0.064047
	14.325000	0.031160
	14.330000	0.172575
	14.335000	0.208751
	14.340000	0.057469
	14.345000	0.034448
	14.350000	0.182441
	14.355000	0.208751
	14.360000	0.064047
	14.365000	0.037737
	14.370000	0.179152
	14.375000	0.212039
	14.380000	0.067335
	14.385000	0.034448
	14.390000	0.179152
	14.395000	0.212039
	14.400000	0.064047
	14.405000	0.037737
	14.410000	0.179152
	14.415000	0.212039
	14.420000	0.067335
	14.425000	0.034448
	14.430000	0.182441
	14.435000	0.215328
	14.440000	0.064047
	14.445000	0.037737
	14.450000	0.182441
	14.455000	0.212039
	14.460000	0.064047
	14.465000	0.037737
	14.470000	0.185730
	14.475000	0.212039
	14.480000	0.067335
	14.485000	0.037737
	14.490000	0.179152
	14.495000	0.215328
	14.500000	0.064047
	14.505000	0.037737
	14.510000	0.182441
	14.515000	0.212039
	14.520000	0.064047
	14.525000	0.041026
	14.530000	0.179152
	14.535000	0.212039
	14.540000	0.064047
	14.545000	0.037737
	14.550000	0.182441
	14.555000	0.215328
	14.560000	0.064047
	14.565000	0.034448
	14.570000	0.185730
	14.575000	0.212039
	14.580000	0.067335
	14.585000	0.034448
	14.590000	0.182441
	14.595000	0.208751
	14.600000	0.064047
	14.605000	0.041026
	14.610000	0.185730
	14.615000	0.212039
	14.620000	0.067335
	14.625000	0.034448
	14.630000	0.182441
	14.635000	0.215328
	14.640000	0.064047
	14.645000	0.037737
	14.650000	0.185730
	14.655000	0.212039
	14.660000	0.067335
	14.665000	0.034448
	14.670000	0.182441
	14.675000	0.208751
	14.680000	0.064047
	14.685000	0.034448
	14.690000	0.179152
	14.695000	0.212039
	14.700000	0.067335
	14.705000	0.037737
	14.710000	0.179152
	14.715000	0.212039
	14.720000	0.064047
	14.725000	0.037737
	14.730000	0.182441
	14.735000	0.212039
	14.740000	0.060758
	14.745000	0.034448
	14.750000	0.179152
	14.755000	0.215328
	14.760000	0.064047
	14.765000	0.037737
	14.770000	0.182441
	14.775000	0.212039
	14.780000	0.060758
	14.785000	0.037737
	14.790000	0.182441
	14.795000	0.212039
	14.800000	0.067335
	14.805000	0.037737
	14.810000	0.179152
	14.815000	0.218617
	14.820000	0.070624
	14.825000	0.041026
	14.830000	0.185730
	14.835000	0.215328
	14.840000	0.070624
	14.845000	0.044314
	14.850000	0.185730
	14.855000	0.225194
	14.860000	0.067335
	14.865000	0.041026
	14.870000	0.189018
	14.875000	0.218617
	14.880000	0.073913
	14.885000	0.041026
	14.890000	0.182441
	14.895000	0.215328
	14.900000	0.070624
	14.905000	0.041026
	14.910000	0.185730
	14.915000	0.218617
	14.920000	0.067335
	14.925000	0.037737
	14.930000	0.182441
	14.935000	0.212039
	14.940000	0.067335
	14.945000	0.041026
	14.950000	0.179152
	14.955000	0.215328
	14.960000	0.070624
	14.965000	0.041026
	14.970000	0.185730
	14.975000	0.215328
	14.980000	0.067335
	14.985000	0.037737
	14.990000	0.182441
	14.995000	0.215328
	15.000000	0.067335
	15.005000	0.044314
	15.010000	0.185730
	15.015000	0.215328
	15.020000	0.073913
	15.025000	0.037737
	15.030000	0.185730
	15.035000	0.218617
	15.040000	0.070624
	15.045000	0.041026
	15.050000	0.182441
	15.055000	0.215328
	15.060000	0.073913
	15.065000	0.037737
	15.070000	0.185730
	15.075000	0.215328
	15.080000	0.067335
	15.085000	0.041026
	15.090000	0.182441
	15.095000	0.212039
	15.100000	0.070624
	15.105000	0.037737
	15.110000	0.182441
	15.115000	0.215328
	15.120000	0.070624
	15.125000	0.041026
	15.130000	0.185730
	15.135000	0.218617
	15.140000	0.070624
	15.145000	0.044314
	15.150000	0.192307
	15.155000	0.221905
	15.160000	0.070624
	15.165000	0.044314
	15.170000	0.189018
	15.175000	0.221905
	15.180000	0.077202
	15.185000	0.047603
	15.190000	0.189018
	15.195000	0.225194
	15.200000	0.077202
	15.205000	0.044314
	15.210000	0.189018
	15.215000	0.221905
	15.220000	0.073913
	15.225000	0.047603
	15.230000	0.189018
	15.235000	0.225194
	15.240000	0.077202
	15.245000	0.041026
	15.250000	0.189018
	15.255000	0.221905
	15.260000	0.077202
	15.265000	0.047603
	15.270000	0.185730
	15.275000	0.221905
	15.280000	0.073913
	15.285000	0.044314
	15.290000	0.192307
	15.295000	0.221905
	15.300000	0.077202
	15.305000	0.041026
	15.310000	0.189018
	15.315000	0.225194
	15.320000	0.077202
	15.325000	0.044314
	15.330000	0.189018
	15.335000	0.218617
	15.340000	0.077202
	15.345000	0.041026
	15.350000	0.185730
	15.355000	0.218617
	15.360000	0.077202
	15.365000	0.044314
	15.370000	0.192307
	15.375000	0.221905
	15.380000	0.077202
	15.385000	0.044314
	15.390000	0.189018
	15.395000	0.221905
	15.400000	0.070624
	15.405000	0.047603
	15.410000	0.192307
	15.415000	0.221905
	15.420000	0.073913
	15.425000	0.044314
	15.430000	0.189018
	15.435000	0.221905
	15.440000	0.077202
	15.445000	0.044314
	15.450000	0.189018
	15.455000	0.221905
	15.460000	0.077202
	15.465000	0.047603
	15.470000	0.192307
	15.475000	0.225194
	15.480000	0.077202
	15.485000	0.050892
	15.490000	0.195596
	15.495000	0.225194
	15.500000	0.080490
	15.505000	0.047603
	15.510000	0.195596
	15.515000	0.225194
	15.520000	0.077202
	15.525000	0.050892
	15.530000	0.195596
	15.535000	0.221905
	15.540000	0.077202
	15.545000	0.050892
	15.550000	0.189018
	15.555000	0.218617
	15.560000	0.073913
	15.565000	0.041026
	15.570000	0.185730
	15.575000	0.218617
	15.580000	0.073913
	15.585000	0.044314
	15.590000	0.185730
	15.595000	0.218617
	15.600000	0.073913
	15.605000	0.047603
	15.610000	0.189018
	15.615000	0.215328
	15.620000	0.070624
	15.625000	0.047603
	15.630000	0.189018
	15.635000	0.221905
	15.640000	0.080490
	15.645000	0.047603
	15.650000	0.189018
	15.655000	0.225194
	15.660000	0.080490
	15.665000	0.047603
	15.670000	0.195596
	15.675000	0.225194
	15.680000	0.087068
	15.685000	0.050892
	15.690000	0.192307
	15.695000	0.228483
	15.700000	0.083779
	15.705000	0.054181
	15.710000	0.195596
	15.715000	0.231772
	15.720000	0.083779
	15.725000	0.054181
	15.730000	0.198884
	15.735000	0.228483
	15.740000	0.083779
	15.745000	0.054181
	15.750000	0.198884
	15.755000	0.225194
	15.760000	0.080490
	15.765000	0.050892
	15.770000	0.195596
	15.775000	0.218617
	15.780000	0.080490
	15.785000	0.047603
	15.790000	0.185730
	15.795000	0.215328
	15.800000	0.070624
	15.805000	0.037737
	15.810000	0.185730
	15.815000	0.215328
	15.820000	0.070624
	15.825000	0.041026
	15.830000	0.185730
	15.835000	0.218617
	15.840000	0.073913
	15.845000	0.044314
	15.850000	0.185730
	15.855000	0.218617
	15.860000	0.077202
	15.865000	0.050892
	15.870000	0.198884
	15.875000	0.228483
	15.880000	0.090357
	15.885000	0.054181
	15.890000	0.202173
	15.895000	0.235060
	15.900000	0.090357
	15.905000	0.057469
	15.910000	0.202173
	15.915000	0.238349
	15.920000	0.096934
	15.925000	0.060758
	15.930000	0.208751
	15.935000	0.238349
	15.940000	0.093645
	15.945000	0.060758
	15.950000	0.205462
	15.955000	0.238349
	15.960000	0.090357
	15.965000	0.054181
	15.970000	0.198884
	15.975000	0.228483
	15.980000	0.087068
	15.985000	0.054181
	15.990000	0.192307
	15.995000	0.231772
	16.000000	0.077202
	16.005000	0.047603
	16.010000	0.189018
	16.015000	0.228483
	16.020000	0.080490
	16.025000	0.047603
	16.030000	0.189018
	16.035000	0.228483
	16.040000	0.080490
	16.045000	0.047603
	16.050000	0.195596
	16.055000	0.231772
	16.060000	0.087068
	16.065000	0.054181
	16.070000	0.198884
	16.075000	0.238349
	16.080000	0.093645
	16.085000	0.057469
	16.090000	0.205462
	16.095000	0.241638
	16.100000	0.096934
	16.105000	0.060758
	16.110000	0.208751
	16.115000	0.238349
	16.120000	0.096934
	16.125000	0.054181
	16.130000	0.205462
	16.135000	0.235060
	16.140000	0.090357
	16.145000	0.057469
	16.150000	0.198884
	16.155000	0.235060
	16.160000	0.083779
	16.165000	0.050892
	16.170000	0.198884
	16.175000	0.235060
	16.180000	0.080490
	16.185000	0.054181
	16.190000	0.192307
	16.195000	0.231772
	16.200000	0.087068
	16.205000	0.050892
	16.210000	0.195596
	16.215000	0.231772
	16.220000	0.087068
	16.225000	0.057469
	16.230000	0.198884
	16.235000	0.231772
	16.240000	0.093645
	16.245000	0.057469
	16.250000	0.198884
	16.255000	0.235060
	16.260000	0.087068
	16.265000	0.057469
	16.270000	0.202173
	16.275000	0.238349
	16.280000	0.093645
	16.285000	0.057469
	16.290000	0.205462
	16.295000	0.241638
	16.300000	0.093645
	16.305000	0.060758
	16.310000	0.205462
	16.315000	0.241638
	16.320000	0.096934
	16.325000	0.057469
	16.330000	0.202173
	16.335000	0.238349
	16.340000	0.093645
	16.345000	0.060758
	16.350000	0.205462
	16.355000	0.241638
	16.360000	0.093645
	16.365000	0.060758
	16.370000	0.205462
	16.375000	0.241638
	16.380000	0.100223
	16.385000	0.060758
	16.390000	0.205462
	16.395000	0.241638
	16.400000	0.096934
	16.405000	0.064047
	16.410000	0.205462
	16.415000	0.241638
	16.420000	0.096934
	16.425000	0.064047
	16.430000	0.208751
	16.435000	0.244927
	16.440000	0.093645
	16.445000	0.057469
	16.450000	0.208751
	16.455000	0.244927
	16.460000	0.100223
	16.465000	0.064047
	16.470000	0.205462
	16.475000	0.244927
	16.480000	0.096934
	16.485000	0.064047
	16.490000	0.205462
	16.495000	0.241638
	16.500000	0.090357
	16.505000	0.064047
	16.510000	0.205462
	16.515000	0.244927
	16.520000	0.093645
	16.525000	0.057469
	16.530000	0.205462
	16.535000	0.241638
	16.540000	0.093645
	16.545000	0.064047
	16.550000	0.205462
	16.555000	0.238349
	16.560000	0.096934
	16.565000	0.064047
	16.570000	0.208751
	16.575000	0.244927
	16.580000	0.100223
	16.585000	0.064047
	16.590000	0.208751
	16.595000	0.244927
	16.600000	0.096934
	16.605000	0.064047
	16.610000	0.205462
	16.615000	0.244927
	16.620000	0.100223
	16.625000	0.064047
	16.630000	0.205462
	16.635000	0.248215
	16.640000	0.096934
	16.645000	0.060758
	16.650000	0.208751
	16.655000	0.244927
	16.660000	0.096934
	16.665000	0.057469
	16.670000	0.208751
	16.675000	0.241638
	16.680000	0.100223
	16.685000	0.064047
	16.690000	0.208751
	16.695000	0.248215
	16.700000	0.100223
	16.705000	0.064047
	16.710000	0.208751
	16.715000	0.248215
	16.720000	0.103511
	16.725000	0.067335
	16.730000	0.208751
	16.735000	0.248215
	16.740000	0.096934
	16.745000	0.067335
	16.750000	0.205462
	16.755000	0.248215
	16.760000	0.103511
	16.765000	0.064047
	16.770000	0.208751
	16.775000	0.244927
	16.780000	0.100223
	16.785000	0.064047
	16.790000	0.208751
	16.795000	0.248215
	16.800000	0.096934
	16.805000	0.064047
	16.810000	0.208751
	16.815000	0.244927
	16.820000	0.096934
	16.825000	0.060758
	16.830000	0.208751
	16.835000	0.248215
	16.840000	0.100223
	16.845000	0.067335
	16.850000	0.205462
	16.855000	0.248215
	16.860000	0.103511
	16.865000	0.064047
	16.870000	0.205462
	16.875000	0.244927
	16.880000	0.100223
	16.885000	0.060758
	16.890000	0.212039
	16.895000	0.244927
	16.900000	0.100223
	16.905000	0.057469
	16.910000	0.208751
	16.915000	0.241638
	16.920000	0.100223
	16.925000	0.060758
	16.930000	0.205462
	16.935000	0.244927
	16.940000	0.100223
	16.945000	0.064047
	16.950000	0.205462
	16.955000	0.241638
	16.960000	0.103511
	16.965000	0.067335
	16.970000	0.202173
	16.975000	0.244927
	16.980000	0.103511
	16.985000	0.064047
	16.990000	0.205462
	16.995000	0.244927
	17.000000	0.100223
	17.005000	0.064047
	17.010000	0.205462
	17.015000	0.238349
	17.020000	0.103511
	17.025000	0.064047
	17.030000	0.205462
	17.035000	0.244927
	17.040000	0.096934
	17.045000	0.064047
	17.050000	0.212039
	17.055000	0.248215
	17.060000	0.106800
	17.065000	0.067335
	17.070000	0.212039
	17.075000	0.251504
	17.080000	0.103511
	17.085000	0.064047
	17.090000	0.208751
	17.095000	0.251504
	17.100000	0.106800
	17.105000	0.064047
	17.110000	0.212039
	17.115000	0.248215
	17.120000	0.106800
	17.125000	0.064047
	17.130000	0.208751
	17.135000	0.248215
	17.140000	0.103511
	17.145000	0.060758
	17.150000	0.212039
	17.155000	0.248215
	17.160000	0.103511
	17.165000	0.067335
	17.170000	0.205462
	17.175000	0.248215
	17.180000	0.103511
	17.185000	0.064047
	17.190000	0.205462
	17.195000	0.244927
	17.200000	0.106800
	17.205000	0.064047
	17.210000	0.205462
	17.215000	0.248215
	17.220000	0.103511
	17.225000	0.057469
	17.230000	0.208751
	17.235000	0.248215
	17.240000	0.103511
	17.245000	0.067335
	17.250000	0.208751
	17.255000	0.248215
	17.260000	0.106800
	17.265000	0.060758
	17.270000	0.208751
	17.275000	0.248215
	17.280000	0.103511
	17.285000	0.064047
	17.290000	0.205462
	17.295000	0.244927
	17.300000	0.100223
	17.305000	0.064047
	17.310000	0.208751
	17.315000	0.244927
	17.320000	0.106800
	17.325000	0.064047
	17.330000	0.202173
	17.335000	0.248215
	17.340000	0.100223
	17.345000	0.067335
	17.350000	0.208751
	17.355000	0.244927
	17.360000	0.103511
	17.365000	0.067335
	17.370000	0.208751
	17.375000	0.248215
	17.380000	0.106800
	17.385000	0.067335
	17.390000	0.205462
	17.395000	0.251504
	17.400000	0.103511
	17.405000	0.067335
	17.410000	0.212039
	17.415000	0.251504
	17.420000	0.110089
	17.425000	0.070624
	17.430000	0.212039
	17.435000	0.251504
	17.440000	0.110089
	17.445000	0.067335
	17.450000	0.208751
	17.455000	0.248215
	17.460000	0.103511
	17.465000	0.067335
	17.470000	0.208751
	17.475000	0.254793
	17.480000	0.110089
	17.485000	0.070624
	17.490000	0.208751
	17.495000	0.251504
	17.500000	0.110089
	17.505000	0.067335
	17.510000	0.208751
	17.515000	0.248215
	17.520000	0.110089
	17.525000	0.070624
	17.530000	0.215328
	17.535000	0.251504
	17.540000	0.113378
	17.545000	0.077202
	17.550000	0.218617
	17.555000	0.254793
	17.560000	0.110089
	17.565000	0.070624
	17.570000	0.215328
	17.575000	0.261370
	17.580000	0.110089
	17.585000	0.077202
	17.590000	0.215328
	17.595000	0.254793
	17.600000	0.116666
	17.605000	0.077202
	17.610000	0.215328
	17.615000	0.251504
	17.620000	0.110089
	17.625000	0.073913
	17.630000	0.212039
	17.635000	0.254793
	17.640000	0.113378
	17.645000	0.073913
	17.650000	0.215328
	17.655000	0.251504
	17.660000	0.110089
	17.665000	0.073913
	17.670000	0.212039
	17.675000	0.248215
	17.680000	0.106800
	17.685000	0.073913
	17.690000	0.212039
	17.695000	0.248215
	17.700000	0.106800
	17.705000	0.070624
	17.710000	0.212039
	17.715000	0.244927
	17.720000	0.110089
	17.725000	0.070624
	17.730000	0.212039
	17.735000	0.251504
	17.740000	0.106800
	17.745000	0.073913
	17.750000	0.215328
	17.755000	0.251504
	17.760000	0.113378
	17.765000	0.077202
	17.770000	0.215328
	17.775000	0.258081
	17.780000	0.119955
	17.785000	0.077202
	17.790000	0.225194
	17.795000	0.267948
	17.800000	0.119955
	17.805000	0.090357
	17.810000	0.228483
	17.815000	0.264659
	17.820000	0.126533
	17.825000	0.087068
	17.830000	0.225194
	17.835000	0.267948
	17.840000	0.123244
	17.845000	0.083779
	17.850000	0.221905
	17.855000	0.258081
	17.860000	0.116666
	17.865000	0.077202
	17.870000	0.215328
	17.875000	0.254793
	17.880000	0.106800
	17.885000	0.070624
	17.890000	0.208751
	17.895000	0.251504
	17.900000	0.106800
	17.905000	0.070624
	17.910000	0.212039
	17.915000	0.254793
	17.920000	0.106800
	17.925000	0.070624
	17.930000	0.215328
	17.935000	0.258081
	17.940000	0.116666
	17.945000	0.077202
	17.950000	0.221905
	17.955000	0.267948
	17.960000	0.123244
	17.965000	0.087068
	17.970000	0.225194
	17.975000	0.274525
	17.980000	0.129821
	17.985000	0.090357
	17.990000	0.231772
	17.995000	0.277814
	18.000000	0.133110
	18.005000	0.090357
	18.010000	0.231772
	18.015000	0.274525
	18.020000	0.129821
	18.025000	0.087068
	18.030000	0.221905
	18.035000	0.261370
	18.040000	0.119955
	18.045000	0.073913
	18.050000	0.212039
	18.055000	0.258081
	18.060000	0.113378
	18.065000	0.070624
	18.070000	0.208751
	18.075000	0.254793
	18.080000	0.110089
	18.085000	0.060758
	18.090000	0.205462
	18.095000	0.248215
	18.100000	0.106800
	18.105000	0.060758
	18.110000	0.208751
	18.115000	0.254793
	18.120000	0.110089
	18.125000	0.077202
	18.130000	0.215328
	18.135000	0.261370
	18.140000	0.123244
	18.145000	0.073913
	18.150000	0.221905
	18.155000	0.267948
	18.160000	0.126533
	18.165000	0.083779
	18.170000	0.225194
	18.175000	0.267948
	18.180000	0.133110
	18.185000	0.087068
	18.190000	0.225194
	18.195000	0.264659
	18.200000	0.123244
	18.205000	0.077202
	18.210000	0.221905
	18.215000	0.264659
	18.220000	0.119955
	18.225000	0.077202
	18.230000	0.218617
	18.235000	0.261370
	18.240000	0.116666
	18.245000	0.077202
	18.250000	0.212039
	18.255000	0.258081
	18.260000	0.113378
	18.265000	0.070624
	18.270000	0.212039
	18.275000	0.254793
	18.280000	0.113378
	18.285000	0.077202
	18.290000	0.212039
	18.295000	0.258081
	18.300000	0.116666
	18.305000	0.077202
	18.310000	0.215328
	18.315000	0.254793
	18.320000	0.119955
	18.325000	0.073913
	18.330000	0.221905
	18.335000	0.261370
	18.340000	0.119955
	18.345000	0.077202
	18.350000	0.218617
	18.355000	0.264659
	18.360000	0.116666
	18.365000	0.073913
	18.370000	0.221905
	18.375000	0.258081
	18.380000	0.116666
	18.385000	0.073913
	18.390000	0.215328
	18.395000	0.261370
	18.400000	0.119955
	18.405000	0.073913
	18.410000	0.215328
	18.415000	0.261370
	18.420000	0.116666
	18.425000	0.077202
	18.430000	0.212039
	18.435000	0.261370
	18.440000	0.116666
	18.445000	0.073913
	18.450000	0.212039
	18.455000	0.264659
	18.460000	0.123244
	18.465000	0.073913
	18.470000	0.215328
	18.475000	0.261370
	18.480000	0.119955
	18.485000	0.073913
	18.490000	0.215328
	18.495000	0.264659
	18.500000	0.123244
	18.505000	0.077202
	18.510000	0.218617
	18.515000	0.264659
	18.520000	0.123244
	18.525000	0.080490
	18.530000	0.221905
	18.535000	0.264659
	18.540000	0.123244
	18.545000	0.080490
	18.550000	0.215328
	18.555000	0.267948
	18.560000	0.126533
	18.565000	0.077202
	18.570000	0.218617
	18.575000	0.267948
	18.580000	0.123244
	18.585000	0.077202
	18.590000	0.221905
	18.595000	0.264659
	18.600000	0.123244
	18.605000	0.077202
	18.610000	0.218617
	18.615000	0.261370
	18.620000	0.126533
	18.625000	0.077202
	18.630000	0.221905
	18.635000	0.264659
	18.640000	0.119955
	18.645000	0.080490
	18.650000	0.218617
	18.655000	0.264659
	18.660000	0.123244
	18.665000	0.080490
	18.670000	0.221905
	18.675000	0.267948
	18.680000	0.123244
	18.685000	0.077202
	18.690000	0.221905
	18.695000	0.267948
	18.700000	0.123244
	18.705000	0.077202
	18.710000	0.218617
	18.715000	0.261370
	18.720000	0.123244
	18.725000	0.073913
	18.730000	0.218617
	18.735000	0.264659
	18.740000	0.126533
	18.745000	0.080490
	18.750000	0.218617
	18.755000	0.264659
	18.760000	0.123244
	18.765000	0.073913
	18.770000	0.215328
	18.775000	0.261370
	18.780000	0.119955
	18.785000	0.077202
	18.790000	0.218617
	18.795000	0.267948
	18.800000	0.123244
	18.805000	0.080490
	18.810000	0.221905
	18.815000	0.264659
	18.820000	0.126533
	18.825000	0.077202
	18.830000	0.221905
	18.835000	0.264659
	18.840000	0.126533
	18.845000	0.080490
	18.850000	0.215328
	18.855000	0.267948
	18.860000	0.129821
	18.865000	0.077202
	18.870000	0.221905
	18.875000	0.271236
	18.880000	0.129821
	18.885000	0.080490
	18.890000	0.221905
	18.895000	0.267948
	18.900000	0.126533
	18.905000	0.077202
	18.910000	0.221905
	18.915000	0.271236
	18.920000	0.123244
	18.925000	0.077202
	18.930000	0.215328
	18.935000	0.264659
	18.940000	0.123244
	18.945000	0.073913
	18.950000	0.218617
	18.955000	0.264659
	18.960000	0.123244
	18.965000	0.080490
	18.970000	0.221905
	18.975000	0.267948
	18.980000	0.123244
	18.985000	0.080490
	18.990000	0.221905
	18.995000	0.271236
	19.000000	0.129821
	19.005000	0.080490
	19.010000	0.215328
	19.015000	0.271236
	19.020000	0.133110
	19.025000	0.083779
	19.030000	0.221905
	19.035000	0.274525
	19.040000	0.129821
	19.045000	0.080490
	19.050000	0.225194
	19.055000	0.271236
	19.060000	0.129821
	19.065000	0.080490
	19.070000	0.221905
	19.075000	0.274525
	19.080000	0.133110
	19.085000	0.080490
	19.090000	0.221905
	19.095000	0.274525
	19.100000	0.133110
	19.105000	0.080490
	19.110000	0.225194
	19.115000	0.274525
	19.120000	0.129821
	19.125000	0.083779
	19.130000	0.218617
	19.135000	0.267948
	19.140000	0.129821
	19.145000	0.080490
	19.150000	0.221905
	19.155000	0.267948
	19.160000	0.126533
	19.165000	0.080490
	19.170000	0.221905
	19.175000	0.271236
	19.180000	0.126533
	19.185000	0.073913
	19.190000	0.218617
	19.195000	0.271236
	19.200000	0.129821
	19.205000	0.080490
	19.210000	0.218617
	19.215000	0.267948
	19.220000	0.129821
	19.225000	0.083779
	19.230000	0.221905
	19.235000	0.267948
	19.240000	0.133110
	19.245000	0.083779
	19.250000	0.225194
	19.255000	0.277814
	19.260000	0.139687
	19.265000	0.090357
	19.270000	0.228483
	19.275000	0.277814
	19.280000	0.136399
	19.285000	0.090357
	19.290000	0.228483
	19.295000	0.281102
	19.300000	0.139687
	19.305000	0.090357
	19.310000	0.225194
	19.315000	0.274525
	19.320000	0.139687
	19.325000	0.090357
	19.330000	0.228483
	19.335000	0.277814
	19.340000	0.133110
	19.345000	0.090357
	19.350000	0.228483
	19.355000	0.274525
	19.360000	0.133110
	19.365000	0.087068
	19.370000	0.228483
	19.375000	0.274525
	19.380000	0.136399
	19.385000	0.093645
	19.390000	0.225194
	19.395000	0.277814
	19.400000	0.133110
	19.405000	0.087068
	19.410000	0.225194
	19.415000	0.277814
	19.420000	0.139687
	19.425000	0.093645
	19.430000	0.231772
	19.435000	0.274525
	19.440000	0.136399
	19.445000	0.093645
	19.450000	0.235060
	19.455000	0.277814
	19.460000	0.136399
	19.465000	0.090357
	19.470000	0.228483
	19.475000	0.274525
	19.480000	0.133110
	19.485000	0.087068
	19.490000	0.228483
	19.495000	0.274525
	19.500000	0.133110
	19.505000	0.090357
	19.510000	0.225194
	19.515000	0.277814
	19.520000	0.136399
	19.525000	0.087068
	19.530000	0.225194
	19.535000	0.277814
	19.540000	0.136399
	19.545000	0.090357
	19.550000	0.228483
	19.555000	0.277814
	19.560000	0.142976
	19.565000	0.093645
	19.570000	0.231772
	19.575000	0.287680
	19.580000	0.146265
	19.585000	0.096934
	19.590000	0.235060
	19.595000	0.281102
	19.600000	0.142976
	19.605000	0.093645
	19.610000	0.228483
	19.615000	0.274525
	19.620000	0.139687
	19.625000	0.087068
	19.630000	0.225194
	19.635000	0.274525
	19.640000	0.129821
	19.645000	0.083779
	19.650000	0.221905
	19.655000	0.267948
	19.660000	0.133110
	19.665000	0.087068
	19.670000	0.221905
	19.675000	0.274525
	19.680000	0.129821
	19.685000	0.083779
	19.690000	0.228483
	19.695000	0.274525
	19.700000	0.139687
	19.705000	0.093645
	19.710000	0.231772
	19.715000	0.281102
	19.720000	0.142976
	19.725000	0.103511
	19.730000	0.238349
	19.735000	0.290969
	19.740000	0.149554
	19.745000	0.100223
	19.750000	0.238349
	19.755000	0.290969
	19.760000	0.149554
	19.765000	0.100223
	19.770000	0.231772
	19.775000	0.287680
	19.780000	0.146265
	19.785000	0.090357
	19.790000	0.228483
	19.795000	0.277814
	19.800000	0.136399
	19.805000	0.080490
	19.810000	0.218617
	19.815000	0.271236
	19.820000	0.126533
	19.825000	0.080490
	19.830000	0.212039
	19.835000	0.264659
	19.840000	0.123244
	19.845000	0.070624
	19.850000	0.208751
	19.855000	0.264659
	19.860000	0.119955
	19.865000	0.070624
	19.870000	0.208751
	19.875000	0.264659
	19.880000	0.129821
	19.885000	0.077202
	19.890000	0.212039
	19.895000	0.267948
	19.900000	0.133110
	19.905000	0.083779
	19.910000	0.221905
	19.915000	0.277814
	19.920000	0.139687
	19.925000	0.087068
	19.930000	0.225194
	19.935000	0.277814
	19.940000	0.142976
	19.945000	0.087068
	19.950000	0.225194
	19.955000	0.281102
	19.960000	0.139687
	19.965000	0.083779
	19.970000	0.228483
	19.975000	0.277814
	19.980000	0.136399
	19.985000	0.080490
	19.990000	0.221905
	19.995000	0.271236
	20.000000	0.126533
	20.005000	0.077202
	20.010000	0.218617
	20.015000	0.267948
	20.020000	0.126533
	20.025000	0.070624
	20.030000	0.218617
	20.035000	0.261370
	20.040000	0.123244
	20.045000	0.070624
	20.050000	0.212039
	20.055000	0.264659
	20.060000	0.126533
	20.065000	0.077202
	20.070000	0.212039
	20.075000	0.264659
	20.080000	0.126533
	20.085000	0.077202
	20.090000	0.215328
	20.095000	0.267948
	20.100000	0.136399
	20.105000	0.080490
	20.110000	0.218617
	20.115000	0.267948
	20.120000	0.133110
	20.125000	0.083779
	20.130000	0.225194
	20.135000	0.277814
	20.140000	0.139687
	20.145000	0.080490
	20.150000	0.228483
	20.155000	0.277814
	20.160000	0.136399
	20.165000	0.080490
	20.170000	0.218617
	20.175000	0.277814
	20.180000	0.133110
	20.185000	0.077202
	20.190000	0.218617
	20.195000	0.274525
	20.200000	0.129821
	20.205000	0.083779
	20.210000	0.221905
	20.215000	0.277814
	20.220000	0.136399
	20.225000	0.080490
	20.230000	0.221905
	20.235000	0.274525
	20.240000	0.136399
	20.245000	0.080490
	20.250000	0.221905
	20.255000	0.274525
	20.260000	0.133110
	20.265000	0.080490
	20.270000	0.221905
	20.275000	0.281102
	20.280000	0.136399
	20.285000	0.083779
	20.290000	0.218617
	20.295000	0.274525
	20.300000	0.133110
	20.305000	0.077202
	20.310000	0.218617
	20.315000	0.274525
	20.320000	0.133110
	20.325000	0.080490
	20.330000	0.218617
	20.335000	0.274525
	20.340000	0.136399
	20.345000	0.080490
	20.350000	0.215328
	20.355000	0.274525
	20.360000	0.136399
	20.365000	0.077202
	20.370000	0.218617
	20.375000	0.271236
	20.380000	0.129821
	20.385000	0.080490
	20.390000	0.218617
	20.395000	0.274525
	20.400000	0.129821
	20.405000	0.080490
	20.410000	0.218617
	20.415000	0.274525
	20.420000	0.133110
	20.425000	0.077202
	20.430000	0.215328
	20.435000	0.271236
	20.440000	0.133110
	20.445000	0.077202
	20.450000	0.215328
	20.455000	0.271236
	20.460000	0.129821
	20.465000	0.077202
	20.470000	0.212039
	20.475000	0.267948
	20.480000	0.133110
	20.485000	0.077202
	20.490000	0.215328
	20.495000	0.264659
	20.500000	0.136399
	20.505000	0.077202
	20.510000	0.215328
	20.515000	0.274525
	20.520000	0.136399
	20.525000	0.077202
	20.530000	0.221905
	20.535000	0.274525
	20.540000	0.129821
	20.545000	0.083779
	20.550000	0.221905
	20.555000	0.277814
	20.560000	0.136399
	20.565000	0.083779
	20.570000	0.218617
	20.575000	0.274525
	20.580000	0.136399
	20.585000	0.083779
	20.590000	0.218617
	20.595000	0.274525
	20.600000	0.136399
	20.605000	0.080490
	20.610000	0.218617
	20.615000	0.274525
	20.620000	0.133110
	20.625000	0.080490
	20.630000	0.218617
	20.635000	0.274525
	20.640000	0.133110
	20.645000	0.083779
	20.650000	0.218617
	20.655000	0.271236
	20.660000	0.136399
	20.665000	0.080490
	20.670000	0.218617
	20.675000	0.274525
	20.680000	0.136399
	20.685000	0.083779
	20.690000	0.218617
	20.695000	0.277814
	20.700000	0.136399
	20.705000	0.080490
	20.710000	0.215328
	20.715000	0.274525
	20.720000	0.136399
	20.725000	0.077202
	20.730000	0.215328
	20.735000	0.274525
	20.740000	0.133110
	20.745000	0.080490
	20.750000	0.218617
	20.755000	0.277814
	20.760000	0.133110
	20.765000	0.080490
	20.770000	0.215328
	20.775000	0.274525
	20.780000	0.133110
	20.785000	0.080490
	20.790000	0.218617
	20.795000	0.277814
	20.800000	0.136399
	20.805000	0.077202
	20.810000	0.215328
	20.815000	0.277814
	20.820000	0.136399
	20.825000	0.080490
	20.830000	0.218617
	20.835000	0.274525
	20.840000	0.139687
	20.845000	0.083779
	20.850000	0.221905
	20.855000	0.277814
	20.860000	0.139687
	20.865000	0.083779
	20.870000	0.221905
	20.875000	0.277814
	20.880000	0.136399
	20.885000	0.087068
	20.890000	0.225194
	20.895000	0.277814
	20.900000	0.136399
	20.905000	0.080490
	20.910000	0.218617
	20.915000	0.277814
	20.920000	0.139687
	20.925000	0.080490
	20.930000	0.218617
	20.935000	0.274525
	20.940000	0.136399
	20.945000	0.083779
	20.950000	0.218617
	20.955000	0.277814
	20.960000	0.136399
	20.965000	0.083779
	20.970000	0.218617
	20.975000	0.277814
	20.980000	0.142976
	20.985000	0.083779
	20.990000	0.221905
	20.995000	0.281102
	21.000000	0.139687
	21.005000	0.083779
	21.010000	0.218617
	21.015000	0.277814
	21.020000	0.136399
	21.025000	0.083779
	21.030000	0.221905
	21.035000	0.277814
	21.040000	0.139687
	21.045000	0.083779
	21.050000	0.221905
	21.055000	0.277814
	21.060000	0.139687
	21.065000	0.083779
	21.070000	0.221905
	21.075000	0.277814
	21.080000	0.142976
	21.085000	0.083779
	21.090000	0.221905
	21.095000	0.277814
	21.100000	0.136399
	21.105000	0.080490
	21.110000	0.215328
	21.115000	0.277814
	21.120000	0.136399
	21.125000	0.080490
	21.130000	0.218617
	21.135000	0.277814
	21.140000	0.139687
	21.145000	0.087068
	21.150000	0.218617
	21.155000	0.277814
	21.160000	0.139687
	21.165000	0.087068
	21.170000	0.218617
	21.175000	0.277814
	21.180000	0.142976
	21.185000	0.080490
	21.190000	0.215328
	21.195000	0.274525
	21.200000	0.139687
	21.205000	0.083779
	21.210000	0.215328
	21.215000	0.281102
	21.220000	0.142976
	21.225000	0.080490
	21.230000	0.225194
	21.235000	0.284391
	21.240000	0.142976
	21.245000	0.087068
	21.250000	0.225194
	21.255000	0.277814
	21.260000	0.142976
	21.265000	0.087068
	21.270000	0.225194
	21.275000	0.281102
	21.280000	0.142976
	21.285000	0.083779
	21.290000	0.221905
	21.295000	0.274525
	21.300000	0.142976
	21.305000	0.080490
	21.310000	0.215328
	21.315000	0.277814
	21.320000	0.136399
	21.325000	0.080490
	21.330000	0.215328
	21.335000	0.274525
	21.340000	0.139687
	21.345000	0.083779
	21.350000	0.218617
	21.355000	0.274525
	21.360000	0.142976
	21.365000	0.083779
	21.370000	0.218617
	21.375000	0.277814
	21.380000	0.142976
	21.385000	0.083779
	21.390000	0.225194
	21.395000	0.277814
	21.400000	0.142976
	21.405000	0.093645
	21.410000	0.228483
	21.415000	0.284391
	21.420000	0.149554
	21.425000	0.093645
	21.430000	0.225194
	21.435000	0.277814
	21.440000	0.146265
	21.445000	0.093645
	21.450000	0.225194
	21.455000	0.277814
	21.460000	0.142976
	21.465000	0.087068
	21.470000	0.225194
	21.475000	0.281102
	21.480000	0.133110
	21.485000	0.083779
	21.490000	0.218617
	21.495000	0.274525
	21.500000	0.136399
	21.505000	0.087068
	21.510000	0.215328
	21.515000	0.267948
	21.520000	0.136399
	21.525000	0.083779
	21.530000	0.212039
	21.535000	0.267948
	21.540000	0.136399
	21.545000	0.080490
	21.550000	0.208751
	21.555000	0.267948
	21.560000	0.133110
	21.565000	0.080490
	21.570000	0.218617
	21.575000	0.274525
	21.580000	0.136399
	21.585000	0.083779
	21.590000	0.221905
	21.595000	0.274525
	21.600000	0.136399
	21.605000	0.080490
	21.610000	0.215328
	21.615000	0.274525
	21.620000	0.142976
	21.625000	0.083779
	21.630000	0.218617
	21.635000	0.274525
	21.640000	0.142976
	21.645000	0.087068
	21.650000	0.225194
	21.655000	0.281102
	21.660000	0.146265
	21.665000	0.093645
	21.670000	0.228483
	21.675000	0.281102
	21.680000	0.142976
	21.685000	0.093645
	21.690000	0.225194
	21.695000	0.281102
	21.700000	0.149554
	21.705000	0.090357
	21.710000	0.221905
	21.715000	0.281102
	21.720000	0.136399
	21.725000	0.087068
	21.730000	0.215328
	21.735000	0.274525
	21.740000	0.136399
	21.745000	0.083779
	21.750000	0.215328
	21.755000	0.274525
	21.760000	0.136399
	21.765000	0.083779
	21.770000	0.218617
	21.775000	0.274525
	21.780000	0.146265
	21.785000	0.090357
	21.790000	0.225194
	21.795000	0.281102
	21.800000	0.146265
	21.805000	0.087068
	21.810000	0.225194
	21.815000	0.281102
	21.820000	0.152842
	21.825000	0.093645
	21.830000	0.225194
	21.835000	0.287680
	21.840000	0.156131
	21.845000	0.096934
	21.850000	0.228483
	21.855000	0.287680
	21.860000	0.149554
	21.865000	0.090357
	21.870000	0.221905
	21.875000	0.284391
	21.880000	0.146265
	21.885000	0.090357
	21.890000	0.221905
	21.895000	0.277814
	21.900000	0.139687
	21.905000	0.080490
	21.910000	0.212039
	21.915000	0.274525
	21.920000	0.136399
	21.925000	0.077202
	21.930000	0.208751
	21.935000	0.274525
	21.940000	0.136399
	21.945000	0.073913
	21.950000	0.212039
	21.955000	0.274525
	21.960000	0.139687
	21.965000	0.077202
	21.970000	0.215328
	21.975000	0.281102
	21.980000	0.146265
	21.985000	0.083779
	21.990000	0.218617
	21.995000	0.287680
	22.000000	0.146265
	22.005000	0.090357
	22.010000	0.225194
	22.015000	0.287680
	22.020000	0.156131
	22.025000	0.093645
	22.030000	0.228483
	22.035000	0.287680
	22.040000	0.152842
	22.045000	0.090357
	22.050000	0.221905
	22.055000	0.281102
	22.060000	0.146265
	22.065000	0.083779
	22.070000	0.215328
	22.075000	0.281102
	22.080000	0.142976
	22.085000	0.080490
	22.090000	0.218617
	22.095000	0.274525
	22.100000	0.139687
	22.105000	0.077202
	22.110000	0.215328
	22.115000	0.277814
	22.120000	0.139687
	22.125000	0.080490
	22.130000	0.215328
	22.135000	0.277814
	22.140000	0.142976
	22.145000	0.083779
	22.150000	0.221905
	22.155000	0.281102
	22.160000	0.146265
	22.165000	0.090357
	22.170000	0.221905
	22.175000	0.281102
	22.180000	0.146265
	22.185000	0.090357
	22.190000	0.221905
	22.195000	0.281102
	22.200000	0.142976
	22.205000	0.083779
	22.210000	0.221905
	22.215000	0.284391
	22.220000	0.149554
	22.225000	0.087068
	22.230000	0.221905
	22.235000	0.284391
	22.240000	0.146265
	22.245000	0.087068
	22.250000	0.218617
	22.255000	0.281102
	22.260000	0.142976
	22.265000	0.083779
	22.270000	0.218617
	22.275000	0.284391
	22.280000	0.146265
	22.285000	0.083779
	22.290000	0.218617
	22.295000	0.284391
	22.300000	0.146265
	22.305000	0.087068
	22.310000	0.218617
	22.315000	0.281102
	22.320000	0.146265
	22.325000	0.083779
	22.330000	0.218617
	22.335000	0.281102
	22.340000	0.149554
	22.345000	0.080490
	22.350000	0.218617
	22.355000	0.281102
	22.360000	0.146265
	22.365000	0.083779
	22.370000	0.215328
	22.375000	0.277814
	22.380000	0.149554
	22.385000	0.080490
	22.390000	0.215328
	22.395000	0.284391
	22.400000	0.149554
	22.405000	0.083779
	22.410000	0.218617
	22.415000	0.284391
	22.420000	0.146265
	22.425000	0.083779
	22.430000	0.221905
	22.435000	0.284391
	22.440000	0.149554
	22.445000	0.090357
	22.450000	0.221905
	22.455000	0.287680
	22.460000	0.152842
	22.465000	0.090357
	22.470000	0.221905
	22.475000	0.284391
	22.480000	0.146265
	22.485000	0.087068
	22.490000	0.221905
	22.495000	0.284391
	22.500000	0.146265
	22.505000	0.083779
	22.510000	0.221905
	22.515000	0.284391
	22.520000	0.149554
	22.525000	0.087068
	22.530000	0.218617
	22.535000	0.284391
	22.540000	0.149554
	22.545000	0.087068
	22.550000	0.221905
	22.555000	0.284391
	22.560000	0.146265
	22.565000	0.083779
	22.570000	0.215328
	22.575000	0.284391
	22.580000	0.146265
	22.585000	0.090357
	22.590000	0.218617
	22.595000	0.284391
	22.600000	0.149554
	22.605000	0.087068
	22.610000	0.221905
	22.615000	0.281102
	22.620000	0.152842
	22.625000	0.087068
	22.630000	0.221905
	22.635000	0.287680
	22.640000	0.149554
	22.645000	0.087068
	22.650000	0.221905
	22.655000	0.287680
	22.660000	0.152842
	22.665000	0.087068
	22.670000	0.218617
	22.675000	0.287680
	22.680000	0.152842
	22.685000	0.087068
	22.690000	0.218617
	22.695000	0.284391
	22.700000	0.149554
	22.705000	0.087068
	22.710000	0.218617
	22.715000	0.281102
	22.720000	0.149554
	22.725000	0.087068
	22.730000	0.221905
	22.735000	0.281102
	22.740000	0.146265
	22.745000	0.087068
	22.750000	0.218617
	22.755000	0.284391
	22.760000	0.146265
	22.765000	0.083779
	22.770000	0.215328
	22.775000	0.277814
	22.780000	0.146265
	22.785000	0.083779
	22.790000	0.215328
	22.795000	0.287680
	22.800000	0.149554
	22.805000	0.087068
	22.810000	0.221905
	22.815000	0.281102
	22.820000	0.152842
	22.825000	0.080490
	22.830000	0.221905
	22.835000	0.287680
	22.840000	0.149554
	22.845000	0.083779
	22.850000	0.218617
	22.855000	0.284391
	22.860000	0.146265
	22.865000	0.087068
	22.870000	0.221905
	22.875000	0.284391
	22.880000	0.152842
	22.885000	0.087068
	22.890000	0.215328
	22.895000	0.287680
	22.900000	0.149554
	22.905000	0.087068
	22.910000	0.225194
	22.915000	0.284391
	22.920000	0.149554
	22.925000	0.087068
	22.930000	0.218617
	22.935000	0.284391
	22.940000	0.152842
	22.945000	0.087068
	22.950000	0.218617
	22.955000	0.284391
	22.960000	0.149554
	22.965000	0.087068
	22.970000	0.221905
	22.975000	0.284391
	22.980000	0.146265
	22.985000	0.087068
	22.990000	0.221905
	22.995000	0.287680
	23.000000	0.152842
	23.005000	0.087068
	23.010000	0.221905
	23.015000	0.284391
	23.020000	0.152842
	23.025000	0.083779
	23.030000	0.215328
	23.035000	0.287680
	23.040000	0.149554
	23.045000	0.083779
	23.050000	0.212039
	23.055000	0.287680
	23.060000	0.149554
	23.065000	0.083779
	23.070000	0.215328
	23.075000	0.284391
	23.080000	0.149554
	23.085000	0.083779
	23.090000	0.215328
	23.095000	0.284391
	23.100000	0.152842
	23.105000	0.087068
	23.110000	0.218617
	23.115000	0.284391
	23.120000	0.149554
	23.125000	0.083779
	23.130000	0.221905
	23.135000	0.281102
	23.140000	0.152842
	23.145000	0.083779
	23.150000	0.221905
	23.155000	0.287680
	23.160000	0.152842
	23.165000	0.087068
	23.170000	0.225194
	23.175000	0.287680
	23.180000	0.152842
	23.185000	0.083779
	23.190000	0.221905
	23.195000	0.287680
	23.200000	0.156131
	23.205000	0.087068
	23.210000	0.225194
	23.215000	0.287680
	23.220000	0.159420
	23.225000	0.087068
	23.230000	0.218617
	23.235000	0.287680
	23.240000	0.152842
	23.245000	0.093645
	23.250000	0.221905
	23.255000	0.287680
	23.260000	0.159420
	23.265000	0.093645
	23.270000	0.221905
	23.275000	0.287680
	23.280000	0.149554
	23.285000	0.087068
	23.290000	0.221905
	23.295000	0.287680
	23.300000	0.156131
	23.305000	0.087068
	23.310000	0.221905
	23.315000	0.287680
	23.320000	0.152842
	23.325000	0.090357
	23.330000	0.221905
	23.335000	0.290969
	23.340000	0.156131
	23.345000	0.087068
	23.350000	0.221905
	23.355000	0.290969
	23.360000	0.156131
	23.365000	0.090357
	23.370000	0.218617
	23.375000	0.290969
	23.380000	0.156131
	23.385000	0.087068
	23.390000	0.218617
	23.395000	0.290969
	23.400000	0.156131
	23.405000	0.087068
	23.410000	0.221905
	23.415000	0.287680
	23.420000	0.152842
	23.425000	0.090357
	23.430000	0.218617
	23.435000	0.287680
	23.440000	0.152842
	23.445000	0.090357
	23.450000	0.221905
	23.455000	0.287680
	23.460000	0.152842
	23.465000	0.087068
	23.470000	0.218617
	23.475000	0.287680
	23.480000	0.156131
	23.485000	0.090357
	23.490000	0.215328
	23.495000	0.284391
	23.500000	0.156131
	23.505000	0.083779
	23.510000	0.218617
	23.515000	0.281102
	23.520000	0.146265
	23.525000	0.080490
	23.530000	0.215328
	23.535000	0.281102
	23.540000	0.149554
	23.545000	0.083779
	23.550000	0.221905
	23.555000	0.281102
	23.560000	0.156131
	23.565000	0.087068
	23.570000	0.218617
	23.575000	0.284391
	23.580000	0.152842
	23.585000	0.093645
	23.590000	0.221905
	23.595000	0.287680
	23.600000	0.159420
	23.605000	0.093645
	23.610000	0.225194
	23.615000	0.290969
	23.620000	0.159420
	23.625000	0.090357
	23.630000	0.225194
	23.635000	0.290969
	23.640000	0.156131
	23.645000	0.100223
	23.650000	0.221905
	23.655000	0.290969
	23.660000	0.159420
	23.665000	0.096934
	23.670000	0.231772
	23.675000	0.287680
	23.680000	0.156131
	23.685000	0.093645
	23.690000	0.225194
	23.695000	0.287680
	23.700000	0.159420
	23.705000	0.093645
	23.710000	0.225194
	23.715000	0.287680
	23.720000	0.159420
	23.725000	0.093645
	23.730000	0.221905
	23.735000	0.290969
	23.740000	0.152842
	23.745000	0.093645
	23.750000	0.225194
	23.755000	0.284391
	23.760000	0.159420
	23.765000	0.090357
	23.770000	0.221905
	23.775000	0.284391
	23.780000	0.162708
	23.785000	0.090357
	23.790000	0.221905
	23.795000	0.290969
	23.800000	0.156131
	23.805000	0.093645
	23.810000	0.225194
	23.815000	0.297546
	23.820000	0.162708
	23.825000	0.103511
	23.830000	0.235060
	23.835000	0.297546
	23.840000	0.165997
	23.845000	0.103511
	23.850000	0.235060
	23.855000	0.300835
	23.860000	0.169286
	23.865000	0.103511
	23.870000	0.238349
	23.875000	0.297546
	23.880000	0.172575
	23.885000	0.096934
	23.890000	0.228483
	23.895000	0.290969
	23.900000	0.165997
	23.905000	0.096934
	23.910000	0.225194
	23.915000	0.287680
	23.920000	0.156131
	23.925000	0.087068
	23.930000	0.218617
	23.935000	0.287680
	23.940000	0.159420
	23.945000	0.090357
	23.950000	0.221905
	23.955000	0.284391
	23.960000	0.162708
	23.965000	0.090357
	23.970000	0.225194
	23.975000	0.297546
	23.980000	0.162708
	23.985000	0.096934
	23.990000	0.228483
	23.995000	0.297546
	24.000000	0.172575
	24.005000	0.100223
	24.010000	0.231772
	24.015000	0.300835
	24.020000	0.175863
	24.025000	0.106800
	24.030000	0.235060
	24.035000	0.304124
	24.040000	0.165997
	24.045000	0.106800
	24.050000	0.235060
	24.055000	0.300835
	24.060000	0.169286
	24.065000	0.093645
	24.070000	0.225194
	24.075000	0.297546
	24.080000	0.162708
	24.085000	0.090357
	24.090000	0.218617
	24.095000	0.284391
	24.100000	0.152842
	24.105000	0.080490
	24.110000	0.215328
	24.115000	0.284391
	24.120000	0.149554
	24.125000	0.087068
	24.130000	0.212039
	24.135000	0.287680
	24.140000	0.152842
	24.145000	0.090357
	24.150000	0.218617
	24.155000	0.290969
	24.160000	0.159420
	24.165000	0.093645
	24.170000	0.225194
	24.175000	0.294257
	24.180000	0.169286
	24.185000	0.100223
	24.190000	0.225194
	24.195000	0.300835
	24.200000	0.169286
	24.205000	0.100223
	24.210000	0.231772
	24.215000	0.300835
	24.220000	0.169286
	24.225000	0.096934
	24.230000	0.225194
	24.235000	0.297546
	24.240000	0.159420
	24.245000	0.093645
	24.250000	0.221905
	24.255000	0.294257
	24.260000	0.159420
	24.265000	0.090357
	24.270000	0.215328
	24.275000	0.287680
	24.280000	0.159420
	24.285000	0.090357
	24.290000	0.215328
	24.295000	0.287680
	24.300000	0.159420
	24.305000	0.090357
	24.310000	0.215328
	24.315000	0.290969
	24.320000	0.159420
	24.325000	0.090357
	24.330000	0.225194
	24.335000	0.294257
	24.340000	0.159420
	24.345000	0.090357
	24.350000	0.225194
	24.355000	0.297546
	24.360000	0.165997
	24.365000	0.093645
	24.370000	0.221905
	24.375000	0.290969
	24.380000	0.159420
	24.385000	0.093645
	24.390000	0.225194
	24.395000	0.290969
	24.400000	0.162708
	24.405000	0.090357
	24.410000	0.221905
	24.415000	0.294257
	24.420000	0.162708
	24.425000	0.090357
	24.430000	0.221905
	24.435000	0.290969
	24.440000	0.159420
	24.445000	0.090357
	24.450000	0.221905
	24.455000	0.284391
	24.460000	0.159420
	24.465000	0.090357
	24.470000	0.221905
	24.475000	0.294257
	24.480000	0.162708
	24.485000	0.093645
	24.490000	0.221905
	24.495000	0.290969
	24.500000	0.159420
	24.505000	0.090357
	24.510000	0.221905
	24.515000	0.290969
	24.520000	0.162708
	24.525000	0.087068
	24.530000	0.221905
	24.535000	0.287680
	24.540000	0.159420
	24.545000	0.090357
	24.550000	0.218617
	24.555000	0.294257
	24.560000	0.156131
	24.565000	0.090357
	24.570000	0.218617
	24.575000	0.287680
	24.580000	0.159420
	24.585000	0.093645
	24.590000	0.221905
	24.595000	0.287680
	24.600000	0.162708
	24.605000	0.087068
	24.610000	0.221905
	24.615000	0.290969
	24.620000	0.159420
	24.625000	0.090357
	24.630000	0.225194
	24.635000	0.290969
	24.640000	0.162708
	24.645000	0.090357
	24.650000	0.225194
	24.655000	0.290969
	24.660000	0.165997
	24.665000	0.090357
	24.670000	0.221905
	24.675000	0.294257
	24.680000	0.162708
	24.685000	0.087068
	24.690000	0.218617
	24.695000	0.294257
	24.700000	0.165997
	24.705000	0.090357
	24.710000	0.221905
	24.715000	0.294257
	24.720000	0.162708
	24.725000	0.087068
	24.730000	0.218617
	24.735000	0.287680
	24.740000	0.159420
	24.745000	0.090357
	24.750000	0.221905
	24.755000	0.290969
	24.760000	0.162708
	24.765000	0.087068
	24.770000	0.218617
	24.775000	0.290969
	24.780000	0.162708
	24.785000	0.093645
	24.790000	0.215328
	24.795000	0.294257
	24.800000	0.159420
	24.805000	0.090357
	24.810000	0.218617
	24.815000	0.287680
	24.820000	0.162708
	24.825000	0.090357
	24.830000	0.221905
	24.835000	0.294257
	24.840000	0.159420
	24.845000	0.087068
	24.850000	0.221905
	24.855000	0.290969
	24.860000	0.159420
	24.865000	0.087068
	24.870000	0.215328
	24.875000	0.294257
	24.880000	0.162708
	24.885000	0.087068
	24.890000	0.218617
	24.895000	0.287680
	24.900000	0.162708
	24.905000	0.087068
	24.910000	0.215328
	24.915000	0.290969
	24.920000	0.159420
	24.925000	0.090357
	24.930000	0.218617
	24.935000	0.290969
	24.940000	0.162708
	24.945000	0.083779
	24.950000	0.212039
	24.955000	0.290969
	24.960000	0.162708
	24.965000	0.090357
	24.970000	0.215328
	24.975000	0.290969
	24.980000	0.159420
	24.985000	0.087068
	24.990000	0.215328
	24.995000	0.287680
	25.000000	0.159420
	25.005000	0.090357
	25.010000	0.215328
	25.015000	0.287680
	25.020000	0.162708
	25.025000	0.087068
	25.030000	0.215328
	25.035000	0.290969
	25.040000	0.162708
	25.045000	0.087068
	25.050000	0.215328
	25.055000	0.287680
	25.060000	0.169286
	25.065000	0.090357
	25.070000	0.218617
	25.075000	0.294257
	25.080000	0.162708
	25.085000	0.083779
	25.090000	0.221905
	25.095000	0.290969
	25.100000	0.162708
	25.105000	0.090357
	25.110000	0.218617
	25.115000	0.290969
	25.120000	0.162708
	25.125000	0.090357
	25.130000	0.218617
	25.135000	0.287680
	25.140000	0.156131
	25.145000	0.083779
	25.150000	0.212039
	25.155000	0.287680
	25.160000	0.159420
	25.165000	0.080490
	25.170000	0.215328
	25.175000	0.287680
	25.180000	0.159420
	25.185000	0.083779
	25.190000	0.212039
	25.195000	0.290969
	25.200000	0.156131
	25.205000	0.087068
	25.210000	0.208751
	25.215000	0.290969
	25.220000	0.159420
	25.225000	0.083779
	25.230000	0.215328
	25.235000	0.287680
	25.240000	0.162708
	25.245000	0.087068
	25.250000	0.212039
	25.255000	0.290969
	25.260000	0.162708
	25.265000	0.083779
	25.270000	0.212039
	25.275000	0.287680
	25.280000	0.159420
	25.285000	0.083779
	25.290000	0.212039
	25.295000	0.290969
	25.300000	0.162708
	25.305000	0.087068
	25.310000	0.212039
	25.315000	0.287680
	25.320000	0.156131
	25.325000	0.083779
	25.330000	0.208751
	25.335000	0.287680
	25.340000	0.159420
	25.345000	0.083779
	25.350000	0.212039
	25.355000	0.290969
	25.360000	0.162708
	25.365000	0.080490
	25.370000	0.208751
	25.375000	0.290969
	25.380000	0.162708
	25.385000	0.080490
	25.390000	0.212039
	25.395000	0.287680
	25.400000	0.159420
	25.405000	0.083779
	25.410000	0.212039
	25.415000	0.287680
	25.420000	0.159420
	25.425000	0.087068
	25.430000	0.212039
	25.435000	0.290969
	25.440000	0.159420
	25.445000	0.080490
	25.450000	0.208751
	25.455000	0.287680
	25.460000	0.159420
	25.465000	0.083779
	25.470000	0.208751
	25.475000	0.290969
	25.480000	0.159420
	25.485000	0.080490
	25.490000	0.205462
	25.495000	0.290969
	25.500000	0.156131
	25.505000	0.083779
	25.510000	0.208751
	25.515000	0.281102
	25.520000	0.159420
	25.525000	0.087068
	25.530000	0.208751
	25.535000	0.290969
	25.540000	0.162708
	25.545000	0.087068
	25.550000	0.218617
	25.555000	0.287680
	25.560000	0.162708
	25.565000	0.080490
	25.570000	0.212039
	25.575000	0.284391
	25.580000	0.159420
	25.585000	0.087068
	25.590000	0.208751
	25.595000	0.284391
	25.600000	0.159420
	25.605000	0.090357
	25.610000	0.215328
	25.615000	0.290969
	25.620000	0.165997
	25.625000	0.090357
	25.630000	0.212039
	25.635000	0.287680
	25.640000	0.165997
	25.645000	0.087068
	25.650000	0.215328
	25.655000	0.287680
	25.660000	0.159420
	25.665000	0.083779
	25.670000	0.212039
	25.675000	0.284391
	25.680000	0.159420
	25.685000	0.087068
	25.690000	0.205462
	25.695000	0.281102
	25.700000	0.159420
	25.705000	0.080490
	25.710000	0.202173
	25.715000	0.284391
	25.720000	0.156131
	25.725000	0.077202
	25.730000	0.202173
	25.735000	0.277814
	25.740000	0.159420
	25.745000	0.080490
	25.750000	0.208751
	25.755000	0.284391
	25.760000	0.159420
	25.765000	0.083779
	25.770000	0.212039
	25.775000	0.284391
	25.780000	0.162708
	25.785000	0.090357
	25.790000	0.225194
	25.795000	0.297546
	25.800000	0.175863
	25.805000	0.096934
	25.810000	0.228483
	25.815000	0.300835
	25.820000	0.175863
	25.825000	0.103511
	25.830000	0.228483
	25.835000	0.300835
	25.840000	0.179152
	25.845000	0.100223
	25.850000	0.221905
	25.855000	0.300835
	25.860000	0.169286
	25.865000	0.090357
	25.870000	0.215328
	25.875000	0.287680
	25.880000	0.159420
	25.885000	0.080490
	25.890000	0.202173
	25.895000	0.277814
	25.900000	0.156131
	25.905000	0.077202
	25.910000	0.202173
	25.915000	0.274525
	25.920000	0.149554
	25.925000	0.073913
	25.930000	0.202173
	25.935000	0.281102
	25.940000	0.156131
	25.945000	0.083779
	25.950000	0.208751
	25.955000	0.284391
	25.960000	0.169286
	25.965000	0.093645
	25.970000	0.218617
	25.975000	0.297546
	25.980000	0.172575
	25.985000	0.096934
	25.990000	0.225194
	25.995000	0.307412
	26.000000	0.179152
	26.005000	0.100223
	26.010000	0.225194
	26.015000	0.300835
	26.020000	0.175863
	26.025000	0.096934
	26.030000	0.221905
	26.035000	0.300835
	26.040000	0.172575
	26.045000	0.096934
	26.050000	0.215328
	26.055000	0.290969
	26.060000	0.165997
	26.065000	0.090357
	26.070000	0.208751
	26.075000	0.287680
	26.080000	0.159420
	26.085000	0.077202
	26.090000	0.205462
	26.095000	0.281102
	26.100000	0.156131
	26.105000	0.077202
	26.110000	0.202173
	26.115000	0.281102
	26.120000	0.156131
	26.125000	0.083779
	26.130000	0.208751
	26.135000	0.287680
	26.140000	0.159420
	26.145000	0.080490
	26.150000	0.208751
	26.155000	0.290969
	26.160000	0.169286
	26.165000	0.090357
	26.170000	0.215328
	26.175000	0.294257
	26.180000	0.172575
	26.185000	0.090357
	26.190000	0.221905
	26.195000	0.300835
	26.200000	0.172575
	26.205000	0.090357
	26.210000	0.221905
	26.215000	0.294257
	26.220000	0.172575
	26.225000	0.096934
	26.230000	0.215328
	26.235000	0.290969
	26.240000	0.165997
	26.245000	0.087068
	26.250000	0.212039
	26.255000	0.287680
	26.260000	0.162708
	26.265000	0.083779
	26.270000	0.208751
	26.275000	0.287680
	26.280000	0.162708
	26.285000	0.083779
	26.290000	0.205462
	26.295000	0.284391
	26.300000	0.162708
	26.305000	0.080490
	26.310000	0.202173
	26.315000	0.284391
	26.320000	0.162708
	26.325000	0.083779
	26.330000	0.208751
	26.335000	0.287680
	26.340000	0.162708
	26.345000	0.083779
	26.350000	0.212039
	26.355000	0.290969
	26.360000	0.165997
	26.365000	0.090357
	26.370000	0.208751
	26.375000	0.290969
	26.380000	0.165997
	26.385000	0.090357
	26.390000	0.212039
	26.395000	0.294257
	26.400000	0.169286
	26.405000	0.083779
	26.410000	0.212039
	26.415000	0.290969
	26.420000	0.169286
	26.425000	0.083779
	26.430000	0.208751
	26.435000	0.294257
	26.440000	0.165997
	26.445000	0.083779
	26.450000	0.208751
	26.455000	0.294257
	26.460000	0.162708
	26.465000	0.087068
	26.470000	0.208751
	26.475000	0.287680
	26.480000	0.162708
	26.485000	0.083779
	26.490000	0.205462
	26.495000	0.287680
	26.500000	0.162708
	26.505000	0.080490
	26.510000	0.205462
	26.515000	0.290969
	26.520000	0.162708
	26.525000	0.080490
	26.530000	0.202173
	26.535000	0.284391
	26.540000	0.162708
	26.545000	0.077202
	26.550000	0.202173
	26.555000	0.287680
	26.560000	0.162708
	26.565000	0.080490
	26.570000	0.205462
	26.575000	0.287680
	26.580000	0.159420
	26.585000	0.080490
	26.590000	0.198884
	26.595000	0.287680
	26.600000	0.162708
	26.605000	0.077202
	26.610000	0.198884
	26.615000	0.287680
	26.620000	0.159420
	26.625000	0.080490
	26.630000	0.202173
	26.635000	0.287680
	26.640000	0.159420
	26.645000	0.083779
	26.650000	0.198884
	26.655000	0.287680
	26.660000	0.162708
	26.665000	0.080490
	26.670000	0.202173
	26.675000	0.287680
	26.680000	0.162708
	26.685000	0.080490
	26.690000	0.202173
	26.695000	0.287680
	26.700000	0.162708
	26.705000	0.080490
	26.710000	0.205462
	26.715000	0.287680
	26.720000	0.162708
	26.725000	0.080490
	26.730000	0.202173
	26.735000	0.290969
	26.740000	0.162708
	26.745000	0.080490
	26.750000	0.202173
	26.755000	0.287680
	26.760000	0.165997
	26.765000	0.080490
	26.770000	0.202173
	26.775000	0.287680
	26.780000	0.165997
	26.785000	0.080490
	26.790000	0.202173
	26.795000	0.287680
	26.800000	0.162708
	26.805000	0.077202
	26.810000	0.202173
	26.815000	0.284391
	26.820000	0.165997
	26.825000	0.083779
	26.830000	0.208751
	26.835000	0.290969
	26.840000	0.165997
	26.845000	0.087068
	26.850000	0.205462
	26.855000	0.287680
	26.860000	0.165997
	26.865000	0.087068
	26.870000	0.202173
	26.875000	0.290969
	26.880000	0.162708
	26.885000	0.080490
	26.890000	0.202173
	26.895000	0.287680
	26.900000	0.162708
	26.905000	0.080490
	26.910000	0.205462
	26.915000	0.287680
	26.920000	0.162708
	26.925000	0.080490
	26.930000	0.205462
	26.935000	0.287680
	26.940000	0.162708
	26.945000	0.077202
	26.950000	0.202173
	26.955000	0.287680
	26.960000	0.165997
	26.965000	0.077202
	26.970000	0.198884
	26.975000	0.287680
	26.980000	0.162708
	26.985000	0.080490
	26.990000	0.202173
	26.995000	0.287680
	27.000000	0.165997
	27.005000	0.083779
	27.010000	0.202173
	27.015000	0.284391
	27.020000	0.169286
	27.025000	0.080490
	27.030000	0.202173
	27.035000	0.287680
	27.040000	0.162708
	27.045000	0.083779
	27.050000	0.198884
	27.055000	0.287680
	27.060000	0.165997
	27.065000	0.077202
	27.070000	0.202173
	27.075000	0.290969
	27.080000	0.165997
	27.085000	0.080490
	27.090000	0.202173
	27.095000	0.284391
	27.100000	0.159420
	27.105000	0.080490
	27.110000	0.202173
	27.115000	0.287680
	27.120000	0.165997
	27.125000	0.077202
	27.130000	0.198884
	27.135000	0.284391
	27.140000	0.165997
	27.145000	0.080490
	27.150000	0.198884
	27.155000	0.290969
	27.160000	0.165997
	27.165000	0.077202
	27.170000	0.202173
	27.175000	0.287680
	27.180000	0.162708
	27.185000	0.080490
	27.190000	0.202173
	27.195000	0.287680
	27.200000	0.169286
	27.205000	0.080490
	27.210000	0.202173
	27.215000	0.287680
	27.220000	0.165997
	27.225000	0.077202
	27.230000	0.205462
	27.235000	0.287680
	27.240000	0.169286
	27.245000	0.080490
	27.250000	0.198884
	27.255000	0.287680
	27.260000	0.165997
	27.265000	0.080490
	27.270000	0.205462
	27.275000	0.287680
	27.280000	0.172575
	27.285000	0.080490
	27.290000	0.198884
	27.295000	0.287680
	27.300000	0.169286
	27.305000	0.080490
	27.310000	0.198884
	27.315000	0.284391
	27.320000	0.169286
	27.325000	0.083779
	27.330000	0.202173
	27.335000	0.287680
	27.340000	0.162708
	27.345000	0.087068
	27.350000	0.202173
	27.355000	0.287680
	27.360000	0.165997
	27.365000	0.083779
	27.370000	0.198884
	27.375000	0.284391
	27.380000	0.162708
	27.385000	0.080490
	27.390000	0.198884
	27.395000	0.287680
	27.400000	0.165997
	27.405000	0.077202
	27.410000	0.195596
	27.415000	0.287680
	27.420000	0.162708
	27.425000	0.077202
	27.430000	0.198884
	27.435000	0.287680
	27.440000	0.162708
	27.445000	0.077202
	27.450000	0.195596
	27.455000	0.287680
	27.460000	0.169286
	27.465000	0.080490
	27.470000	0.198884
	27.475000	0.287680
	27.480000	0.165997
	27.485000	0.080490
	27.490000	0.198884
	27.495000	0.284391
	27.500000	0.162708
	27.505000	0.077202
	27.510000	0.198884
	27.515000	0.287680
	27.520000	0.165997
	27.525000	0.077202
	27.530000	0.195596
	27.535000	0.287680
	27.540000	0.165997
	27.545000	0.077202
	27.550000	0.198884
	27.555000	0.287680
	27.560000	0.169286
	27.565000	0.080490
	27.570000	0.198884
	27.575000	0.284391
	27.580000	0.165997
	27.585000	0.083779
	27.590000	0.198884
	27.595000	0.287680
	27.600000	0.169286
	27.605000	0.080490
	27.610000	0.198884
	27.615000	0.287680
	27.620000	0.165997
	27.625000	0.083779
	27.630000	0.195596
	27.635000	0.290969
	27.640000	0.165997
	27.645000	0.080490
	27.650000	0.198884
	27.655000	0.294257
	27.660000	0.169286
	27.665000	0.087068
	27.670000	0.202173
	27.675000	0.290969
	27.680000	0.169286
	27.685000	0.080490
	27.690000	0.202173
	27.695000	0.287680
	27.700000	0.172575
	27.705000	0.083779
	27.710000	0.205462
	27.715000	0.287680
	27.720000	0.169286
	27.725000	0.080490
	27.730000	0.205462
	27.735000	0.287680
	27.740000	0.169286
	27.745000	0.083779
	27.750000	0.202173
	27.755000	0.284391
	27.760000	0.165997
	27.765000	0.083779
	27.770000	0.198884
	27.775000	0.287680
	27.780000	0.169286
	27.785000	0.080490
	27.790000	0.202173
	27.795000	0.284391
	27.800000	0.169286
	27.805000	0.077202
	27.810000	0.192307
	27.815000	0.284391
	27.820000	0.165997
	27.825000	0.077202
	27.830000	0.192307
	27.835000	0.281102
	27.840000	0.159420
	27.845000	0.080490
	27.850000	0.192307
	27.855000	0.281102
	27.860000	0.156131
	27.865000	0.070624
	27.870000	0.192307
	27.875000	0.277814
	27.880000	0.159420
	27.885000	0.073913
	27.890000	0.192307
	27.895000	0.274525
	27.900000	0.159420
	27.905000	0.073913
	27.910000	0.192307
	27.915000	0.281102
	27.920000	0.159420
	27.925000	0.073913
	27.930000	0.192307
	27.935000	0.277814
	27.940000	0.165997
	27.945000	0.077202
	27.950000	0.195596
	27.955000	0.281102
	27.960000	0.165997
	27.965000	0.083779
	27.970000	0.198884
	27.975000	0.287680
	27.980000	0.169286
	27.985000	0.090357
	27.990000	0.202173
	27.995000	0.290969
	28.000000	0.175863
	28.005000	0.090357
	28.010000	0.205462
	28.015000	0.287680
	28.020000	0.169286
	28.025000	0.087068
	28.030000	0.202173
	28.035000	0.287680
	28.040000	0.169286
	28.045000	0.083779
	28.050000	0.195596
	28.055000	0.281102
	28.060000	0.162708
	28.065000	0.077202
	28.070000	0.192307
	28.075000	0.277814
	28.080000	0.162708
	28.085000	0.073913
	28.090000	0.195596
	28.095000	0.281102
	28.100000	0.165997
	28.105000	0.073913
	28.110000	0.195596
	28.115000	0.287680
	28.120000	0.169286
	28.125000	0.083779
	28.130000	0.202173
	28.135000	0.294257
	28.140000	0.175863
	28.145000	0.090357
	28.150000	0.208751
	28.155000	0.294257
	28.160000	0.179152
	28.165000	0.096934
	28.170000	0.208751
	28.175000	0.300835
	28.180000	0.175863
	28.185000	0.093645
	28.190000	0.208751
	28.195000	0.294257
	28.200000	0.172575
	28.205000	0.083779
	28.210000	0.198884
	28.215000	0.281102
	28.220000	0.165997
	28.225000	0.070624
	28.230000	0.189018
	28.235000	0.274525
	28.240000	0.156131
	28.245000	0.064047
	28.250000	0.179152
	28.255000	0.271236
	28.260000	0.152842
	28.265000	0.064047
	28.270000	0.182441
	28.275000	0.274525
	28.280000	0.159420
	28.285000	0.070624
	28.290000	0.185730
	28.295000	0.284391
	28.300000	0.162708
	28.305000	0.077202
	28.310000	0.192307
	28.315000	0.287680
	28.320000	0.175863
	28.325000	0.090357
	28.330000	0.205462
	28.335000	0.294257
	28.340000	0.175863
	28.345000	0.090357
	28.350000	0.205462
	28.355000	0.297546
	28.360000	0.182441
	28.365000	0.087068
	28.370000	0.205462
	28.375000	0.290969
	28.380000	0.172575
	28.385000	0.083779
	28.390000	0.195596
	28.395000	0.284391
	28.400000	0.165997
	28.405000	0.073913
	28.410000	0.189018
	28.415000	0.277814
	28.420000	0.162708
	28.425000	0.070624
	28.430000	0.185730
	28.435000	0.274525
	28.440000	0.162708
	28.445000	0.067335
	28.450000	0.185730
	28.455000	0.277814
	28.460000	0.162708
	28.465000	0.077202
	28.470000	0.189018
	28.475000	0.281102
	28.480000	0.165997
	28.485000	0.070624
	28.490000	0.185730
	28.495000	0.281102
	28.500000	0.162708
	28.505000	0.080490
	28.510000	0.192307
	28.515000	0.284391
	28.520000	0.165997
	28.525000	0.080490
	28.530000	0.192307
	28.535000	0.284391
	28.540000	0.165997
	28.545000	0.077202
	28.550000	0.189018
	28.555000	0.284391
	28.560000	0.165997
	28.565000	0.070624
	28.570000	0.189018
	28.575000	0.284391
	28.580000	0.169286
	28.585000	0.077202
	28.590000	0.195596
	28.595000	0.290969
	28.600000	0.169286
	28.605000	0.080490
	28.610000	0.195596
	28.615000	0.284391
	28.620000	0.165997
	28.625000	0.073913
	28.630000	0.195596
	28.635000	0.284391
	28.640000	0.169286
	28.645000	0.073913
	28.650000	0.185730
	28.655000	0.287680
	28.660000	0.165997
	28.665000	0.073913
	28.670000	0.189018
	28.675000	0.284391
	28.680000	0.169286
	28.685000	0.070624
	28.690000	0.185730
	28.695000	0.284391
	28.700000	0.159420
	28.705000	0.070624
	28.710000	0.185730
	28.715000	0.277814
	28.720000	0.165997
	28.725000	0.073913
	28.730000	0.192307
	28.735000	0.281102
	28.740000	0.169286
	28.745000	0.073913
	28.750000	0.182441
	28.755000	0.281102
	28.760000	0.169286
	28.765000	0.070624
	28.770000	0.189018
	28.775000	0.284391
	28.780000	0.169286
	28.785000	0.077202
	28.790000	0.192307
	28.795000	0.287680
	28.800000	0.172575
	28.805000	0.070624
	28.810000	0.185730
	28.815000	0.287680
	28.820000	0.169286
	28.825000	0.073913
	28.830000	0.189018
	28.835000	0.281102
	28.840000	0.162708
	28.845000	0.073913
	28.850000	0.185730
	28.855000	0.274525
	28.860000	0.165997
	28.865000	0.070624
	28.870000	0.185730
	28.875000	0.281102
	28.880000	0.162708
	28.885000	0.067335
	28.890000	0.185730
	28.895000	0.277814
	28.900000	0.162708
	28.905000	0.073913
	28.910000	0.189018
	28.915000	0.277814
	28.920000	0.169286
	28.925000	0.070624
	28.930000	0.189018
	28.935000	0.281102
	28.940000	0.169286
	28.945000	0.077202
	28.950000	0.189018
	28.955000	0.281102
	28.960000	0.169286
	28.965000	0.073913
	28.970000	0.189018
	28.975000	0.287680
	28.980000	0.175863
	28.985000	0.077202
	28.990000	0.185730
	28.995000	0.284391
	29.000000	0.169286
	29.005000	0.070624
	29.010000	0.185730
	29.015000	0.281102
	29.020000	0.169286
	29.025000	0.073913
	29.030000	0.189018
	29.035000	0.281102
	29.040000	0.169286
	29.045000	0.067335
	29.050000	0.185730
	29.055000	0.277814
	29.060000	0.165997
	29.065000	0.067335
	29.070000	0.189018
	29.075000	0.277814
	29.080000	0.165997
	29.085000	0.070624
	29.090000	0.185730
	29.095000	0.284391
	29.100000	0.169286
	29.105000	0.070624
	29.110000	0.189018
	29.115000	0.284391
	29.120000	0.165997
	29.125000	0.070624
	29.130000	0.182441
	29.135000	0.284391
	29.140000	0.165997
	29.145000	0.073913
	29.150000	0.185730
	29.155000	0.284391
	29.160000	0.169286
	29.165000	0.070624
	29.170000	0.185730
	29.175000	0.281102
	29.180000	0.165997
	29.185000	0.070624
	29.190000	0.182441
	29.195000	0.277814
	29.200000	0.165997
	29.205000	0.073913
	29.210000	0.185730
	29.215000	0.281102
	29.220000	0.172575
	29.225000	0.073913
	29.230000	0.182441
	29.235000	0.277814
	29.240000	0.169286
	29.245000	0.070624
	29.250000	0.189018
	29.255000	0.281102
	29.260000	0.165997
	29.265000	0.070624
	29.270000	0.182441
	29.275000	0.281102
	29.280000	0.169286
	29.285000	0.073913
	29.290000	0.185730
	29.295000	0.281102
	29.300000	0.169286
	29.305000	0.070624
	29.310000	0.185730
	29.315000	0.281102
	29.320000	0.169286
	29.325000	0.070624
	29.330000	0.182441
	29.335000	0.277814
	29.340000	0.169286
	29.345000	0.070624
	29.350000	0.182441
	29.355000	0.277814
	29.360000	0.165997
	29.365000	0.070624
	29.370000	0.185730
	29.375000	0.281102
	29.380000	0.169286
	29.385000	0.070624
	29.390000	0.185730
	29.395000	0.277814
	29.400000	0.169286
	29.405000	0.070624
	29.410000	0.182441
	29.415000	0.284391
	29.420000	0.165997
	29.425000	0.070624
	29.430000	0.182441
	29.435000	0.281102
	29.440000	0.169286
	29.445000	0.067335
	29.450000	0.182441
	29.455000	0.281102
	29.460000	0.165997
	29.465000	0.064047
	29.470000	0.185730
	29.475000	0.277814
	29.480000	0.165997
	29.485000	0.070624
	29.490000	0.182441
	29.495000	0.281102
	29.500000	0.165997
	29.505000	0.070624
	29.510000	0.182441
	29.515000	0.284391
	29.520000	0.165997
	29.525000	0.070624
	29.530000	0.179152
	29.535000	0.277814
	29.540000	0.169286
	29.545000	0.070624
	29.550000	0.185730
	29.555000	0.281102
	29.560000	0.169286
	29.565000	0.064047
	29.570000	0.175863
	29.575000	0.277814
	29.580000	0.169286
	29.585000	0.067335
	29.590000	0.182441
	29.595000	0.277814
	29.600000	0.162708
	29.605000	0.067335
	29.610000	0.179152
	29.615000	0.274525
	29.620000	0.169286
	29.625000	0.064047
	29.630000	0.179152
	29.635000	0.281102
	29.640000	0.165997
	29.645000	0.067335
	29.650000	0.175863
	29.655000	0.277814
	29.660000	0.165997
	29.665000	0.067335
	29.670000	0.175863
	29.675000	0.281102
	29.680000	0.172575
	29.685000	0.070624
	29.690000	0.179152
	29.695000	0.277814
	29.700000	0.169286
	29.705000	0.067335
	29.710000	0.179152
	29.715000	0.281102
	29.720000	0.165997
	29.725000	0.067335
	29.730000	0.175863
	29.735000	0.281102
	29.740000	0.165997
	29.745000	0.067335
	29.750000	0.179152
	29.755000	0.274525
	29.760000	0.165997
	29.765000	0.064047
	29.770000	0.172575
	29.775000	0.277814
	29.780000	0.165997
	29.785000	0.067335
	29.790000	0.179152
	29.795000	0.277814
	29.800000	0.169286
	29.805000	0.067335
	29.810000	0.179152
	29.815000	0.281102
	29.820000	0.162708
	29.825000	0.067335
	29.830000	0.182441
	29.835000	0.277814
	29.840000	0.165997
	29.845000	0.067335
	29.850000	0.179152
	29.855000	0.277814
	29.860000	0.169286
	29.865000	0.070624
	29.870000	0.175863
	29.875000	0.277814
	29.880000	0.165997
	29.885000	0.067335
	29.890000	0.172575
	29.895000	0.277814
	29.900000	0.169286
	29.905000	0.067335
	29.910000	0.172575
	29.915000	0.277814
	29.920000	0.165997
	29.925000	0.064047
	29.930000	0.172575
	29.935000	0.274525
	29.940000	0.162708
	29.945000	0.070624
	29.950000	0.175863
	29.955000	0.277814
	29.960000	0.169286
	29.965000	0.070624
	29.970000	0.179152
	29.975000	0.274525
	29.980000	0.165997
	29.985000	0.070624
	29.990000	0.175863
	29.995000	0.281102
	30.000000	0.169286
	30.005000	0.064047
	30.010000	0.175863
	30.015000	0.277814
	30.020000	0.169286
	30.025000	0.067335
	30.030000	0.175863
	30.035000	0.281102
	30.040000	0.169286
	30.045000	0.067335
	30.050000	0.175863
	30.055000	0.274525
	30.060000	0.165997
	30.065000	0.070624
	30.070000	0.172575
	30.075000	0.274525
	30.080000	0.162708
	30.085000	0.067335
	30.090000	0.175863
	30.095000	0.277814
	30.100000	0.169286
	30.105000	0.073913
	30.110000	0.182441
	30.115000	0.277814
	30.120000	0.172575
	30.125000	0.070624
	30.130000	0.182441
	30.135000	0.277814
	30.140000	0.169286
	30.145000	0.077202
	30.150000	0.175863
	30.155000	0.277814
	30.160000	0.165997
	30.165000	0.073913
	30.170000	0.182441
	30.175000	0.274525
	30.180000	0.165997
	30.185000	0.070624
	30.190000	0.175863
	30.195000	0.271236
	30.200000	0.162708
	30.205000	0.070624
	30.210000	0.169286
	30.215000	0.274525
	30.220000	0.162708
	30.225000	0.067335
	30.230000	0.172575
	30.235000	0.271236
	30.240000	0.162708
	30.245000	0.060758
	30.250000	0.172575
	30.255000	0.274525
	30.260000	0.162708
	30.265000	0.064047
	30.270000	0.172575
	30.275000	0.271236
	30.280000	0.169286
	30.285000	0.067335
	30.290000	0.172575
	30.295000	0.274525
	30.300000	0.165997
	30.305000	0.070624
	30.310000	0.175863
	30.315000	0.274525
	30.320000	0.169286
	30.325000	0.067335
	30.330000	0.179152
	30.335000	0.274525
	30.340000	0.172575
	30.345000	0.073913
	30.350000	0.179152
	30.355000	0.284391
	30.360000	0.172575
	30.365000	0.073913
	30.370000	0.185730
	30.375000	0.281102
	30.380000	0.179152
	30.385000	0.077202
	30.390000	0.179152
	30.395000	0.284391
	30.400000	0.175863
	30.405000	0.073913
	30.410000	0.175863
	30.415000	0.277814
	30.420000	0.175863
	30.425000	0.070624
	30.430000	0.179152
	30.435000	0.277814
	30.440000	0.169286
	30.445000	0.067335
	30.450000	0.172575
	30.455000	0.267948
	30.460000	0.165997
	30.465000	0.064047
	30.470000	0.169286
	30.475000	0.271236
	30.480000	0.162708
	30.485000	0.064047
	30.490000	0.169286
	30.495000	0.274525
	30.500000	0.172575
	30.505000	0.070624
	30.510000	0.172575
	30.515000	0.281102
	30.520000	0.175863
	30.525000	0.070624
	30.530000	0.182441
	30.535000	0.281102
	30.540000	0.182441
	30.545000	0.077202
	30.550000	0.182441
	30.555000	0.287680
	30.560000	0.179152
	30.565000	0.080490
	30.570000	0.182441
	30.575000	0.284391
	30.580000	0.175863
	30.585000	0.077202
	30.590000	0.182441
	30.595000	0.277814
	30.600000	0.172575
	30.605000	0.067335
	30.610000	0.172575
	30.615000	0.267948
	30.620000	0.169286
	30.625000	0.060758
	30.630000	0.162708
	30.635000	0.267948
	30.640000	0.165997
	30.645000	0.060758
	30.650000	0.162708
	30.655000	0.267948
	30.660000	0.169286
	30.665000	0.060758
	30.670000	0.165997
	30.675000	0.271236
	30.680000	0.169286
	30.685000	0.064047
	30.690000	0.175863
	30.695000	0.281102
	30.700000	0.179152
	30.705000	0.077202
	30.710000	0.182441
	30.715000	0.287680
	30.720000	0.182441
	30.725000	0.080490
	30.730000	0.182441
	30.735000	0.284391
	30.740000	0.185730
	30.745000	0.083779
	30.750000	0.182441
	30.755000	0.284391
	30.760000	0.179152
	30.765000	0.073913
	30.770000	0.179152
	30.775000	0.277814
	30.780000	0.175863
	30.785000	0.067335
	30.790000	0.169286
	30.795000	0.274525
	30.800000	0.169286
	30.805000	0.067335
	30.810000	0.169286
	30.815000	0.271236
	30.820000	0.172575
	30.825000	0.060758
	30.830000	0.169286
	30.835000	0.274525
	30.840000	0.169286
	30.845000	0.067335
	30.850000	0.169286
	30.855000	0.274525
	30.860000	0.169286
	30.865000	0.064047
	30.870000	0.169286
	30.875000	0.274525
	30.880000	0.172575
	30.885000	0.067335
	30.890000	0.169286
	30.895000	0.277814
	30.900000	0.175863
	30.905000	0.070624
	30.910000	0.172575
	30.915000	0.274525
	30.920000	0.175863
	30.925000	0.067335
	30.930000	0.169286
	30.935000	0.274525
	30.940000	0.175863
	30.945000	0.067335
	30.950000	0.169286
	30.955000	0.274525
	30.960000	0.175863
	30.965000	0.070624
	30.970000	0.165997
	30.975000	0.277814
	30.980000	0.175863
	30.985000	0.064047
	30.990000	0.169286
	30.995000	0.274525
	31.000000	0.175863
	31.005000	0.070624
	31.010000	0.172575
	31.015000	0.277814
	31.020000	0.175863
	31.025000	0.070624
	31.030000	0.169286
	31.035000	0.274525
	31.040000	0.179152
	31.045000	0.067335
	31.050000	0.169286
	31.055000	0.281102
	31.060000	0.175863
	31.065000	0.070624
	31.070000	0.162708
	31.075000	0.277814
	31.080000	0.172575
	31.085000	0.064047
	31.090000	0.162708
	31.095000	0.274525
	31.100000	0.172575
	31.105000	0.067335
	31.110000	0.169286
	31.115000	0.274525
	31.120000	0.172575
	31.125000	0.064047
	31.130000	0.162708
	31.135000	0.274525
	31.140000	0.172575
	31.145000	0.064047
	31.150000	0.169286
	31.155000	0.274525
	31.160000	0.175863
	31.165000	0.064047
	31.170000	0.165997
	31.175000	0.271236
	31.180000	0.172575
	31.185000	0.067335
	31.190000	0.165997
	31.195000	0.274525
	31.200000	0.175863
	31.205000	0.064047
	31.210000	0.162708
	31.215000	0.274525
	31.220000	0.175863
	31.225000	0.067335
	31.230000	0.162708
	31.235000	0.274525
	31.240000	0.172575
	31.245000	0.064047
	31.250000	0.162708
	31.255000	0.271236
	31.260000	0.172575
	31.265000	0.064047
	31.270000	0.159420
	31.275000	0.271236
	31.280000	0.172575
	31.285000	0.064047
	31.290000	0.162708
	31.295000	0.277814
	31.300000	0.172575
	31.305000	0.064047
	31.310000	0.162708
	31.315000	0.274525
	31.320000	0.175863
	31.325000	0.067335
	31.330000	0.165997
	31.335000	0.277814
	31.340000	0.182441
	31.345000	0.067335
	31.350000	0.162708
	31.355000	0.274525
	31.360000	0.179152
	31.365000	0.067335
	31.370000	0.165997
	31.375000	0.274525
	31.380000	0.175863
	31.385000	0.067335
	31.390000	0.159420
	31.395000	0.271236
	31.400000	0.175863
	31.405000	0.064047
	31.410000	0.165997
	31.415000	0.274525
	31.420000	0.172575
	31.425000	0.057469
	31.430000	0.162708
	31.435000	0.274525
	31.440000	0.175863
	31.445000	0.064047
	31.450000	0.156131
	31.455000	0.267948
	31.460000	0.172575
	31.465000	0.064047
	31.470000	0.156131
	31.475000	0.274525
	31.480000	0.175863
	31.485000	0.060758
	31.490000	0.156131
	31.495000	0.271236
	31.500000	0.172575
	31.505000	0.064047
	31.510000	0.159420
	31.515000	0.271236
	31.520000	0.175863
	31.525000	0.060758
	31.530000	0.165997
	31.535000	0.274525
	31.540000	0.172575
	31.545000	0.064047
	31.550000	0.156131
	31.555000	0.274525
	31.560000	0.175863
	31.565000	0.067335
	31.570000	0.159420
	31.575000	0.274525
	31.580000	0.175863
	31.585000	0.064047
	31.590000	0.159420
	31.595000	0.274525
	31.600000	0.179152
	31.605000	0.060758
	31.610000	0.159420
	31.615000	0.267948
	31.620000	0.179152
	31.625000	0.060758
	31.630000	0.156131
	31.635000	0.267948
	31.640000	0.172575
	31.645000	0.060758
	31.650000	0.156131
	31.655000	0.264659
	31.660000	0.179152
	31.665000	0.060758
	31.670000	0.152842
	31.675000	0.271236
	31.680000	0.175863
	31.685000	0.060758
	31.690000	0.152842
	31.695000	0.267948
	31.700000	0.172575
	31.705000	0.060758
	31.710000	0.156131
	31.715000	0.267948
	31.720000	0.172575
	31.725000	0.057469
	31.730000	0.152842
	31.735000	0.267948
	31.740000	0.179152
	31.745000	0.064047
	31.750000	0.152842
	31.755000	0.274525
	31.760000	0.175863
	31.765000	0.064047
	31.770000	0.152842
	31.775000	0.271236
	31.780000	0.175863
	31.785000	0.057469
	31.790000	0.152842
	31.795000	0.264659
	31.800000	0.172575
	31.805000	0.057469
	31.810000	0.149554
	31.815000	0.264659
	31.820000	0.172575
	31.825000	0.054181
	31.830000	0.146265
	31.835000	0.267948
	31.840000	0.172575
	31.845000	0.054181
	31.850000	0.152842
	31.855000	0.264659
	31.860000	0.172575
	31.865000	0.057469
	31.870000	0.149554
	31.875000	0.271236
	31.880000	0.172575
	31.885000	0.057469
	31.890000	0.149554
	31.895000	0.267948
	31.900000	0.179152
	31.905000	0.057469
	31.910000	0.146265
	31.915000	0.267948
	31.920000	0.175863
	31.925000	0.057469
	31.930000	0.149554
	31.935000	0.264659
	31.940000	0.172575
	31.945000	0.054181
	31.950000	0.142976
	31.955000	0.261370
	31.960000	0.169286
	31.965000	0.050892
	31.970000	0.146265
	31.975000	0.261370
	31.980000	0.169286
	31.985000	0.054181
	31.990000	0.142976
	31.995000	0.261370
	32.000000	0.172575
	32.005000	0.057469
	32.010000	0.146265
	32.015000	0.264659
	32.020000	0.175863
	32.025000	0.057469
	32.030000	0.149554
	32.035000	0.267948
	32.040000	0.179152
	32.045000	0.057469
	32.050000	0.149554
	32.055000	0.264659
	32.060000	0.175863
	32.065000	0.057469
	32.070000	0.149554
	32.075000	0.267948
	32.080000	0.175863
	32.085000	0.057469
	32.090000	0.149554
	32.095000	0.264659
	32.100000	0.175863
	32.105000	0.060758
	32.110000	0.149554
	32.115000	0.264659
	32.120000	0.179152
	32.125000	0.060758
	32.130000	0.149554
	32.135000	0.267948
	32.140000	0.175863
	32.145000	0.054181
	32.150000	0.152842
	32.155000	0.271236
	32.160000	0.172575
	32.165000	0.057469
	32.170000	0.146265
	32.175000	0.267948
	32.180000	0.179152
	32.185000	0.060758
	32.190000	0.139687
	32.195000	0.261370
	32.200000	0.175863
	32.205000	0.054181
	32.210000	0.146265
	32.215000	0.264659
	32.220000	0.175863
	32.225000	0.060758
	32.230000	0.152842
	32.235000	0.267948
	32.240000	0.175863
	32.245000	0.054181
	32.250000	0.149554
	32.255000	0.261370
	32.260000	0.175863
	32.265000	0.057469
	32.270000	0.146265
	32.275000	0.258081
	32.280000	0.175863
	32.285000	0.054181
	32.290000	0.146265
	32.295000	0.261370
	32.300000	0.175863
	32.305000	0.057469
	32.310000	0.142976
	32.315000	0.264659
	32.320000	0.175863
	32.325000	0.060758
	32.330000	0.142976
	32.335000	0.264659
	32.340000	0.179152
	32.345000	0.064047
	32.350000	0.149554
	32.355000	0.264659
	32.360000	0.182441
	32.365000	0.057469
	32.370000	0.146265
	32.375000	0.264659
	32.380000	0.175863
	32.385000	0.057469
	32.390000	0.142976
	32.395000	0.264659
	32.400000	0.179152
	32.405000	0.060758
	32.410000	0.146265
	32.415000	0.264659
	32.420000	0.175863
	32.425000	0.064047
	32.430000	0.149554
	32.435000	0.267948
	32.440000	0.182441
	32.445000	0.064047
	32.450000	0.156131
	32.455000	0.274525
	32.460000	0.189018
	32.465000	0.067335
	32.470000	0.156131
	32.475000	0.274525
	32.480000	0.182441
	32.485000	0.067335
	32.490000	0.152842
	32.495000	0.277814
	32.500000	0.185730
	32.505000	0.064047
	32.510000	0.152842
	32.515000	0.267948
	32.520000	0.185730
	32.525000	0.064047
	32.530000	0.149554
	32.535000	0.264659
	32.540000	0.175863
	32.545000	0.054181
	32.550000	0.146265
	32.555000	0.254793
	32.560000	0.172575
	32.565000	0.050892
	32.570000	0.139687
	32.575000	0.254793
	32.580000	0.169286
	32.585000	0.050892
	32.590000	0.136399
	32.595000	0.261370
	32.600000	0.175863
	32.605000	0.060758
	32.610000	0.146265
	32.615000	0.267948
	32.620000	0.182441
	32.625000	0.060758
	32.630000	0.149554
	32.635000	0.274525
	32.640000	0.189018
	32.645000	0.070624
	32.650000	0.156131
	32.655000	0.281102
	32.660000	0.195596
	32.665000	0.073913
	32.670000	0.162708
	32.675000	0.281102
	32.680000	0.195596
	32.685000	0.070624
	32.690000	0.159420
	32.695000	0.277814
	32.700000	0.192307
	32.705000	0.070624
	32.710000	0.156131
	32.715000	0.274525
	32.720000	0.185730
	32.725000	0.067335
	32.730000	0.149554
	32.735000	0.267948
	32.740000	0.182441
	32.745000	0.054181
	32.750000	0.142976
	32.755000	0.258081
	32.760000	0.175863
	32.765000	0.054181
	32.770000	0.139687
	32.775000	0.258081
	32.780000	0.179152
	32.785000	0.054181
	32.790000	0.136399
	32.795000	0.261370
	32.800000	0.182441
	32.805000	0.057469
	32.810000	0.146265
	32.815000	0.267948
	32.820000	0.185730
	32.825000	0.064047
	32.830000	0.149554
	32.835000	0.274525
	32.840000	0.192307
	32.845000	0.067335
	32.850000	0.152842
	32.855000	0.277814
	32.860000	0.192307
	32.865000	0.067335
	32.870000	0.149554
	32.875000	0.277814
	32.880000	0.189018
	32.885000	0.067335
	32.890000	0.149554
	32.895000	0.274525
	32.900000	0.189018
	32.905000	0.064047
	32.910000	0.146265
	32.915000	0.267948
	32.920000	0.185730
	32.925000	0.064047
	32.930000	0.146265
	32.935000	0.264659
	32.940000	0.182441
	32.945000	0.057469
	32.950000	0.139687
	32.955000	0.264659
	32.960000	0.182441
	32.965000	0.064047
	32.970000	0.142976
	32.975000	0.264659
	32.980000	0.182441
	32.985000	0.064047
	32.990000	0.146265
	32.995000	0.267948
	33.000000	0.185730
	33.005000	0.064047
	33.010000	0.142976
	33.015000	0.267948
	33.020000	0.185730
	33.025000	0.067335
	33.030000	0.146265
	33.035000	0.271236
	33.040000	0.185730
	33.045000	0.064047
	33.050000	0.146265
	33.055000	0.267948
	33.060000	0.185730
	33.065000	0.057469
	33.070000	0.142976
	33.075000	0.264659
	33.080000	0.185730
	33.085000	0.057469
	33.090000	0.142976
	33.095000	0.264659
	33.100000	0.185730
	33.105000	0.064047
	33.110000	0.139687
	33.115000	0.264659
	33.120000	0.185730
	33.125000	0.060758
	33.130000	0.142976
	33.135000	0.264659
	33.140000	0.185730
	33.145000	0.057469
	33.150000	0.142976
	33.155000	0.264659
	33.160000	0.185730
	33.165000	0.064047
	33.170000	0.139687
	33.175000	0.264659
	33.180000	0.182441
	33.185000	0.060758
	33.190000	0.136399
	33.195000	0.267948
	33.200000	0.185730
	33.205000	0.060758
	33.210000	0.142976
	33.215000	0.261370
	33.220000	0.182441
	33.225000	0.057469
	33.230000	0.136399
	33.235000	0.261370
	33.240000	0.182441
	33.245000	0.050892
	33.250000	0.136399
	33.255000	0.261370
	33.260000	0.182441
	33.265000	0.054181
	33.270000	0.129821
	33.275000	0.261370
	33.280000	0.182441
	33.285000	0.054181
	33.290000	0.136399
	33.295000	0.264659
	33.300000	0.182441
	33.305000	0.060758
	33.310000	0.139687
	33.315000	0.261370
	33.320000	0.189018
	33.325000	0.064047
	33.330000	0.139687
	33.335000	0.264659
	33.340000	0.189018
	33.345000	0.057469
	33.350000	0.136399
	33.355000	0.267948
	33.360000	0.182441
	33.365000	0.064047
	33.370000	0.136399
	33.375000	0.261370
	33.380000	0.185730
	33.385000	0.060758
	33.390000	0.139687
	33.395000	0.258081
	33.400000	0.185730
	33.405000	0.057469
	33.410000	0.139687
	33.415000	0.258081
	33.420000	0.185730
	33.425000	0.057469
	33.430000	0.139687
	33.435000	0.264659
	33.440000	0.185730
	33.445000	0.060758
	33.450000	0.139687
	33.455000	0.258081
	33.460000	0.189018
	33.465000	0.054181
	33.470000	0.136399
	33.475000	0.261370
	33.480000	0.182441
	33.485000	0.054181
	33.490000	0.136399
	33.495000	0.258081
	33.500000	0.182441
	33.505000	0.054181
	33.510000	0.133110
	33.515000	0.258081
	33.520000	0.179152
	33.525000	0.050892
	33.530000	0.126533
	33.535000	0.254793
	33.540000	0.182441
	33.545000	0.054181
	33.550000	0.129821
	33.555000	0.254793
	33.560000	0.175863
	33.565000	0.050892
	33.570000	0.129821
	33.575000	0.254793
	33.580000	0.182441
	33.585000	0.054181
	33.590000	0.129821
	33.595000	0.258081
	33.600000	0.182441
	33.605000	0.054181
	33.610000	0.136399
	33.615000	0.261370
	33.620000	0.182441
	33.625000	0.057469
	33.630000	0.129821
	33.635000	0.258081
	33.640000	0.189018
	33.645000	0.060758
	33.650000	0.133110
	33.655000	0.258081
	33.660000	0.182441
	33.665000	0.060758
	33.670000	0.133110
	33.675000	0.261370
	33.680000	0.179152
	33.685000	0.054181
	33.690000	0.126533
	33.695000	0.254793
	33.700000	0.182441
	33.705000	0.050892
	33.710000	0.119955
	33.715000	0.254793
	33.720000	0.182441
	33.725000	0.050892
	33.730000	0.119955
	33.735000	0.254793
	33.740000	0.182441
	33.745000	0.050892
	33.750000	0.123244
	33.755000	0.254793
	33.760000	0.185730
	33.765000	0.050892
	33.770000	0.123244
	33.775000	0.254793
	33.780000	0.182441
	33.785000	0.047603
	33.790000	0.126533
	33.795000	0.254793
	33.800000	0.179152
	33.805000	0.047603
	33.810000	0.119955
	33.815000	0.254793
	33.820000	0.182441
	33.825000	0.050892
	33.830000	0.126533
	33.835000	0.251504
	33.840000	0.179152
	33.845000	0.047603
	33.850000	0.119955
	33.855000	0.251504
	33.860000	0.182441
	33.865000	0.047603
	33.870000	0.126533
	33.875000	0.251504
	33.880000	0.175863
	33.885000	0.050892
	33.890000	0.116666
	33.895000	0.251504
	33.900000	0.175863
	33.905000	0.050892
	33.910000	0.119955
	33.915000	0.254793
	33.920000	0.182441
	33.925000	0.050892
	33.930000	0.119955
	33.935000	0.251504
	33.940000	0.182441
	33.945000	0.047603
	33.950000	0.119955
	33.955000	0.251504
	33.960000	0.179152
	33.965000	0.044314
	33.970000	0.116666
	33.975000	0.254793
	33.980000	0.179152
	33.985000	0.047603
	33.990000	0.119955
	33.995000	0.248215
	34.000000	0.179152
	34.005000	0.047603
	34.010000	0.123244
	34.015000	0.248215
	34.020000	0.179152
	34.025000	0.050892
	34.030000	0.116666
	34.035000	0.254793
	34.040000	0.182441
	34.045000	0.044314
	34.050000	0.116666
	34.055000	0.251504
	34.060000	0.182441
	34.065000	0.044314
	34.070000	0.116666
	34.075000	0.248215
	34.080000	0.179152
	34.085000	0.047603
	34.090000	0.116666
	34.095000	0.248215
	34.100000	0.182441
	34.105000	0.047603
	34.110000	0.119955
	34.115000	0.248215
	34.120000	0.179152
	34.125000	0.047603
	34.130000	0.110089
	34.135000	0.244927
	34.140000	0.179152
	34.145000	0.044314
	34.150000	0.116666
	34.155000	0.244927
	34.160000	0.175863
	34.165000	0.037737
	34.170000	0.113378
	34.175000	0.244927
	34.180000	0.175863
	34.185000	0.041026
	34.190000	0.116666
	34.195000	0.244927
	34.200000	0.175863
	34.205000	0.044314
	34.210000	0.113378
	34.215000	0.244927
	34.220000	0.175863
	34.225000	0.044314
	34.230000	0.116666
	34.235000	0.244927
	34.240000	0.182441
	34.245000	0.044314
	34.250000	0.113378
	34.255000	0.248215
	34.260000	0.179152
	34.265000	0.044314
	34.270000	0.113378
	34.275000	0.244927
	34.280000	0.179152
	34.285000	0.044314
	34.290000	0.110089
	34.295000	0.244927
	34.300000	0.179152
	34.305000	0.037737
	34.310000	0.110089
	34.315000	0.241638
	34.320000	0.175863
	34.325000	0.041026
	34.330000	0.110089
	34.335000	0.244927
	34.340000	0.175863
	34.345000	0.041026
	34.350000	0.110089
	34.355000	0.241638
	34.360000	0.175863
	34.365000	0.037737
	34.370000	0.106800
	34.375000	0.241638
	34.380000	0.179152
	34.385000	0.037737
	34.390000	0.106800
	34.395000	0.241638
	34.400000	0.172575
	34.405000	0.037737
	34.410000	0.106800
	34.415000	0.241638
	34.420000	0.182441
	34.425000	0.037737
	34.430000	0.110089
	34.435000	0.241638
	34.440000	0.175863
	34.445000	0.041026
	34.450000	0.103511
	34.455000	0.244927
	34.460000	0.179152
	34.465000	0.034448
	34.470000	0.103511
	34.475000	0.241638
	34.480000	0.172575
	34.485000	0.034448
	34.490000	0.106800
	34.495000	0.238349
	34.500000	0.172575
	34.505000	0.037737
	34.510000	0.103511
	34.515000	0.238349
	34.520000	0.165997
	34.525000	0.037737
	34.530000	0.103511
	34.535000	0.238349
	34.540000	0.172575
	34.545000	0.034448
	34.550000	0.103511
	34.555000	0.238349
	34.560000	0.175863
	34.565000	0.034448
	34.570000	0.103511
	34.575000	0.241638
	34.580000	0.172575
	34.585000	0.037737
	34.590000	0.103511
	34.595000	0.241638
	34.600000	0.172575
	34.605000	0.034448
	34.610000	0.103511
	34.615000	0.238349
	34.620000	0.172575
	34.625000	0.037737
	34.630000	0.103511
	34.635000	0.235060
	34.640000	0.175863
	34.645000	0.037737
	34.650000	0.106800
	34.655000	0.241638
	34.660000	0.179152
	34.665000	0.044314
	34.670000	0.106800
	34.675000	0.244927
	34.680000	0.179152
	34.685000	0.044314
	34.690000	0.110089
	34.695000	0.244927
	34.700000	0.179152
	34.705000	0.044314
	34.710000	0.106800
	34.715000	0.244927
	34.720000	0.179152
	34.725000	0.041026
	34.730000	0.103511
	34.735000	0.238349
	34.740000	0.179152
	34.745000	0.041026
	34.750000	0.100223
	34.755000	0.238349
	34.760000	0.179152
	34.765000	0.041026
	34.770000	0.103511
	34.775000	0.241638
	34.780000	0.175863
	34.785000	0.041026
	34.790000	0.106800
	34.795000	0.241638
	34.800000	0.179152
	34.805000	0.047603
	34.810000	0.110089
	34.815000	0.248215
	34.820000	0.179152
	34.825000	0.044314
	34.830000	0.113378
	34.835000	0.244927
	34.840000	0.182441
	34.845000	0.047603
	34.850000	0.106800
	34.855000	0.244927
	34.860000	0.185730
	34.865000	0.044314
	34.870000	0.106800
	34.875000	0.241638
	34.880000	0.179152
	34.885000	0.044314
	34.890000	0.103511
	34.895000	0.241638
	34.900000	0.175863
	34.905000	0.037737
	34.910000	0.103511
	34.915000	0.241638
	34.920000	0.179152
	34.925000	0.041026
	34.930000	0.103511
	34.935000	0.238349
	34.940000	0.172575
	34.945000	0.041026
	34.950000	0.103511
	34.955000	0.238349
	34.960000	0.182441
	34.965000	0.037737
	34.970000	0.103511
	34.975000	0.241638
	34.980000	0.182441
	34.985000	0.041026
	34.990000	0.100223
	34.995000	0.241638
	35.000000	0.175863
	35.005000	0.044314
	35.010000	0.103511
	35.015000	0.238349
	35.020000	0.179152
	35.025000	0.041026
	35.030000	0.100223
	35.035000	0.238349
	35.040000	0.182441
	35.045000	0.041026
	35.050000	0.106800
	35.055000	0.238349
	35.060000	0.175863
	35.065000	0.041026
	35.070000	0.103511
	35.075000	0.238349
	35.080000	0.175863
	35.085000	0.037737
	35.090000	0.103511
	35.095000	0.241638
	35.100000	0.179152
	35.105000	0.041026
	35.110000	0.103511
	35.115000	0.238349
	35.120000	0.182441
	35.125000	0.037737
	35.130000	0.103511
	35.135000	0.238349
	35.140000	0.179152
	35.145000	0.041026
	35.150000	0.103511
	35.155000	0.241638
	35.160000	0.179152
	35.165000	0.044314
	35.170000	0.096934
	35.175000	0.241638
	35.180000	0.179152
	35.185000	0.037737
	35.190000	0.096934
	35.195000	0.241638
	35.200000	0.175863
	35.205000	0.037737
	35.210000	0.096934
	35.215000	0.235060
	35.220000	0.179152
	35.225000	0.037737
	35.230000	0.096934
	35.235000	0.238349
	35.240000	0.182441
	35.245000	0.041026
	35.250000	0.096934
	35.255000	0.238349
	35.260000	0.182441
	35.265000	0.041026
	35.270000	0.096934
	35.275000	0.235060
	35.280000	0.179152
	35.285000	0.037737
	35.290000	0.103511
	35.295000	0.238349
	35.300000	0.179152
	35.305000	0.044314
	35.310000	0.100223
	35.315000	0.241638
	35.320000	0.179152
	35.325000	0.037737
	35.330000	0.096934
	35.335000	0.235060
	35.340000	0.179152
	35.345000	0.037737
	35.350000	0.096934
	35.355000	0.238349
	35.360000	0.179152
	35.365000	0.041026
	35.370000	0.093645
	35.375000	0.238349
	35.380000	0.179152
	35.385000	0.037737
	35.390000	0.100223
	35.395000	0.238349
	35.400000	0.182441
	35.405000	0.041026
	35.410000	0.093645
	35.415000	0.231772
	35.420000	0.182441
	35.425000	0.041026
	35.430000	0.096934
	35.435000	0.235060
	35.440000	0.175863
	35.445000	0.037737
	35.450000	0.093645
	35.455000	0.235060
	35.460000	0.182441
	35.465000	0.034448
	35.470000	0.096934
	35.475000	0.235060
	35.480000	0.179152
	35.485000	0.037737
	35.490000	0.093645
	35.495000	0.231772
	35.500000	0.179152
	35.505000	0.037737
	35.510000	0.093645
	35.515000	0.235060
	35.520000	0.179152
	35.525000	0.037737
	35.530000	0.093645
	35.535000	0.231772
	35.540000	0.182441
	35.545000	0.037737
	35.550000	0.096934
	35.555000	0.231772
	35.560000	0.179152
	35.565000	0.037737
	35.570000	0.096934
	35.575000	0.238349
	35.580000	0.185730
	35.585000	0.037737
	35.590000	0.093645
	35.595000	0.235060
	35.600000	0.182441
	35.605000	0.041026
	35.610000	0.096934
	35.615000	0.235060
	35.620000	0.182441
	35.625000	0.037737
	35.630000	0.093645
	35.635000	0.235060
	35.640000	0.179152
	35.645000	0.037737
	35.650000	0.096934
	35.655000	0.235060
	35.660000	0.179152
	35.665000	0.041026
	35.670000	0.093645
	35.675000	0.235060
	35.680000	0.179152
	35.685000	0.041026
	35.690000	0.093645
	35.695000	0.235060
	35.700000	0.179152
	35.705000	0.041026
	35.710000	0.093645
	35.715000	0.231772
	35.720000	0.185730
	35.725000	0.041026
	35.730000	0.093645
	35.735000	0.231772
	35.740000	0.182441
	35.745000	0.037737
	35.750000	0.090357
	35.755000	0.228483
	35.760000	0.179152
