2024/7/26 	 22:24:36 
 This file comes from Vt only measurement 	 1.000000E-1 
 Voltage Sensitivity 	 0.000000E+0 
 Sampling rate 	 200 
 Number of samples per channel 	 -1 
 No filter from Labview 	 	 	 
 	 
 ***End_of_Header*** 
 	 Time 	  Voltage 	 Filtered Voltage 	 
	0.000000	0.261370
	0.005000	0.290969
	0.010000	0.133110
	0.015000	0.100223
	0.020000	0.264659
	0.025000	0.297546
	0.030000	0.136399
	0.035000	0.100223
	0.040000	0.264659
	0.045000	0.294257
	0.050000	0.136399
	0.055000	0.106800
	0.060000	0.267948
	0.065000	0.294257
	0.070000	0.136399
	0.075000	0.100223
	0.080000	0.264659
	0.085000	0.290969
	0.090000	0.133110
	0.095000	0.106800
	0.100000	0.267948
	0.105000	0.294257
	0.110000	0.136399
	0.115000	0.103511
	0.120000	0.264659
	0.125000	0.290969
	0.130000	0.139687
	0.135000	0.103511
	0.140000	0.264659
	0.145000	0.297546
	0.150000	0.139687
	0.155000	0.106800
	0.160000	0.264659
	0.165000	0.297546
	0.170000	0.136399
	0.175000	0.103511
	0.180000	0.261370
	0.185000	0.297546
	0.190000	0.139687
	0.195000	0.103511
	0.200000	0.267948
	0.205000	0.297546
	0.210000	0.139687
	0.215000	0.103511
	0.220000	0.261370
	0.225000	0.300835
	0.230000	0.139687
	0.235000	0.106800
	0.240000	0.264659
	0.245000	0.300835
	0.250000	0.139687
	0.255000	0.110089
	0.260000	0.267948
	0.265000	0.300835
	0.270000	0.136399
	0.275000	0.103511
	0.280000	0.264659
	0.285000	0.300835
	0.290000	0.142976
	0.295000	0.103511
	0.300000	0.267948
	0.305000	0.300835
	0.310000	0.139687
	0.315000	0.110089
	0.320000	0.264659
	0.325000	0.300835
	0.330000	0.146265
	0.335000	0.106800
	0.340000	0.267948
	0.345000	0.304124
	0.350000	0.142976
	0.355000	0.103511
	0.360000	0.261370
	0.365000	0.300835
	0.370000	0.142976
	0.375000	0.103511
	0.380000	0.264659
	0.385000	0.300835
	0.390000	0.142976
	0.395000	0.110089
	0.400000	0.264659
	0.405000	0.304124
	0.410000	0.142976
	0.415000	0.110089
	0.420000	0.267948
	0.425000	0.300835
	0.430000	0.146265
	0.435000	0.106800
	0.440000	0.264659
	0.445000	0.300835
	0.450000	0.146265
	0.455000	0.106800
	0.460000	0.267948
	0.465000	0.297546
	0.470000	0.146265
	0.475000	0.106800
	0.480000	0.264659
	0.485000	0.300835
	0.490000	0.146265
	0.495000	0.103511
	0.500000	0.261370
	0.505000	0.304124
	0.510000	0.146265
	0.515000	0.106800
	0.520000	0.264659
	0.525000	0.304124
	0.530000	0.142976
	0.535000	0.106800
	0.540000	0.264659
	0.545000	0.304124
	0.550000	0.146265
	0.555000	0.106800
	0.560000	0.261370
	0.565000	0.304124
	0.570000	0.146265
	0.575000	0.106800
	0.580000	0.264659
	0.585000	0.304124
	0.590000	0.146265
	0.595000	0.106800
	0.600000	0.267948
	0.605000	0.300835
	0.610000	0.146265
	0.615000	0.106800
	0.620000	0.264659
	0.625000	0.304124
	0.630000	0.149554
	0.635000	0.103511
	0.640000	0.264659
	0.645000	0.304124
	0.650000	0.142976
	0.655000	0.103511
	0.660000	0.264659
	0.665000	0.307412
	0.670000	0.146265
	0.675000	0.106800
	0.680000	0.261370
	0.685000	0.304124
	0.690000	0.146265
	0.695000	0.106800
	0.700000	0.261370
	0.705000	0.307412
	0.710000	0.146265
	0.715000	0.100223
	0.720000	0.261370
	0.725000	0.307412
	0.730000	0.142976
	0.735000	0.103511
	0.740000	0.264659
	0.745000	0.304124
	0.750000	0.146265
	0.755000	0.110089
	0.760000	0.258081
	0.765000	0.304124
	0.770000	0.146265
	0.775000	0.106800
	0.780000	0.261370
	0.785000	0.307412
	0.790000	0.149554
	0.795000	0.103511
	0.800000	0.264659
	0.805000	0.310701
	0.810000	0.149554
	0.815000	0.106800
	0.820000	0.261370
	0.825000	0.307412
	0.830000	0.146265
	0.835000	0.103511
	0.840000	0.258081
	0.845000	0.304124
	0.850000	0.156131
	0.855000	0.106800
	0.860000	0.264659
	0.865000	0.304124
	0.870000	0.152842
	0.875000	0.100223
	0.880000	0.264659
	0.885000	0.304124
	0.890000	0.146265
	0.895000	0.106800
	0.900000	0.264659
	0.905000	0.307412
	0.910000	0.146265
	0.915000	0.106800
	0.920000	0.264659
	0.925000	0.310701
	0.930000	0.149554
	0.935000	0.103511
	0.940000	0.264659
	0.945000	0.304124
	0.950000	0.152842
	0.955000	0.106800
	0.960000	0.261370
	0.965000	0.307412
	0.970000	0.152842
	0.975000	0.106800
	0.980000	0.264659
	0.985000	0.307412
	0.990000	0.152842
	0.995000	0.110089
	1.000000	0.261370
	1.005000	0.307412
	1.010000	0.159420
	1.015000	0.106800
	1.020000	0.258081
	1.025000	0.310701
	1.030000	0.152842
	1.035000	0.106800
	1.040000	0.258081
	1.045000	0.313990
	1.050000	0.152842
	1.055000	0.106800
	1.060000	0.261370
	1.065000	0.307412
	1.070000	0.149554
	1.075000	0.103511
	1.080000	0.261370
	1.085000	0.310701
	1.090000	0.156131
	1.095000	0.106800
	1.100000	0.264659
	1.105000	0.307412
	1.110000	0.156131
	1.115000	0.106800
	1.120000	0.261370
	1.125000	0.307412
	1.130000	0.152842
	1.135000	0.103511
	1.140000	0.261370
	1.145000	0.313990
	1.150000	0.156131
	1.155000	0.110089
	1.160000	0.258081
	1.165000	0.310701
	1.170000	0.152842
	1.175000	0.106800
	1.180000	0.264659
	1.185000	0.307412
	1.190000	0.156131
	1.195000	0.106800
	1.200000	0.264659
	1.205000	0.313990
	1.210000	0.152842
	1.215000	0.103511
	1.220000	0.264659
	1.225000	0.313990
	1.230000	0.156131
	1.235000	0.100223
	1.240000	0.264659
	1.245000	0.310701
	1.250000	0.162708
	1.255000	0.103511
	1.260000	0.267948
	1.265000	0.310701
	1.270000	0.156131
	1.275000	0.100223
	1.280000	0.264659
	1.285000	0.310701
	1.290000	0.156131
	1.295000	0.113378
	1.300000	0.271236
	1.305000	0.327145
	1.310000	0.172575
	1.315000	0.119955
	1.320000	0.284391
	1.325000	0.340299
	1.330000	0.179152
	1.335000	0.136399
	1.340000	0.300835
	1.345000	0.360032
	1.350000	0.202173
	1.355000	0.152842
	1.360000	0.313990
	1.365000	0.366609
	1.370000	0.215328
	1.375000	0.152842
	1.380000	0.317278
	1.385000	0.373187
	1.390000	0.212039
	1.395000	0.159420
	1.400000	0.320567
	1.405000	0.373187
	1.410000	0.215328
	1.415000	0.156131
	1.420000	0.323856
	1.425000	0.379764
	1.430000	0.218617
	1.435000	0.156131
	1.440000	0.320567
	1.445000	0.379764
	1.450000	0.215328
	1.455000	0.159420
	1.460000	0.320567
	1.465000	0.373187
	1.470000	0.212039
	1.475000	0.156131
	1.480000	0.320567
	1.485000	0.373187
	1.490000	0.212039
	1.495000	0.156131
	1.500000	0.317278
	1.505000	0.379764
	1.510000	0.212039
	1.515000	0.159420
	1.520000	0.310701
	1.525000	0.376475
	1.530000	0.208751
	1.535000	0.152842
	1.540000	0.310701
	1.545000	0.369898
	1.550000	0.208751
	1.555000	0.146265
	1.560000	0.307412
	1.565000	0.363321
	1.570000	0.205462
	1.575000	0.146265
	1.580000	0.307412
	1.585000	0.373187
	1.590000	0.205462
	1.595000	0.152842
	1.600000	0.310701
	1.605000	0.373187
	1.610000	0.212039
	1.615000	0.152842
	1.620000	0.310701
	1.625000	0.379764
	1.630000	0.215328
	1.635000	0.152842
	1.640000	0.317278
	1.645000	0.373187
	1.650000	0.215328
	1.655000	0.152842
	1.660000	0.313990
	1.665000	0.376475
	1.670000	0.215328
	1.675000	0.149554
	1.680000	0.307412
	1.685000	0.373187
	1.690000	0.212039
	1.695000	0.139687
	1.700000	0.310701
	1.705000	0.366609
	1.710000	0.205462
	1.715000	0.139687
	1.720000	0.300835
	1.725000	0.363321
	1.730000	0.198884
	1.735000	0.129821
	1.740000	0.287680
	1.745000	0.346877
	1.750000	0.189018
	1.755000	0.119955
	1.760000	0.274525
	1.765000	0.333722
	1.770000	0.179152
	1.775000	0.106800
	1.780000	0.264659
	1.785000	0.323856
	1.790000	0.165997
	1.795000	0.096934
	1.800000	0.254793
	1.805000	0.317278
	1.810000	0.156131
	1.815000	0.087068
	1.820000	0.238349
	1.825000	0.294257
	1.830000	0.126533
	1.835000	0.057469
	1.840000	0.198884
	1.845000	0.254793
	1.850000	0.093645
	1.855000	0.027871
	1.860000	0.175863
	1.865000	0.235060
	1.870000	0.077202
	1.875000	0.011427
	1.880000	0.162708
	1.885000	0.221905
	1.890000	0.067335
	1.895000	0.001561
	1.900000	0.152842
	1.905000	0.215328
	1.910000	0.064047
	1.915000	-0.001728
	1.920000	0.152842
	1.925000	0.215328
	1.930000	0.064047
	1.935000	-0.008305
	1.940000	0.149554
	1.945000	0.215328
	1.950000	0.060758
	1.955000	-0.001728
	1.960000	0.149554
	1.965000	0.215328
	1.970000	0.064047
	1.975000	0.001561
	1.980000	0.159420
	1.985000	0.221905
	1.990000	0.067335
	1.995000	0.004850
	2.000000	0.152842
	2.005000	0.218617
	2.010000	0.077202
	2.015000	0.004850
	2.020000	0.162708
	2.025000	0.225194
	2.030000	0.077202
	2.035000	0.008138
	2.040000	0.165997
	2.045000	0.231772
	2.050000	0.080490
	2.055000	0.018005
	2.060000	0.169286
	2.065000	0.235060
	2.070000	0.087068
	2.075000	0.027871
	2.080000	0.172575
	2.085000	0.238349
	2.090000	0.093645
	2.095000	0.034448
	2.100000	0.182441
	2.105000	0.251504
	2.110000	0.103511
	2.115000	0.041026
	2.120000	0.189018
	2.125000	0.264659
	2.130000	0.113378
	2.135000	0.047603
	2.140000	0.202173
	2.145000	0.271236
	2.150000	0.123244
	2.155000	0.057469
	2.160000	0.208751
	2.165000	0.274525
	2.170000	0.129821
	2.175000	0.057469
	2.180000	0.212039
	2.185000	0.281102
	2.190000	0.133110
	2.195000	0.064047
	2.200000	0.208751
	2.205000	0.277814
	2.210000	0.133110
	2.215000	0.067335
	2.220000	0.215328
	2.225000	0.284391
	2.230000	0.136399
	2.235000	0.070624
	2.240000	0.212039
	2.245000	0.281102
	2.250000	0.129821
	2.255000	0.057469
	2.260000	0.208751
	2.265000	0.274525
	2.270000	0.129821
	2.275000	0.057469
	2.280000	0.205462
	2.285000	0.271236
	2.290000	0.119955
	2.295000	0.047603
	2.300000	0.198884
	2.305000	0.264659
	2.310000	0.116666
	2.315000	0.044314
	2.320000	0.185730
	2.325000	0.258081
	2.330000	0.113378
	2.335000	0.037737
	2.340000	0.185730
	2.345000	0.251504
	2.350000	0.110089
	2.355000	0.034448
	2.360000	0.185730
	2.365000	0.258081
	2.370000	0.110089
	2.375000	0.041026
	2.380000	0.185730
	2.385000	0.261370
	2.390000	0.110089
	2.395000	0.044314
	2.400000	0.185730
	2.405000	0.258081
	2.410000	0.116666
	2.415000	0.041026
	2.420000	0.189018
	2.425000	0.258081
	2.430000	0.113378
	2.435000	0.047603
	2.440000	0.192307
	2.445000	0.258081
	2.450000	0.123244
	2.455000	0.047603
	2.460000	0.192307
	2.465000	0.258081
	2.470000	0.113378
	2.475000	0.050892
	2.480000	0.195596
	2.485000	0.264659
	2.490000	0.116666
	2.495000	0.050892
	2.500000	0.195596
	2.505000	0.261370
	2.510000	0.116666
	2.515000	0.054181
	2.520000	0.195596
	2.525000	0.261370
	2.530000	0.119955
	2.535000	0.054181
	2.540000	0.195596
	2.545000	0.267948
	2.550000	0.126533
	2.555000	0.057469
	2.560000	0.195596
	2.565000	0.274525
	2.570000	0.133110
	2.575000	0.060758
	2.580000	0.205462
	2.585000	0.277814
	2.590000	0.136399
	2.595000	0.064047
	2.600000	0.212039
	2.605000	0.284391
	2.610000	0.136399
	2.615000	0.067335
	2.620000	0.215328
	2.625000	0.284391
	2.630000	0.139687
	2.635000	0.073913
	2.640000	0.218617
	2.645000	0.290969
	2.650000	0.149554
	2.655000	0.080490
	2.660000	0.218617
	2.665000	0.290969
	2.670000	0.149554
	2.675000	0.077202
	2.680000	0.221905
	2.685000	0.287680
	2.690000	0.152842
	2.695000	0.077202
	2.700000	0.218617
	2.705000	0.294257
	2.710000	0.152842
	2.715000	0.080490
	2.720000	0.221905
	2.725000	0.294257
	2.730000	0.156131
	2.735000	0.077202
	2.740000	0.221905
	2.745000	0.297546
	2.750000	0.152842
	2.755000	0.080490
	2.760000	0.225194
	2.765000	0.300835
	2.770000	0.156131
	2.775000	0.083779
	2.780000	0.221905
	2.785000	0.297546
	2.790000	0.156131
	2.795000	0.073913
	2.800000	0.221905
	2.805000	0.300835
	2.810000	0.152842
	2.815000	0.080490
	2.820000	0.221905
	2.825000	0.294257
	2.830000	0.152842
	2.835000	0.077202
	2.840000	0.215328
	2.845000	0.290969
	2.850000	0.156131
	2.855000	0.077202
	2.860000	0.218617
	2.865000	0.294257
	2.870000	0.156131
	2.875000	0.080490
	2.880000	0.221905
	2.885000	0.294257
	2.890000	0.156131
	2.895000	0.080490
	2.900000	0.212039
	2.905000	0.297546
	2.910000	0.162708
	2.915000	0.083779
	2.920000	0.225194
	2.925000	0.304124
	2.930000	0.162708
	2.935000	0.083779
	2.940000	0.225194
	2.945000	0.297546
	2.950000	0.162708
	2.955000	0.090357
	2.960000	0.221905
	2.965000	0.304124
	2.970000	0.172575
	2.975000	0.090357
	2.980000	0.225194
	2.985000	0.307412
	2.990000	0.169286
	2.995000	0.087068
	3.000000	0.225194
	3.005000	0.310701
	3.010000	0.165997
	3.015000	0.090357
	3.020000	0.228483
	3.025000	0.307412
	3.030000	0.172575
	3.035000	0.087068
	3.040000	0.228483
	3.045000	0.304124
	3.050000	0.169286
	3.055000	0.087068
	3.060000	0.225194
	3.065000	0.307412
	3.070000	0.169286
	3.075000	0.090357
	3.080000	0.225194
	3.085000	0.310701
	3.090000	0.172575
	3.095000	0.087068
	3.100000	0.225194
	3.105000	0.307412
	3.110000	0.172575
	3.115000	0.087068
	3.120000	0.221905
	3.125000	0.297546
	3.130000	0.169286
	3.135000	0.087068
	3.140000	0.218617
	3.145000	0.304124
	3.150000	0.165997
	3.155000	0.087068
	3.160000	0.225194
	3.165000	0.304124
	3.170000	0.172575
	3.175000	0.090357
	3.180000	0.221905
	3.185000	0.307412
	3.190000	0.175863
	3.195000	0.093645
	3.200000	0.228483
	3.205000	0.317278
	3.210000	0.182441
	3.215000	0.093645
	3.220000	0.235060
	3.225000	0.317278
	3.230000	0.182441
	3.235000	0.096934
	3.240000	0.235060
	3.245000	0.320567
	3.250000	0.189018
	3.255000	0.100223
	3.260000	0.244927
	3.265000	0.337011
	3.270000	0.202173
	3.275000	0.116666
	3.280000	0.258081
	3.285000	0.350166
	3.290000	0.218617
	3.295000	0.129821
	3.300000	0.274525
	3.305000	0.369898
	3.310000	0.235060
	3.315000	0.149554
	3.320000	0.290969
	3.325000	0.383053
	3.330000	0.251504
	3.335000	0.156131
	3.340000	0.290969
	3.345000	0.386342
	3.350000	0.251504
	3.355000	0.162708
	3.360000	0.300835
	3.365000	0.389630
	3.370000	0.254793
	3.375000	0.165997
	3.380000	0.304124
	3.385000	0.399496
	3.390000	0.261370
	3.395000	0.172575
	3.400000	0.310701
	3.405000	0.399496
	3.410000	0.264659
	3.415000	0.165997
	3.420000	0.307412
	3.425000	0.402785
	3.430000	0.264659
	3.435000	0.169286
	3.440000	0.307412
	3.445000	0.399496
	3.450000	0.267948
	3.455000	0.172575
	3.460000	0.307412
	3.465000	0.409363
	3.470000	0.264659
	3.475000	0.179152
	3.480000	0.313990
	3.485000	0.409363
	3.490000	0.271236
	3.495000	0.175863
	3.500000	0.317278
	3.505000	0.412651
	3.510000	0.281102
	3.515000	0.179152
	3.520000	0.317278
	3.525000	0.406074
	3.530000	0.274525
	3.535000	0.179152
	3.540000	0.310701
	3.545000	0.406074
	3.550000	0.267948
	3.555000	0.175863
	3.560000	0.304124
	3.565000	0.406074
	3.570000	0.274525
	3.575000	0.169286
	3.580000	0.304124
	3.585000	0.399496
	3.590000	0.264659
	3.595000	0.165997
	3.600000	0.297546
	3.605000	0.392919
	3.610000	0.258081
	3.615000	0.156131
	3.620000	0.287680
	3.625000	0.383053
	3.630000	0.251504
	3.635000	0.149554
	3.640000	0.281102
	3.645000	0.373187
	3.650000	0.235060
	3.655000	0.136399
	3.660000	0.274525
	3.665000	0.363321
	3.670000	0.231772
	3.675000	0.126533
	3.680000	0.264659
	3.685000	0.356743
	3.690000	0.218617
	3.695000	0.119955
	3.700000	0.251504
	3.705000	0.343588
	3.710000	0.212039
	3.715000	0.110089
	3.720000	0.241638
	3.725000	0.340299
	3.730000	0.208751
	3.735000	0.106800
	3.740000	0.231772
	3.745000	0.330433
	3.750000	0.192307
	3.755000	0.096934
	3.760000	0.221905
	3.765000	0.317278
	3.770000	0.182441
	3.775000	0.067335
	3.780000	0.195596
	3.785000	0.277814
	3.790000	0.146265
	3.795000	0.041026
	3.800000	0.162708
	3.805000	0.254793
	3.810000	0.119955
	3.815000	0.021293
	3.820000	0.142976
	3.825000	0.238349
	3.830000	0.106800
	3.835000	0.008138
	3.840000	0.133110
	3.845000	0.228483
	3.850000	0.100223
	3.855000	0.008138
	3.860000	0.129821
	3.865000	0.228483
	3.870000	0.103511
	3.875000	0.008138
	3.880000	0.136399
	3.885000	0.228483
	3.890000	0.110089
	3.895000	0.014716
	3.900000	0.136399
	3.905000	0.235060
	3.910000	0.116666
	3.915000	0.021293
	3.920000	0.139687
	3.925000	0.241638
	3.930000	0.113378
	3.935000	0.021293
	3.940000	0.142976
	3.945000	0.241638
	3.950000	0.116666
	3.955000	0.018005
	3.960000	0.146265
	3.965000	0.238349
	3.970000	0.123244
	3.975000	0.021293
	3.980000	0.146265
	3.985000	0.244927
	3.990000	0.123244
	3.995000	0.027871
	4.000000	0.156131
	4.005000	0.254793
	4.010000	0.133110
	4.015000	0.034448
	4.020000	0.159420
	4.025000	0.258081
	4.030000	0.136399
	4.035000	0.041026
	4.040000	0.162708
	4.045000	0.267948
	4.050000	0.142976
	4.055000	0.047603
	4.060000	0.175863
	4.065000	0.271236
	4.070000	0.152842
	4.075000	0.054181
	4.080000	0.179152
	4.085000	0.277814
	4.090000	0.149554
	4.095000	0.054181
	4.100000	0.175863
	4.105000	0.287680
	4.110000	0.159420
	4.115000	0.054181
	4.120000	0.179152
	4.125000	0.284391
	4.130000	0.162708
	4.135000	0.060758
	4.140000	0.182441
	4.145000	0.287680
	4.150000	0.162708
	4.155000	0.064047
	4.160000	0.185730
	4.165000	0.284391
	4.170000	0.169286
	4.175000	0.070624
	4.180000	0.185730
	4.185000	0.290969
	4.190000	0.175863
	4.195000	0.070624
	4.200000	0.192307
	4.205000	0.297546
	4.210000	0.172575
	4.215000	0.073913
	4.220000	0.195596
	4.225000	0.297546
	4.230000	0.175863
	4.235000	0.070624
	4.240000	0.195596
	4.245000	0.294257
	4.250000	0.175863
	4.255000	0.073913
	4.260000	0.195596
	4.265000	0.297546
	4.270000	0.179152
	4.275000	0.077202
	4.280000	0.195596
	4.285000	0.294257
	4.290000	0.179152
	4.295000	0.077202
	4.300000	0.195596
	4.305000	0.300835
	4.310000	0.179152
	4.315000	0.073913
	4.320000	0.189018
	4.325000	0.294257
	4.330000	0.179152
	4.335000	0.077202
	4.340000	0.192307
	4.345000	0.297546
	4.350000	0.182441
	4.355000	0.070624
	4.360000	0.192307
	4.365000	0.297546
	4.370000	0.175863
	4.375000	0.070624
	4.380000	0.185730
	4.385000	0.294257
	4.390000	0.179152
	4.395000	0.073913
	4.400000	0.189018
	4.405000	0.294257
	4.410000	0.179152
	4.415000	0.073913
	4.420000	0.189018
	4.425000	0.294257
	4.430000	0.179152
	4.435000	0.077202
	4.440000	0.189018
	4.445000	0.290969
	4.450000	0.179152
	4.455000	0.070624
	4.460000	0.189018
	4.465000	0.297546
	4.470000	0.179152
	4.475000	0.070624
	4.480000	0.185730
	4.485000	0.290969
	4.490000	0.175863
	4.495000	0.070624
	4.500000	0.189018
	4.505000	0.294257
	4.510000	0.179152
	4.515000	0.067335
	4.520000	0.185730
	4.525000	0.294257
	4.530000	0.179152
	4.535000	0.067335
	4.540000	0.185730
	4.545000	0.297546
	4.550000	0.179152
	4.555000	0.070624
	4.560000	0.182441
	4.565000	0.300835
	4.570000	0.185730
	4.575000	0.073913
	4.580000	0.189018
	4.585000	0.297546
	4.590000	0.185730
	4.595000	0.080490
	4.600000	0.185730
	4.605000	0.294257
	4.610000	0.189018
	4.615000	0.073913
	4.620000	0.189018
	4.625000	0.300835
	4.630000	0.185730
	4.635000	0.077202
	4.640000	0.192307
	4.645000	0.297546
	4.650000	0.189018
	4.655000	0.077202
	4.660000	0.189018
	4.665000	0.297546
	4.670000	0.189018
	4.675000	0.077202
	4.680000	0.189018
	4.685000	0.297546
	4.690000	0.189018
	4.695000	0.080490
	4.700000	0.185730
	4.705000	0.297546
	4.710000	0.192307
	4.715000	0.080490
	4.720000	0.189018
	4.725000	0.300835
	4.730000	0.198884
	4.735000	0.080490
	4.740000	0.189018
	4.745000	0.304124
	4.750000	0.189018
	4.755000	0.080490
	4.760000	0.189018
	4.765000	0.304124
	4.770000	0.195596
	4.775000	0.080490
	4.780000	0.185730
	4.785000	0.304124
	4.790000	0.195596
	4.795000	0.083779
	4.800000	0.195596
	4.805000	0.304124
	4.810000	0.202173
	4.815000	0.080490
	4.820000	0.195596
	4.825000	0.300835
	4.830000	0.202173
	4.835000	0.080490
	4.840000	0.189018
	4.845000	0.304124
	4.850000	0.202173
	4.855000	0.090357
	4.860000	0.195596
	4.865000	0.307412
	4.870000	0.202173
	4.875000	0.083779
	4.880000	0.192307
	4.885000	0.304124
	4.890000	0.202173
	4.895000	0.090357
	4.900000	0.195596
	4.905000	0.307412
	4.910000	0.198884
	4.915000	0.080490
	4.920000	0.192307
	4.925000	0.307412
	4.930000	0.202173
	4.935000	0.083779
	4.940000	0.192307
	4.945000	0.313990
	4.950000	0.202173
	4.955000	0.083779
	4.960000	0.192307
	4.965000	0.307412
	4.970000	0.205462
	4.975000	0.087068
	4.980000	0.195596
	4.985000	0.307412
	4.990000	0.202173
	4.995000	0.087068
	5.000000	0.192307
	5.005000	0.310701
	5.010000	0.202173
	5.015000	0.087068
	5.020000	0.192307
	5.025000	0.310701
	5.030000	0.212039
	5.035000	0.090357
	5.040000	0.189018
	5.045000	0.310701
	5.050000	0.208751
	5.055000	0.087068
	5.060000	0.189018
	5.065000	0.317278
	5.070000	0.208751
	5.075000	0.090357
	5.080000	0.189018
	5.085000	0.310701
	5.090000	0.208751
	5.095000	0.083779
	5.100000	0.189018
	5.105000	0.310701
	5.110000	0.205462
	5.115000	0.090357
	5.120000	0.192307
	5.125000	0.307412
	5.130000	0.208751
	5.135000	0.090357
	5.140000	0.192307
	5.145000	0.313990
	5.150000	0.208751
	5.155000	0.090357
	5.160000	0.192307
	5.165000	0.310701
	5.170000	0.208751
	5.175000	0.090357
	5.180000	0.195596
	5.185000	0.313990
	5.190000	0.208751
	5.195000	0.093645
	5.200000	0.195596
	5.205000	0.310701
	5.210000	0.212039
	5.215000	0.090357
	5.220000	0.195596
	5.225000	0.310701
	5.230000	0.212039
	5.235000	0.093645
	5.240000	0.192307
	5.245000	0.313990
	5.250000	0.215328
	5.255000	0.090357
	5.260000	0.198884
	5.265000	0.320567
	5.270000	0.221905
	5.275000	0.100223
	5.280000	0.202173
	5.285000	0.323856
	5.290000	0.228483
	5.295000	0.110089
	5.300000	0.212039
	5.305000	0.340299
	5.310000	0.244927
	5.315000	0.126533
	5.320000	0.228483
	5.325000	0.356743
	5.330000	0.261370
	5.335000	0.133110
	5.340000	0.241638
	5.345000	0.373187
	5.350000	0.281102
	5.355000	0.159420
	5.360000	0.271236
	5.365000	0.399496
	5.370000	0.304124
	5.375000	0.175863
	5.380000	0.281102
	5.385000	0.409363
	5.390000	0.313990
	5.395000	0.182441
	5.400000	0.284391
	5.405000	0.412651
	5.410000	0.317278
	5.415000	0.185730
	5.420000	0.284391
	5.425000	0.415940
	5.430000	0.317278
	5.435000	0.182441
	5.440000	0.281102
	5.445000	0.406074
	5.450000	0.310701
	5.455000	0.179152
	5.460000	0.274525
	5.465000	0.399496
	5.470000	0.304124
	5.475000	0.175863
	5.480000	0.274525
	5.485000	0.402785
	5.490000	0.310701
	5.495000	0.172575
	5.500000	0.271236
	5.505000	0.402785
	5.510000	0.304124
	5.515000	0.165997
	5.520000	0.267948
	5.525000	0.399496
	5.530000	0.300835
	5.535000	0.169286
	5.540000	0.264659
	5.545000	0.396208
	5.550000	0.300835
	5.555000	0.169286
	5.560000	0.261370
	5.565000	0.396208
	5.570000	0.294257
	5.575000	0.159420
	5.580000	0.254793
	5.585000	0.396208
	5.590000	0.297546
	5.595000	0.169286
	5.600000	0.254793
	5.605000	0.392919
	5.610000	0.297546
	5.615000	0.162708
	5.620000	0.251504
	5.625000	0.396208
	5.630000	0.300835
	5.635000	0.159420
	5.640000	0.261370
	5.645000	0.389630
	5.650000	0.294257
	5.655000	0.159420
	5.660000	0.251504
	5.665000	0.396208
	5.670000	0.294257
	5.675000	0.159420
	5.680000	0.254793
	5.685000	0.386342
	5.690000	0.294257
	5.695000	0.156131
	5.700000	0.251504
	5.705000	0.383053
	5.710000	0.294257
	5.715000	0.156131
	5.720000	0.244927
	5.725000	0.376475
	5.730000	0.281102
	5.735000	0.146265
	5.740000	0.235060
	5.745000	0.363321
	5.750000	0.274525
	5.755000	0.133110
	5.760000	0.228483
	5.765000	0.356743
	5.770000	0.258081
	5.775000	0.113378
	5.780000	0.202173
	5.785000	0.327145
	5.790000	0.235060
	5.795000	0.093645
	5.800000	0.175863
	5.805000	0.300835
	5.810000	0.212039
	5.815000	0.073913
	5.820000	0.159420
	5.825000	0.287680
	5.830000	0.198884
	5.835000	0.064047
	5.840000	0.149554
	5.845000	0.277814
	5.850000	0.185730
	5.855000	0.054181
	5.860000	0.142976
	5.865000	0.274525
	5.870000	0.182441
	5.875000	0.054181
	5.880000	0.133110
	5.885000	0.264659
	5.890000	0.179152
	5.895000	0.044314
	5.900000	0.136399
	5.905000	0.264659
	5.910000	0.182441
	5.915000	0.054181
	5.920000	0.136399
	5.925000	0.267948
	5.930000	0.182441
	5.935000	0.054181
	5.940000	0.136399
	5.945000	0.271236
	5.950000	0.189018
	5.955000	0.050892
	5.960000	0.136399
	5.965000	0.274525
	5.970000	0.185730
	5.975000	0.050892
	5.980000	0.136399
	5.985000	0.274525
	5.990000	0.189018
	5.995000	0.057469
	6.000000	0.139687
	6.005000	0.277814
	6.010000	0.185730
	6.015000	0.054181
	6.020000	0.142976
	6.025000	0.274525
	6.030000	0.192307
	6.035000	0.060758
	6.040000	0.142976
	6.045000	0.277814
	6.050000	0.195596
	6.055000	0.064047
	6.060000	0.149554
	6.065000	0.284391
	6.070000	0.202173
	6.075000	0.070624
	6.080000	0.149554
	6.085000	0.287680
	6.090000	0.212039
	6.095000	0.073913
	6.100000	0.156131
	6.105000	0.297546
	6.110000	0.218617
	6.115000	0.083779
	6.120000	0.165997
	6.125000	0.304124
	6.130000	0.221905
	6.135000	0.083779
	6.140000	0.169286
	6.145000	0.304124
	6.150000	0.221905
	6.155000	0.087068
	6.160000	0.165997
	6.165000	0.307412
	6.170000	0.225194
	6.175000	0.093645
	6.180000	0.169286
	6.185000	0.304124
	6.190000	0.225194
	6.195000	0.090357
	6.200000	0.169286
	6.205000	0.307412
	6.210000	0.228483
	6.215000	0.093645
	6.220000	0.175863
	6.225000	0.310701
	6.230000	0.235060
	6.235000	0.096934
	6.240000	0.175863
	6.245000	0.310701
	6.250000	0.235060
	6.255000	0.100223
	6.260000	0.172575
	6.265000	0.313990
	6.270000	0.231772
	6.275000	0.093645
	6.280000	0.172575
	6.285000	0.310701
	6.290000	0.231772
	6.295000	0.090357
	6.300000	0.172575
	6.305000	0.300835
	6.310000	0.231772
	6.315000	0.087068
	6.320000	0.169286
	6.325000	0.307412
	6.330000	0.228483
	6.335000	0.087068
	6.340000	0.162708
	6.345000	0.304124
	6.350000	0.228483
	6.355000	0.087068
	6.360000	0.162708
	6.365000	0.300835
	6.370000	0.225194
	6.375000	0.083779
	6.380000	0.162708
	6.385000	0.307412
	6.390000	0.228483
	6.395000	0.087068
	6.400000	0.162708
	6.405000	0.304124
	6.410000	0.228483
	6.415000	0.087068
	6.420000	0.159420
	6.425000	0.304124
	6.430000	0.225194
	6.435000	0.087068
	6.440000	0.159420
	6.445000	0.300835
	6.450000	0.231772
	6.455000	0.083779
	6.460000	0.156131
	6.465000	0.297546
	6.470000	0.228483
	6.475000	0.083779
	6.480000	0.156131
	6.485000	0.294257
	6.490000	0.225194
	6.495000	0.087068
	6.500000	0.156131
	6.505000	0.294257
	6.510000	0.221905
	6.515000	0.083779
	6.520000	0.159420
	6.525000	0.300835
	6.530000	0.228483
	6.535000	0.083779
	6.540000	0.156131
	6.545000	0.297546
	6.550000	0.221905
	6.555000	0.083779
	6.560000	0.152842
	6.565000	0.297546
	6.570000	0.225194
	6.575000	0.087068
	6.580000	0.156131
	6.585000	0.300835
	6.590000	0.228483
	6.595000	0.087068
	6.600000	0.156131
	6.605000	0.300835
	6.610000	0.228483
	6.615000	0.087068
	6.620000	0.156131
	6.625000	0.297546
	6.630000	0.231772
	6.635000	0.087068
	6.640000	0.159420
	6.645000	0.300835
	6.650000	0.228483
	6.655000	0.090357
	6.660000	0.156131
	6.665000	0.300835
	6.670000	0.235060
	6.675000	0.087068
	6.680000	0.162708
	6.685000	0.297546
	6.690000	0.228483
	6.695000	0.087068
	6.700000	0.159420
	6.705000	0.304124
	6.710000	0.235060
	6.715000	0.093645
	6.720000	0.159420
	6.725000	0.300835
	6.730000	0.235060
	6.735000	0.093645
	6.740000	0.152842
	6.745000	0.297546
	6.750000	0.235060
	6.755000	0.090357
	6.760000	0.156131
	6.765000	0.300835
	6.770000	0.238349
	6.775000	0.090357
	6.780000	0.152842
	6.785000	0.300835
	6.790000	0.238349
	6.795000	0.093645
	6.800000	0.162708
	6.805000	0.300835
	6.810000	0.241638
	6.815000	0.096934
	6.820000	0.159420
	6.825000	0.307412
	6.830000	0.241638
	6.835000	0.096934
	6.840000	0.159420
	6.845000	0.307412
	6.850000	0.248215
	6.855000	0.100223
	6.860000	0.162708
	6.865000	0.307412
	6.870000	0.241638
	6.875000	0.103511
	6.880000	0.162708
	6.885000	0.310701
	6.890000	0.241638
	6.895000	0.100223
	6.900000	0.159420
	6.905000	0.310701
	6.910000	0.248215
	6.915000	0.100223
	6.920000	0.162708
	6.925000	0.307412
	6.930000	0.248215
	6.935000	0.096934
	6.940000	0.162708
	6.945000	0.307412
	6.950000	0.251504
	6.955000	0.100223
	6.960000	0.159420
	6.965000	0.307412
	6.970000	0.248215
	6.975000	0.103511
	6.980000	0.162708
	6.985000	0.307412
	6.990000	0.248215
	6.995000	0.103511
	7.000000	0.162708
	7.005000	0.307412
	7.010000	0.251504
	7.015000	0.100223
	7.020000	0.159420
	7.025000	0.307412
	7.030000	0.251504
	7.035000	0.103511
	7.040000	0.156131
	7.045000	0.310701
	7.050000	0.254793
	7.055000	0.100223
	7.060000	0.165997
	7.065000	0.307412
	7.070000	0.248215
	7.075000	0.100223
	7.080000	0.159420
	7.085000	0.307412
	7.090000	0.244927
	7.095000	0.103511
	7.100000	0.159420
	7.105000	0.307412
	7.110000	0.251504
	7.115000	0.100223
	7.120000	0.156131
	7.125000	0.304124
	7.130000	0.251504
	7.135000	0.103511
	7.140000	0.152842
	7.145000	0.307412
	7.150000	0.248215
	7.155000	0.103511
	7.160000	0.152842
	7.165000	0.307412
	7.170000	0.251504
	7.175000	0.103511
	7.180000	0.152842
	7.185000	0.304124
	7.190000	0.251504
	7.195000	0.103511
	7.200000	0.152842
	7.205000	0.304124
	7.210000	0.244927
	7.215000	0.096934
	7.220000	0.149554
	7.225000	0.304124
	7.230000	0.254793
	7.235000	0.103511
	7.240000	0.159420
	7.245000	0.304124
	7.250000	0.251504
	7.255000	0.106800
	7.260000	0.156131
	7.265000	0.304124
	7.270000	0.254793
	7.275000	0.100223
	7.280000	0.156131
	7.285000	0.304124
	7.290000	0.251504
	7.295000	0.100223
	7.300000	0.156131
	7.305000	0.300835
	7.310000	0.254793
	7.315000	0.110089
	7.320000	0.156131
	7.325000	0.307412
	7.330000	0.258081
	7.335000	0.106800
	7.340000	0.156131
	7.345000	0.310701
	7.350000	0.261370
	7.355000	0.110089
	7.360000	0.159420
	7.365000	0.307412
	7.370000	0.261370
	7.375000	0.110089
	7.380000	0.159420
	7.385000	0.304124
	7.390000	0.261370
	7.395000	0.110089
	7.400000	0.159420
	7.405000	0.313990
	7.410000	0.261370
	7.415000	0.110089
	7.420000	0.162708
	7.425000	0.317278
	7.430000	0.267948
	7.435000	0.119955
	7.440000	0.172575
	7.445000	0.317278
	7.450000	0.274525
	7.455000	0.119955
	7.460000	0.169286
	7.465000	0.320567
	7.470000	0.271236
	7.475000	0.119955
	7.480000	0.175863
	7.485000	0.327145
	7.490000	0.281102
	7.495000	0.129821
	7.500000	0.182441
	7.505000	0.330433
	7.510000	0.284391
	7.515000	0.136399
	7.520000	0.189018
	7.525000	0.346877
	7.530000	0.304124
	7.535000	0.149554
	7.540000	0.205462
	7.545000	0.366609
	7.550000	0.327145
	7.555000	0.179152
	7.560000	0.228483
	7.565000	0.392919
	7.570000	0.343588
	7.575000	0.198884
	7.580000	0.241638
	7.585000	0.399496
	7.590000	0.356743
	7.595000	0.205462
	7.600000	0.248215
	7.605000	0.406074
	7.610000	0.360032
	7.615000	0.202173
	7.620000	0.244927
	7.625000	0.409363
	7.630000	0.366609
	7.635000	0.198884
	7.640000	0.244927
	7.645000	0.402785
	7.650000	0.363321
	7.655000	0.195596
	7.660000	0.244927
	7.665000	0.402785
	7.670000	0.356743
	7.675000	0.195596
	7.680000	0.238349
	7.685000	0.396208
	7.690000	0.356743
	7.695000	0.192307
	7.700000	0.231772
	7.705000	0.386342
	7.710000	0.353454
	7.715000	0.182441
	7.720000	0.218617
	7.725000	0.386342
	7.730000	0.346877
	7.735000	0.185730
	7.740000	0.221905
	7.745000	0.386342
	7.750000	0.346877
	7.755000	0.182441
	7.760000	0.225194
	7.765000	0.389630
	7.770000	0.343588
	7.775000	0.185730
	7.780000	0.228483
	7.785000	0.386342
	7.790000	0.346877
	7.795000	0.189018
	7.800000	0.228483
	7.805000	0.392919
	7.810000	0.350166
	7.815000	0.189018
	7.820000	0.225194
	7.825000	0.383053
	7.830000	0.350166
	7.835000	0.182441
	7.840000	0.221905
	7.845000	0.383053
	7.850000	0.343588
	7.855000	0.175863
	7.860000	0.212039
	7.865000	0.379764
	7.870000	0.337011
	7.875000	0.169286
	7.880000	0.202173
	7.885000	0.363321
	7.890000	0.323856
	7.895000	0.165997
	7.900000	0.192307
	7.905000	0.353454
	7.910000	0.313990
	7.915000	0.149554
	7.920000	0.172575
	7.925000	0.327145
	7.930000	0.281102
	7.935000	0.119955
	7.940000	0.146265
	7.945000	0.294257
	7.950000	0.258081
	7.955000	0.096934
	7.960000	0.119955
	7.965000	0.281102
	7.970000	0.235060
	7.975000	0.077202
	7.980000	0.106800
	7.985000	0.264659
	7.990000	0.231772
	7.995000	0.077202
	8.000000	0.103511
	8.005000	0.254793
	8.010000	0.218617
	8.015000	0.064047
	8.020000	0.096934
	8.025000	0.248215
	8.030000	0.221905
	8.035000	0.064047
	8.040000	0.093645
	8.045000	0.251504
	8.050000	0.221905
	8.055000	0.067335
	8.060000	0.093645
	8.065000	0.251504
	8.070000	0.221905
	8.075000	0.060758
	8.080000	0.093645
	8.085000	0.251504
	8.090000	0.221905
	8.095000	0.067335
	8.100000	0.093645
	8.105000	0.251504
	8.110000	0.221905
	8.115000	0.064047
	8.120000	0.093645
	8.125000	0.254793
	8.130000	0.225194
	8.135000	0.067335
	8.140000	0.100223
	8.145000	0.251504
	8.150000	0.225194
	8.155000	0.070624
	8.160000	0.093645
	8.165000	0.251504
	8.170000	0.228483
	8.175000	0.070624
	8.180000	0.100223
	8.185000	0.251504
	8.190000	0.228483
	8.195000	0.077202
	8.200000	0.100223
	8.205000	0.258081
	8.210000	0.231772
	8.215000	0.077202
	8.220000	0.106800
	8.225000	0.264659
	8.230000	0.241638
	8.235000	0.077202
	8.240000	0.106800
	8.245000	0.267948
	8.250000	0.238349
	8.255000	0.087068
	8.260000	0.110089
	8.265000	0.267948
	8.270000	0.238349
	8.275000	0.087068
	8.280000	0.113378
	8.285000	0.274525
	8.290000	0.248215
	8.295000	0.093645
	8.300000	0.116666
	8.305000	0.271236
	8.310000	0.248215
	8.315000	0.096934
	8.320000	0.123244
	8.325000	0.281102
	8.330000	0.251504
	8.335000	0.100223
	8.340000	0.126533
	8.345000	0.277814
	8.350000	0.258081
	8.355000	0.100223
	8.360000	0.123244
	8.365000	0.281102
	8.370000	0.261370
	8.375000	0.103511
	8.380000	0.123244
	8.385000	0.281102
	8.390000	0.254793
	8.395000	0.103511
	8.400000	0.123244
	8.405000	0.281102
	8.410000	0.254793
	8.415000	0.096934
	8.420000	0.123244
	8.425000	0.281102
	8.430000	0.258081
	8.435000	0.103511
	8.440000	0.116666
	8.445000	0.274525
	8.450000	0.254793
	8.455000	0.100223
	8.460000	0.113378
	8.465000	0.274525
	8.470000	0.254793
	8.475000	0.090357
	8.480000	0.113378
	8.485000	0.267948
	8.490000	0.248215
	8.495000	0.090357
	8.500000	0.110089
	8.505000	0.267948
	8.510000	0.251504
	8.515000	0.090357
	8.520000	0.106800
	8.525000	0.261370
	8.530000	0.248215
	8.535000	0.087068
	8.540000	0.110089
	8.545000	0.264659
	8.550000	0.248215
	8.555000	0.093645
	8.560000	0.110089
	8.565000	0.264659
	8.570000	0.248215
	8.575000	0.090357
	8.580000	0.110089
	8.585000	0.267948
	8.590000	0.251504
	8.595000	0.090357
	8.600000	0.110089
	8.605000	0.261370
	8.610000	0.251504
	8.615000	0.093645
	8.620000	0.106800
	8.625000	0.264659
	8.630000	0.254793
	8.635000	0.090357
	8.640000	0.110089
	8.645000	0.264659
	8.650000	0.244927
	8.655000	0.090357
	8.660000	0.106800
	8.665000	0.264659
	8.670000	0.244927
	8.675000	0.090357
	8.680000	0.106800
	8.685000	0.261370
	8.690000	0.251504
	8.695000	0.090357
	8.700000	0.103511
	8.705000	0.261370
	8.710000	0.248215
	8.715000	0.096934
	8.720000	0.103511
	8.725000	0.267948
	8.730000	0.251504
	8.735000	0.093645
	8.740000	0.113378
	8.745000	0.264659
	8.750000	0.254793
	8.755000	0.103511
	8.760000	0.110089
	8.765000	0.267948
	8.770000	0.261370
	8.775000	0.106800
	8.780000	0.116666
	8.785000	0.277814
	8.790000	0.261370
	8.795000	0.110089
	8.800000	0.116666
	8.805000	0.274525
	8.810000	0.264659
	8.815000	0.110089
	8.820000	0.123244
	8.825000	0.274525
	8.830000	0.267948
	8.835000	0.106800
	8.840000	0.123244
	8.845000	0.277814
	8.850000	0.267948
	8.855000	0.106800
	8.860000	0.119955
	8.865000	0.277814
	8.870000	0.271236
	8.875000	0.110089
	8.880000	0.123244
	8.885000	0.287680
	8.890000	0.274525
	8.895000	0.116666
	8.900000	0.119955
	8.905000	0.281102
	8.910000	0.271236
	8.915000	0.113378
	8.920000	0.123244
	8.925000	0.281102
	8.930000	0.274525
	8.935000	0.123244
	8.940000	0.119955
	8.945000	0.284391
	8.950000	0.281102
	8.955000	0.116666
	8.960000	0.123244
	8.965000	0.284391
	8.970000	0.277814
	8.975000	0.116666
	8.980000	0.126533
	8.985000	0.284391
	8.990000	0.277814
	8.995000	0.123244
	9.000000	0.126533
	9.005000	0.281102
	9.010000	0.277814
	9.015000	0.116666
	9.020000	0.123244
	9.025000	0.281102
	9.030000	0.277814
	9.035000	0.116666
	9.040000	0.126533
	9.045000	0.277814
	9.050000	0.277814
	9.055000	0.113378
	9.060000	0.123244
	9.065000	0.281102
	9.070000	0.277814
	9.075000	0.123244
	9.080000	0.119955
	9.085000	0.277814
	9.090000	0.277814
	9.095000	0.119955
	9.100000	0.119955
	9.105000	0.274525
	9.110000	0.277814
	9.115000	0.123244
	9.120000	0.119955
	9.125000	0.277814
	9.130000	0.284391
	9.135000	0.116666
	9.140000	0.126533
	9.145000	0.277814
	9.150000	0.277814
	9.155000	0.119955
	9.160000	0.116666
	9.165000	0.281102
	9.170000	0.284391
	9.175000	0.119955
	9.180000	0.123244
	9.185000	0.281102
	9.190000	0.277814
	9.195000	0.126533
	9.200000	0.116666
	9.205000	0.277814
	9.210000	0.281102
	9.215000	0.123244
	9.220000	0.119955
	9.225000	0.277814
	9.230000	0.281102
	9.235000	0.129821
	9.240000	0.123244
	9.245000	0.281102
	9.250000	0.277814
	9.255000	0.119955
	9.260000	0.123244
	9.265000	0.277814
	9.270000	0.284391
	9.275000	0.126533
	9.280000	0.123244
	9.285000	0.277814
	9.290000	0.284391
	9.295000	0.126533
	9.300000	0.116666
	9.305000	0.281102
	9.310000	0.284391
	9.315000	0.126533
	9.320000	0.123244
	9.325000	0.277814
	9.330000	0.281102
	9.335000	0.129821
	9.340000	0.123244
	9.345000	0.281102
	9.350000	0.287680
	9.355000	0.129821
	9.360000	0.123244
	9.365000	0.277814
	9.370000	0.290969
	9.375000	0.129821
	9.380000	0.123244
	9.385000	0.281102
	9.390000	0.290969
	9.395000	0.133110
	9.400000	0.126533
	9.405000	0.281102
	9.410000	0.284391
	9.415000	0.129821
	9.420000	0.123244
	9.425000	0.281102
	9.430000	0.287680
	9.435000	0.133110
	9.440000	0.123244
	9.445000	0.284391
	9.450000	0.287680
	9.455000	0.136399
	9.460000	0.126533
	9.465000	0.281102
	9.470000	0.294257
	9.475000	0.133110
	9.480000	0.119955
	9.485000	0.284391
	9.490000	0.290969
	9.495000	0.136399
	9.500000	0.123244
	9.505000	0.281102
	9.510000	0.294257
	9.515000	0.136399
	9.520000	0.126533
	9.525000	0.284391
	9.530000	0.294257
	9.535000	0.133110
	9.540000	0.123244
	9.545000	0.287680
	9.550000	0.294257
	9.555000	0.139687
	9.560000	0.129821
	9.565000	0.284391
	9.570000	0.300835
	9.575000	0.139687
	9.580000	0.129821
	9.585000	0.287680
	9.590000	0.304124
	9.595000	0.146265
	9.600000	0.133110
	9.605000	0.294257
	9.610000	0.310701
	9.615000	0.152842
	9.620000	0.139687
	9.625000	0.300835
	9.630000	0.313990
	9.635000	0.156131
	9.640000	0.146265
	9.645000	0.307412
	9.650000	0.320567
	9.655000	0.162708
	9.660000	0.139687
	9.665000	0.300835
	9.670000	0.320567
	9.675000	0.162708
	9.680000	0.152842
	9.685000	0.313990
	9.690000	0.337011
	9.695000	0.179152
	9.700000	0.175863
	9.705000	0.340299
	9.710000	0.363321
	9.715000	0.212039
	9.720000	0.195596
	9.725000	0.360032
	9.730000	0.386342
	9.735000	0.225194
	9.740000	0.212039
	9.745000	0.379764
	9.750000	0.399496
	9.755000	0.231772
	9.760000	0.218617
	9.765000	0.379764
	9.770000	0.402785
	9.775000	0.238349
	9.780000	0.212039
	9.785000	0.379764
	9.790000	0.402785
	9.795000	0.235060
	9.800000	0.208751
	9.805000	0.373187
	9.810000	0.396208
	9.815000	0.231772
	9.820000	0.205462
	9.825000	0.373187
	9.830000	0.396208
	9.835000	0.228483
	9.840000	0.202173
	9.845000	0.369898
	9.850000	0.396208
	9.855000	0.228483
	9.860000	0.205462
	9.865000	0.379764
	9.870000	0.399496
	9.875000	0.235060
	9.880000	0.208751
	9.885000	0.373187
	9.890000	0.399496
	9.895000	0.235060
	9.900000	0.212039
	9.905000	0.373187
	9.910000	0.399496
	9.915000	0.235060
	9.920000	0.208751
	9.925000	0.369898
	9.930000	0.396208
	9.935000	0.225194
	9.940000	0.202173
	9.945000	0.366609
	9.950000	0.392919
	9.955000	0.225194
	9.960000	0.198884
	9.965000	0.366609
	9.970000	0.392919
	9.975000	0.228483
	9.980000	0.198884
	9.985000	0.360032
	9.990000	0.392919
	9.995000	0.228483
	10.000000	0.198884
	10.005000	0.360032
	10.010000	0.392919
	10.015000	0.221905
	10.020000	0.195596
	10.025000	0.356743
	10.030000	0.386342
	10.035000	0.221905
	10.040000	0.189018
	10.045000	0.353454
	10.050000	0.379764
	10.055000	0.215328
	10.060000	0.182441
	10.065000	0.346877
	10.070000	0.373187
	10.075000	0.202173
	10.080000	0.175863
	10.085000	0.330433
	10.090000	0.363321
	10.095000	0.195596
	10.100000	0.159420
	10.105000	0.320567
	10.110000	0.350166
	10.115000	0.182441
	10.120000	0.146265
	10.125000	0.297546
	10.130000	0.313990
	10.135000	0.142976
	10.140000	0.106800
	10.145000	0.254793
	10.150000	0.281102
	10.155000	0.119955
	10.160000	0.083779
	10.165000	0.238349
	10.170000	0.264659
	10.175000	0.103511
	10.180000	0.070624
	10.185000	0.221905
	10.190000	0.251504
	10.195000	0.090357
	10.200000	0.057469
	10.205000	0.215328
	10.210000	0.241638
	10.215000	0.083779
	10.220000	0.050892
	10.225000	0.208751
	10.230000	0.238349
	10.235000	0.083779
	10.240000	0.050892
	10.245000	0.208751
	10.250000	0.241638
	10.255000	0.090357
	10.260000	0.054181
	10.265000	0.212039
	10.270000	0.248215
	10.275000	0.090357
	10.280000	0.060758
	10.285000	0.215328
	10.290000	0.248215
	10.295000	0.096934
	10.300000	0.064047
	10.305000	0.212039
	10.310000	0.254793
	10.315000	0.096934
	10.320000	0.064047
	10.325000	0.221905
	10.330000	0.258081
	10.335000	0.106800
	10.340000	0.067335
	10.345000	0.221905
	10.350000	0.258081
	10.355000	0.106800
	10.360000	0.070624
	10.365000	0.228483
	10.370000	0.261370
	10.375000	0.106800
	10.380000	0.070624
	10.385000	0.218617
	10.390000	0.261370
	10.395000	0.106800
	10.400000	0.073913
	10.405000	0.225194
	10.410000	0.261370
	10.415000	0.103511
	10.420000	0.067335
	10.425000	0.221905
	10.430000	0.267948
	10.435000	0.113378
	10.440000	0.080490
	10.445000	0.228483
	10.450000	0.274525
	10.455000	0.116666
	10.460000	0.077202
	10.465000	0.231772
	10.470000	0.274525
	10.475000	0.126533
	10.480000	0.090357
	10.485000	0.238349
	10.490000	0.287680
	10.495000	0.133110
	10.500000	0.090357
	10.505000	0.244927
	10.510000	0.284391
	10.515000	0.133110
	10.520000	0.093645
	10.525000	0.244927
	10.530000	0.290969
	10.535000	0.142976
	10.540000	0.096934
	10.545000	0.251504
	10.550000	0.294257
	10.555000	0.142976
	10.560000	0.096934
	10.565000	0.251504
	10.570000	0.300835
	10.575000	0.149554
	10.580000	0.100223
	10.585000	0.258081
	10.590000	0.307412
	10.595000	0.152842
	10.600000	0.106800
	10.605000	0.258081
	10.610000	0.304124
	10.615000	0.152842
	10.620000	0.106800
	10.625000	0.258081
	10.630000	0.297546
	10.635000	0.149554
	10.640000	0.103511
	10.645000	0.254793
	10.650000	0.297546
	10.655000	0.142976
	10.660000	0.100223
	10.665000	0.248215
	10.670000	0.290969
	10.675000	0.139687
	10.680000	0.090357
	10.685000	0.238349
	10.690000	0.284391
	10.695000	0.133110
	10.700000	0.083779
	10.705000	0.238349
	10.710000	0.281102
	10.715000	0.129821
	10.720000	0.083779
	10.725000	0.238349
	10.730000	0.281102
	10.735000	0.129821
	10.740000	0.087068
	10.745000	0.235060
	10.750000	0.277814
	10.755000	0.133110
	10.760000	0.083779
	10.765000	0.235060
	10.770000	0.290969
	10.775000	0.139687
	10.780000	0.083779
	10.785000	0.231772
	10.790000	0.281102
	10.795000	0.133110
	10.800000	0.083779
	10.805000	0.235060
	10.810000	0.284391
	10.815000	0.139687
	10.820000	0.083779
	10.825000	0.235060
	10.830000	0.284391
	10.835000	0.133110
	10.840000	0.083779
	10.845000	0.231772
	10.850000	0.287680
	10.855000	0.133110
	10.860000	0.083779
	10.865000	0.235060
	10.870000	0.284391
	10.875000	0.136399
	10.880000	0.083779
	10.885000	0.238349
	10.890000	0.284391
	10.895000	0.133110
	10.900000	0.083779
	10.905000	0.235060
	10.910000	0.284391
	10.915000	0.139687
	10.920000	0.083779
	10.925000	0.231772
	10.930000	0.290969
	10.935000	0.136399
	10.940000	0.093645
	10.945000	0.235060
	10.950000	0.297546
	10.955000	0.146265
	10.960000	0.087068
	10.965000	0.238349
	10.970000	0.290969
	10.975000	0.142976
	10.980000	0.093645
	10.985000	0.238349
	10.990000	0.297546
	10.995000	0.146265
	11.000000	0.090357
	11.005000	0.241638
	11.010000	0.297546
	11.015000	0.146265
	11.020000	0.090357
	11.025000	0.241638
	11.030000	0.300835
	11.035000	0.152842
	11.040000	0.093645
	11.045000	0.241638
	11.050000	0.297546
	11.055000	0.152842
	11.060000	0.093645
	11.065000	0.244927
	11.070000	0.300835
	11.075000	0.149554
	11.080000	0.096934
	11.085000	0.241638
	11.090000	0.300835
	11.095000	0.156131
	11.100000	0.100223
	11.105000	0.248215
	11.110000	0.304124
	11.115000	0.159420
	11.120000	0.100223
	11.125000	0.248215
	11.130000	0.307412
	11.135000	0.159420
	11.140000	0.093645
	11.145000	0.244927
	11.150000	0.304124
	11.155000	0.159420
	11.160000	0.100223
	11.165000	0.244927
	11.170000	0.307412
	11.175000	0.165997
	11.180000	0.103511
	11.185000	0.244927
	11.190000	0.310701
	11.195000	0.165997
	11.200000	0.103511
	11.205000	0.251504
	11.210000	0.313990
	11.215000	0.169286
	11.220000	0.106800
	11.225000	0.248215
	11.230000	0.310701
	11.235000	0.169286
	11.240000	0.103511
	11.245000	0.248215
	11.250000	0.313990
	11.255000	0.169286
	11.260000	0.100223
	11.265000	0.251504
	11.270000	0.307412
	11.275000	0.169286
	11.280000	0.103511
	11.285000	0.248215
	11.290000	0.310701
	11.295000	0.165997
	11.300000	0.100223
	11.305000	0.248215
	11.310000	0.310701
	11.315000	0.165997
	11.320000	0.096934
	11.325000	0.244927
	11.330000	0.310701
	11.335000	0.169286
	11.340000	0.100223
	11.345000	0.248215
	11.350000	0.313990
	11.355000	0.169286
	11.360000	0.103511
	11.365000	0.241638
	11.370000	0.310701
	11.375000	0.169286
	11.380000	0.100223
	11.385000	0.248215
	11.390000	0.307412
	11.395000	0.169286
	11.400000	0.106800
	11.405000	0.244927
	11.410000	0.313990
	11.415000	0.172575
	11.420000	0.100223
	11.425000	0.244927
	11.430000	0.313990
	11.435000	0.175863
	11.440000	0.100223
	11.445000	0.244927
	11.450000	0.313990
	11.455000	0.172575
	11.460000	0.103511
	11.465000	0.244927
	11.470000	0.317278
	11.475000	0.172575
	11.480000	0.100223
	11.485000	0.241638
	11.490000	0.313990
	11.495000	0.179152
	11.500000	0.103511
	11.505000	0.244927
	11.510000	0.313990
	11.515000	0.175863
	11.520000	0.103511
	11.525000	0.244927
	11.530000	0.317278
	11.535000	0.179152
	11.540000	0.106800
	11.545000	0.248215
	11.550000	0.317278
	11.555000	0.182441
	11.560000	0.106800
	11.565000	0.244927
	11.570000	0.323856
	11.575000	0.179152
	11.580000	0.100223
	11.585000	0.241638
	11.590000	0.320567
	11.595000	0.179152
	11.600000	0.100223
	11.605000	0.241638
	11.610000	0.317278
	11.615000	0.179152
	11.620000	0.103511
	11.625000	0.244927
	11.630000	0.317278
	11.635000	0.179152
	11.640000	0.106800
	11.645000	0.241638
	11.650000	0.323856
	11.655000	0.185730
	11.660000	0.106800
	11.665000	0.248215
	11.670000	0.327145
	11.675000	0.185730
	11.680000	0.110089
	11.685000	0.248215
	11.690000	0.327145
	11.695000	0.185730
	11.700000	0.110089
	11.705000	0.254793
	11.710000	0.333722
	11.715000	0.195596
	11.720000	0.119955
	11.725000	0.258081
	11.730000	0.340299
	11.735000	0.202173
	11.740000	0.119955
	11.745000	0.267948
	11.750000	0.353454
	11.755000	0.212039
	11.760000	0.133110
	11.765000	0.274525
	11.770000	0.353454
	11.775000	0.221905
	11.780000	0.142976
	11.785000	0.287680
	11.790000	0.369898
	11.795000	0.231772
	11.800000	0.156131
	11.805000	0.304124
	11.810000	0.389630
	11.815000	0.254793
	11.820000	0.172575
	11.825000	0.317278
	11.830000	0.406074
	11.835000	0.267948
	11.840000	0.182441
	11.845000	0.323856
	11.850000	0.412651
	11.855000	0.274525
	11.860000	0.189018
	11.865000	0.330433
	11.870000	0.422518
	11.875000	0.284391
	11.880000	0.195596
	11.885000	0.337011
	11.890000	0.425806
	11.895000	0.277814
	11.900000	0.192307
	11.905000	0.330433
	11.910000	0.422518
	11.915000	0.277814
	11.920000	0.189018
	11.925000	0.327145
	11.930000	0.415940
	11.935000	0.274525
	11.940000	0.182441
	11.945000	0.323856
	11.950000	0.412651
	11.955000	0.277814
	11.960000	0.182441
	11.965000	0.323856
	11.970000	0.412651
	11.975000	0.274525
	11.980000	0.182441
	11.985000	0.320567
	11.990000	0.409363
	11.995000	0.277814
	12.000000	0.182441
	12.005000	0.320567
	12.010000	0.412651
	12.015000	0.274525
	12.020000	0.179152
	12.025000	0.317278
	12.030000	0.406074
	12.035000	0.274525
	12.040000	0.172575
	12.045000	0.313990
	12.050000	0.406074
	12.055000	0.267948
	12.060000	0.175863
	12.065000	0.310701
	12.070000	0.406074
	12.075000	0.264659
	12.080000	0.175863
	12.085000	0.310701
	12.090000	0.402785
	12.095000	0.271236
	12.100000	0.169286
	12.105000	0.307412
	12.110000	0.406074
	12.115000	0.264659
	12.120000	0.175863
	12.125000	0.307412
	12.130000	0.399496
	12.135000	0.264659
	12.140000	0.172575
	12.145000	0.307412
	12.150000	0.402785
	12.155000	0.267948
	12.160000	0.169286
	12.165000	0.304124
	12.170000	0.402785
	12.175000	0.267948
	12.180000	0.169286
	12.185000	0.307412
	12.190000	0.399496
	12.195000	0.261370
	12.200000	0.165997
	12.205000	0.297546
	12.210000	0.396208
	12.215000	0.261370
	12.220000	0.159420
	12.225000	0.294257
	12.230000	0.392919
	12.235000	0.258081
	12.240000	0.156131
	12.245000	0.287680
	12.250000	0.386342
	12.255000	0.254793
	12.260000	0.152842
	12.265000	0.284391
	12.270000	0.379764
	12.275000	0.248215
	12.280000	0.146265
	12.285000	0.281102
	12.290000	0.379764
	12.295000	0.241638
	12.300000	0.142976
	12.305000	0.274525
	12.310000	0.366609
	12.315000	0.235060
	12.320000	0.129821
	12.325000	0.258081
	12.330000	0.360032
	12.335000	0.225194
	12.340000	0.123244
	12.345000	0.251504
	12.350000	0.353454
	12.355000	0.212039
	12.360000	0.110089
	12.365000	0.231772
	12.370000	0.327145
	12.375000	0.185730
	12.380000	0.080490
	12.385000	0.198884
	12.390000	0.297546
	12.395000	0.159420
	12.400000	0.057469
	12.405000	0.182441
	12.410000	0.277814
	12.415000	0.149554
	12.420000	0.044314
	12.425000	0.172575
	12.430000	0.271236
	12.435000	0.142976
	12.440000	0.041026
	12.445000	0.162708
	12.450000	0.267948
	12.455000	0.142976
	12.460000	0.041026
	12.465000	0.165997
	12.470000	0.261370
	12.475000	0.139687
	12.480000	0.037737
	12.485000	0.162708
	12.490000	0.267948
	12.495000	0.139687
	12.500000	0.037737
	12.505000	0.165997
	12.510000	0.264659
	12.515000	0.136399
	12.520000	0.041026
	12.525000	0.159420
	12.530000	0.258081
	12.535000	0.142976
	12.540000	0.041026
	12.545000	0.162708
	12.550000	0.264659
	12.555000	0.142976
	12.560000	0.041026
	12.565000	0.169286
	12.570000	0.264659
	12.575000	0.149554
	12.580000	0.044314
	12.585000	0.165997
	12.590000	0.264659
	12.595000	0.149554
	12.600000	0.047603
	12.605000	0.169286
	12.610000	0.274525
	12.615000	0.156131
	12.620000	0.050892
	12.625000	0.169286
	12.630000	0.274525
	12.635000	0.152842
	12.640000	0.054181
	12.645000	0.172575
	12.650000	0.281102
	12.655000	0.156131
	12.660000	0.054181
	12.665000	0.182441
	12.670000	0.281102
	12.675000	0.165997
	12.680000	0.064047
	12.685000	0.185730
	12.690000	0.287680
	12.695000	0.165997
	12.700000	0.067335
	12.705000	0.189018
	12.710000	0.290969
	12.715000	0.172575
	12.720000	0.067335
	12.725000	0.189018
	12.730000	0.297546
	12.735000	0.179152
	12.740000	0.077202
	12.745000	0.189018
	12.750000	0.300835
	12.755000	0.182441
	12.760000	0.077202
	12.765000	0.195596
	12.770000	0.304124
	12.775000	0.182441
	12.780000	0.080490
	12.785000	0.195596
	12.790000	0.300835
	12.795000	0.185730
	12.800000	0.080490
	12.805000	0.195596
	12.810000	0.304124
	12.815000	0.182441
	12.820000	0.073913
	12.825000	0.195596
	12.830000	0.297546
	12.835000	0.179152
	12.840000	0.067335
	12.845000	0.185730
	12.850000	0.284391
	12.855000	0.175863
	12.860000	0.060758
	12.865000	0.175863
	12.870000	0.281102
	12.875000	0.165997
	12.880000	0.064047
	12.885000	0.175863
	12.890000	0.284391
	12.895000	0.165997
	12.900000	0.057469
	12.905000	0.172575
	12.910000	0.284391
	12.915000	0.165997
	12.920000	0.060758
	12.925000	0.172575
	12.930000	0.284391
	12.935000	0.169286
	12.940000	0.060758
	12.945000	0.175863
	12.950000	0.284391
	12.955000	0.165997
	12.960000	0.057469
	12.965000	0.169286
	12.970000	0.277814
	12.975000	0.169286
	12.980000	0.054181
	12.985000	0.169286
	12.990000	0.277814
	12.995000	0.169286
	13.000000	0.057469
	13.005000	0.172575
	13.010000	0.277814
	13.015000	0.165997
	13.020000	0.057469
	13.025000	0.169286
	13.030000	0.284391
	13.035000	0.169286
	13.040000	0.064047
	13.045000	0.169286
	13.050000	0.290969
	13.055000	0.172575
	13.060000	0.067335
	13.065000	0.179152
	13.070000	0.294257
	13.075000	0.182441
	13.080000	0.073913
	13.085000	0.182441
	13.090000	0.294257
	13.095000	0.189018
	13.100000	0.077202
	13.105000	0.189018
	13.110000	0.300835
	13.115000	0.192307
	13.120000	0.083779
	13.125000	0.192307
	13.130000	0.300835
	13.135000	0.192307
	13.140000	0.083779
	13.145000	0.189018
	13.150000	0.304124
	13.155000	0.192307
	13.160000	0.077202
	13.165000	0.185730
	13.170000	0.304124
	13.175000	0.195596
	13.180000	0.080490
	13.185000	0.185730
	13.190000	0.304124
	13.195000	0.192307
	13.200000	0.077202
	13.205000	0.185730
	13.210000	0.304124
	13.215000	0.195596
	13.220000	0.080490
	13.225000	0.192307
	13.230000	0.304124
	13.235000	0.195596
	13.240000	0.083779
	13.245000	0.189018
	13.250000	0.307412
	13.255000	0.202173
	13.260000	0.080490
	13.265000	0.192307
	13.270000	0.307412
	13.275000	0.202173
	13.280000	0.083779
	13.285000	0.192307
	13.290000	0.307412
	13.295000	0.208751
	13.300000	0.087068
	13.305000	0.192307
	13.310000	0.313990
	13.315000	0.205462
	13.320000	0.090357
	13.325000	0.195596
	13.330000	0.310701
	13.335000	0.208751
	13.340000	0.093645
	13.345000	0.198884
	13.350000	0.313990
	13.355000	0.212039
	13.360000	0.093645
	13.365000	0.198884
	13.370000	0.313990
	13.375000	0.215328
	13.380000	0.090357
	13.385000	0.198884
	13.390000	0.313990
	13.395000	0.215328
	13.400000	0.090357
	13.405000	0.195596
	13.410000	0.317278
	13.415000	0.218617
	13.420000	0.093645
	13.425000	0.198884
	13.430000	0.317278
	13.435000	0.218617
	13.440000	0.087068
	13.445000	0.198884
	13.450000	0.317278
	13.455000	0.215328
	13.460000	0.093645
	13.465000	0.195596
	13.470000	0.317278
	13.475000	0.215328
	13.480000	0.096934
	13.485000	0.198884
	13.490000	0.317278
	13.495000	0.218617
	13.500000	0.093645
	13.505000	0.195596
	13.510000	0.317278
	13.515000	0.218617
	13.520000	0.093645
	13.525000	0.192307
	13.530000	0.317278
	13.535000	0.221905
	13.540000	0.090357
	13.545000	0.195596
	13.550000	0.317278
	13.555000	0.218617
	13.560000	0.093645
	13.565000	0.198884
	13.570000	0.323856
	13.575000	0.221905
	13.580000	0.093645
	13.585000	0.195596
	13.590000	0.313990
	13.595000	0.218617
	13.600000	0.096934
	13.605000	0.195596
	13.610000	0.317278
	13.615000	0.215328
	13.620000	0.096934
	13.625000	0.189018
	13.630000	0.317278
	13.635000	0.225194
	13.640000	0.096934
	13.645000	0.192307
	13.650000	0.317278
	13.655000	0.218617
	13.660000	0.093645
	13.665000	0.195596
	13.670000	0.320567
	13.675000	0.225194
	13.680000	0.096934
	13.685000	0.195596
	13.690000	0.320567
	13.695000	0.221905
	13.700000	0.100223
	13.705000	0.189018
	13.710000	0.323856
	13.715000	0.225194
	13.720000	0.100223
	13.725000	0.192307
	13.730000	0.317278
	13.735000	0.225194
	13.740000	0.103511
	13.745000	0.189018
	13.750000	0.320567
	13.755000	0.225194
	13.760000	0.100223
	13.765000	0.198884
	13.770000	0.323856
	13.775000	0.225194
	13.780000	0.096934
	13.785000	0.192307
	13.790000	0.323856
	13.795000	0.228483
	13.800000	0.100223
	13.805000	0.195596
	13.810000	0.330433
	13.815000	0.228483
	13.820000	0.096934
	13.825000	0.198884
	13.830000	0.320567
	13.835000	0.225194
	13.840000	0.096934
	13.845000	0.195596
	13.850000	0.320567
	13.855000	0.228483
	13.860000	0.100223
	13.865000	0.189018
	13.870000	0.327145
	13.875000	0.231772
	13.880000	0.106800
	13.885000	0.192307
	13.890000	0.330433
	13.895000	0.238349
	13.900000	0.110089
	13.905000	0.195596
	13.910000	0.327145
	13.915000	0.238349
	13.920000	0.106800
	13.925000	0.195596
	13.930000	0.327145
	13.935000	0.238349
	13.940000	0.106800
	13.945000	0.202173
	13.950000	0.327145
	13.955000	0.238349
	13.960000	0.113378
	13.965000	0.198884
	13.970000	0.337011
	13.975000	0.241638
	13.980000	0.110089
	13.985000	0.205462
	13.990000	0.333722
	13.995000	0.238349
	14.000000	0.110089
	14.005000	0.195596
	14.010000	0.330433
	14.015000	0.238349
	14.020000	0.106800
	14.025000	0.198884
	14.030000	0.330433
	14.035000	0.241638
	14.040000	0.113378
	14.045000	0.202173
	14.050000	0.337011
	14.055000	0.248215
	14.060000	0.116666
	14.065000	0.208751
	14.070000	0.340299
	14.075000	0.258081
	14.080000	0.123244
	14.085000	0.215328
	14.090000	0.353454
	14.095000	0.271236
	14.100000	0.139687
	14.105000	0.228483
	14.110000	0.369898
	14.115000	0.287680
	14.120000	0.159420
	14.125000	0.251504
	14.130000	0.399496
	14.135000	0.317278
	14.140000	0.182441
	14.145000	0.267948
	14.150000	0.406074
	14.155000	0.323856
	14.160000	0.185730
	14.165000	0.271236
	14.170000	0.412651
	14.175000	0.323856
	14.180000	0.182441
	14.185000	0.267948
	14.190000	0.412651
	14.195000	0.327145
	14.200000	0.179152
	14.205000	0.264659
	14.210000	0.412651
	14.215000	0.327145
	14.220000	0.179152
	14.225000	0.267948
	14.230000	0.415940
	14.235000	0.327145
	14.240000	0.182441
	14.245000	0.267948
	14.250000	0.409363
	14.255000	0.333722
	14.260000	0.185730
	14.265000	0.271236
	14.270000	0.415940
	14.275000	0.330433
	14.280000	0.185730
	14.285000	0.271236
	14.290000	0.412651
	14.295000	0.333722
	14.300000	0.185730
	14.305000	0.267948
	14.310000	0.409363
	14.315000	0.330433
	14.320000	0.182441
	14.325000	0.258081
	14.330000	0.406074
	14.335000	0.323856
	14.340000	0.182441
	14.345000	0.264659
	14.350000	0.409363
	14.355000	0.323856
	14.360000	0.179152
	14.365000	0.254793
	14.370000	0.409363
	14.375000	0.323856
	14.380000	0.175863
	14.385000	0.258081
	14.390000	0.406074
	14.395000	0.320567
	14.400000	0.172575
	14.405000	0.258081
	14.410000	0.402785
	14.415000	0.313990
	14.420000	0.172575
	14.425000	0.254793
	14.430000	0.399496
	14.435000	0.317278
	14.440000	0.169286
	14.445000	0.251504
	14.450000	0.396208
	14.455000	0.313990
	14.460000	0.165997
	14.465000	0.241638
	14.470000	0.383053
	14.475000	0.310701
	14.480000	0.159420
	14.485000	0.235060
	14.490000	0.379764
	14.495000	0.297546
	14.500000	0.156131
	14.505000	0.231772
	14.510000	0.373187
	14.515000	0.297546
	14.520000	0.152842
	14.525000	0.225194
	14.530000	0.373187
	14.535000	0.294257
	14.540000	0.149554
	14.545000	0.221905
	14.550000	0.363321
	14.555000	0.290969
	14.560000	0.142976
	14.565000	0.218617
	14.570000	0.366609
	14.575000	0.290969
	14.580000	0.139687
	14.585000	0.208751
	14.590000	0.356743
	14.595000	0.277814
	14.600000	0.133110
	14.605000	0.205462
	14.610000	0.343588
	14.615000	0.261370
	14.620000	0.110089
	14.625000	0.179152
	14.630000	0.317278
	14.635000	0.238349
	14.640000	0.090357
	14.645000	0.156131
	14.650000	0.297546
	14.655000	0.218617
	14.660000	0.077202
	14.665000	0.142976
	14.670000	0.287680
	14.675000	0.212039
	14.680000	0.067335
	14.685000	0.133110
	14.690000	0.277814
	14.695000	0.202173
	14.700000	0.060758
	14.705000	0.126533
	14.710000	0.271236
	14.715000	0.198884
	14.720000	0.060758
	14.725000	0.123244
	14.730000	0.267948
	14.735000	0.198884
	14.740000	0.054181
	14.745000	0.129821
	14.750000	0.271236
	14.755000	0.198884
	14.760000	0.057469
	14.765000	0.123244
	14.770000	0.274525
	14.775000	0.202173
	14.780000	0.057469
	14.785000	0.126533
	14.790000	0.267948
	14.795000	0.202173
	14.800000	0.057469
	14.805000	0.126533
	14.810000	0.271236
	14.815000	0.202173
	14.820000	0.060758
	14.825000	0.126533
	14.830000	0.274525
	14.835000	0.205462
	14.840000	0.060758
	14.845000	0.129821
	14.850000	0.277814
	14.855000	0.208751
	14.860000	0.067335
	14.865000	0.136399
	14.870000	0.277814
	14.875000	0.215328
	14.880000	0.077202
	14.885000	0.136399
	14.890000	0.281102
	14.895000	0.221905
	14.900000	0.077202
	14.905000	0.142976
	14.910000	0.290969
	14.915000	0.221905
	14.920000	0.080490
	14.925000	0.146265
	14.930000	0.294257
	14.935000	0.228483
	14.940000	0.090357
	14.945000	0.149554
	14.950000	0.297546
	14.955000	0.238349
	14.960000	0.093645
	14.965000	0.156131
	14.970000	0.300835
	14.975000	0.238349
	14.980000	0.093645
	14.985000	0.162708
	14.990000	0.304124
	14.995000	0.244927
	15.000000	0.096934
	15.005000	0.159420
	15.010000	0.304124
	15.015000	0.241638
	15.020000	0.100223
	15.025000	0.156131
	15.030000	0.300835
	15.035000	0.241638
	15.040000	0.096934
	15.045000	0.156131
	15.050000	0.304124
	15.055000	0.241638
	15.060000	0.096934
	15.065000	0.156131
	15.070000	0.300835
	15.075000	0.241638
	15.080000	0.096934
	15.085000	0.152842
	15.090000	0.297546
	15.095000	0.238349
	15.100000	0.090357
	15.105000	0.149554
	15.110000	0.294257
	15.115000	0.241638
	15.120000	0.087068
	15.125000	0.146265
	15.130000	0.294257
	15.135000	0.235060
	15.140000	0.083779
	15.145000	0.139687
	15.150000	0.290969
	15.155000	0.235060
	15.160000	0.087068
	15.165000	0.139687
	15.170000	0.284391
	15.175000	0.235060
	15.180000	0.083779
	15.185000	0.139687
	15.190000	0.294257
	15.195000	0.238349
	15.200000	0.083779
	15.205000	0.146265
	15.210000	0.290969
	15.215000	0.235060
	15.220000	0.090357
	15.225000	0.146265
	15.230000	0.294257
	15.235000	0.238349
	15.240000	0.090357
	15.245000	0.146265
	15.250000	0.290969
	15.255000	0.238349
	15.260000	0.090357
	15.265000	0.146265
	15.270000	0.294257
	15.275000	0.238349
	15.280000	0.090357
	15.285000	0.139687
	15.290000	0.287680
	15.295000	0.238349
	15.300000	0.083779
	15.305000	0.139687
	15.310000	0.287680
	15.315000	0.238349
	15.320000	0.087068
	15.325000	0.136399
	15.330000	0.284391
	15.335000	0.231772
	15.340000	0.087068
	15.345000	0.133110
	15.350000	0.284391
	15.355000	0.235060
	15.360000	0.090357
	15.365000	0.136399
	15.370000	0.287680
	15.375000	0.241638
	15.380000	0.090357
	15.385000	0.136399
	15.390000	0.287680
	15.395000	0.238349
	15.400000	0.090357
	15.405000	0.139687
	15.410000	0.294257
	15.415000	0.238349
	15.420000	0.093645
	15.425000	0.139687
	15.430000	0.294257
	15.435000	0.241638
	15.440000	0.090357
	15.445000	0.142976
	15.450000	0.287680
	15.455000	0.244927
	15.460000	0.093645
	15.465000	0.139687
	15.470000	0.290969
	15.475000	0.244927
	15.480000	0.100223
	15.485000	0.139687
	15.490000	0.297546
	15.495000	0.251504
	15.500000	0.096934
	15.505000	0.146265
	15.510000	0.294257
	15.515000	0.254793
	15.520000	0.100223
	15.525000	0.146265
	15.530000	0.297546
	15.535000	0.254793
	15.540000	0.100223
	15.545000	0.149554
	15.550000	0.297546
	15.555000	0.254793
	15.560000	0.103511
	15.565000	0.146265
	15.570000	0.297546
	15.575000	0.251504
	15.580000	0.103511
	15.585000	0.142976
	15.590000	0.297546
	15.595000	0.258081
	15.600000	0.103511
	15.605000	0.149554
	15.610000	0.300835
	15.615000	0.258081
	15.620000	0.110089
	15.625000	0.149554
	15.630000	0.297546
	15.635000	0.261370
	15.640000	0.106800
	15.645000	0.146265
	15.650000	0.297546
	15.655000	0.254793
	15.660000	0.106800
	15.665000	0.146265
	15.670000	0.300835
	15.675000	0.258081
	15.680000	0.106800
	15.685000	0.142976
	15.690000	0.297546
	15.695000	0.261370
	15.700000	0.106800
	15.705000	0.149554
	15.710000	0.297546
	15.715000	0.258081
	15.720000	0.106800
	15.725000	0.146265
	15.730000	0.300835
	15.735000	0.258081
	15.740000	0.110089
	15.745000	0.149554
	15.750000	0.304124
	15.755000	0.258081
	15.760000	0.106800
	15.765000	0.152842
	15.770000	0.304124
	15.775000	0.261370
	15.780000	0.110089
	15.785000	0.149554
	15.790000	0.300835
	15.795000	0.267948
	15.800000	0.110089
	15.805000	0.149554
	15.810000	0.300835
	15.815000	0.264659
	15.820000	0.113378
	15.825000	0.152842
	15.830000	0.304124
	15.835000	0.261370
	15.840000	0.113378
	15.845000	0.146265
	15.850000	0.300835
	15.855000	0.267948
	15.860000	0.110089
	15.865000	0.149554
	15.870000	0.304124
	15.875000	0.264659
	15.880000	0.110089
	15.885000	0.146265
	15.890000	0.300835
	15.895000	0.264659
	15.900000	0.110089
	15.905000	0.149554
	15.910000	0.297546
	15.915000	0.264659
	15.920000	0.119955
	15.925000	0.146265
	15.930000	0.300835
	15.935000	0.264659
	15.940000	0.113378
	15.945000	0.142976
	15.950000	0.297546
	15.955000	0.267948
	15.960000	0.113378
	15.965000	0.146265
	15.970000	0.300835
	15.975000	0.274525
	15.980000	0.113378
	15.985000	0.142976
	15.990000	0.304124
	15.995000	0.271236
	16.000000	0.113378
	16.005000	0.142976
	16.010000	0.300835
	16.015000	0.267948
	16.020000	0.113378
	16.025000	0.142976
	16.030000	0.300835
	16.035000	0.264659
	16.040000	0.113378
	16.045000	0.149554
	16.050000	0.297546
	16.055000	0.267948
	16.060000	0.113378
	16.065000	0.149554
	16.070000	0.297546
	16.075000	0.267948
	16.080000	0.116666
	16.085000	0.146265
	16.090000	0.300835
	16.095000	0.264659
	16.100000	0.119955
	16.105000	0.149554
	16.110000	0.300835
	16.115000	0.274525
	16.120000	0.113378
	16.125000	0.142976
	16.130000	0.300835
	16.135000	0.271236
	16.140000	0.116666
	16.145000	0.142976
	16.150000	0.300835
	16.155000	0.274525
	16.160000	0.116666
	16.165000	0.142976
	16.170000	0.300835
	16.175000	0.277814
	16.180000	0.123244
	16.185000	0.146265
	16.190000	0.304124
	16.195000	0.281102
	16.200000	0.126533
	16.205000	0.149554
	16.210000	0.307412
	16.215000	0.284391
	16.220000	0.126533
	16.225000	0.149554
	16.230000	0.310701
	16.235000	0.287680
	16.240000	0.129821
	16.245000	0.156131
	16.250000	0.317278
	16.255000	0.294257
	16.260000	0.139687
	16.265000	0.156131
	16.270000	0.320567
	16.275000	0.300835
	16.280000	0.146265
	16.285000	0.162708
	16.290000	0.323856
	16.295000	0.297546
	16.300000	0.146265
	16.305000	0.162708
	16.310000	0.323856
	16.315000	0.307412
	16.320000	0.152842
	16.325000	0.169286
	16.330000	0.330433
	16.335000	0.313990
	16.340000	0.156131
	16.345000	0.172575
	16.350000	0.330433
	16.355000	0.313990
	16.360000	0.159420
	16.365000	0.182441
	16.370000	0.333722
	16.375000	0.317278
	16.380000	0.152842
	16.385000	0.175863
	16.390000	0.340299
	16.395000	0.317278
	16.400000	0.159420
	16.405000	0.182441
	16.410000	0.340299
	16.415000	0.327145
	16.420000	0.165997
	16.425000	0.189018
	16.430000	0.350166
	16.435000	0.343588
	16.440000	0.182441
	16.445000	0.198884
	16.450000	0.373187
	16.455000	0.360032
	16.460000	0.198884
	16.465000	0.218617
	16.470000	0.383053
	16.475000	0.369898
	16.480000	0.205462
	16.485000	0.225194
	16.490000	0.392919
	16.495000	0.373187
	16.500000	0.212039
	16.505000	0.225194
	16.510000	0.386342
	16.515000	0.376475
	16.520000	0.205462
	16.525000	0.221905
	16.530000	0.392919
	16.535000	0.369898
	16.540000	0.208751
	16.545000	0.218617
	16.550000	0.383053
	16.555000	0.373187
	16.560000	0.212039
	16.565000	0.221905
	16.570000	0.379764
	16.575000	0.373187
	16.580000	0.205462
	16.585000	0.218617
	16.590000	0.379764
	16.595000	0.373187
	16.600000	0.205462
	16.605000	0.221905
	16.610000	0.386342
	16.615000	0.373187
	16.620000	0.205462
	16.625000	0.215328
	16.630000	0.379764
	16.635000	0.373187
	16.640000	0.205462
	16.645000	0.212039
	16.650000	0.379764
	16.655000	0.369898
	16.660000	0.208751
	16.665000	0.212039
	16.670000	0.376475
	16.675000	0.363321
	16.680000	0.198884
	16.685000	0.208751
	16.690000	0.373187
	16.695000	0.363321
	16.700000	0.198884
	16.705000	0.202173
	16.710000	0.369898
	16.715000	0.356743
	16.720000	0.189018
	16.725000	0.202173
	16.730000	0.366609
	16.735000	0.353454
	16.740000	0.192307
	16.745000	0.198884
	16.750000	0.360032
	16.755000	0.356743
	16.760000	0.195596
	16.765000	0.192307
	16.770000	0.363321
	16.775000	0.353454
	16.780000	0.185730
	16.785000	0.189018
	16.790000	0.360032
	16.795000	0.353454
	16.800000	0.182441
	16.805000	0.189018
	16.810000	0.353454
	16.815000	0.346877
	16.820000	0.182441
	16.825000	0.189018
	16.830000	0.353454
	16.835000	0.346877
	16.840000	0.185730
	16.845000	0.182441
	16.850000	0.350166
	16.855000	0.346877
	16.860000	0.179152
	16.865000	0.182441
	16.870000	0.346877
	16.875000	0.340299
	16.880000	0.175863
	16.885000	0.175863
	16.890000	0.337011
	16.895000	0.333722
	16.900000	0.162708
	16.905000	0.152842
	16.910000	0.313990
	16.915000	0.300835
	16.920000	0.133110
	16.925000	0.133110
	16.930000	0.290969
	16.935000	0.284391
	16.940000	0.119955
	16.945000	0.116666
	16.950000	0.271236
	16.955000	0.274525
	16.960000	0.110089
	16.965000	0.113378
	16.970000	0.267948
	16.975000	0.267948
	16.980000	0.110089
	16.985000	0.103511
	16.990000	0.264659
	16.995000	0.261370
	17.000000	0.103511
	17.005000	0.100223
	17.010000	0.261370
	17.015000	0.254793
	17.020000	0.096934
	17.025000	0.093645
	17.030000	0.251504
	17.035000	0.251504
	17.040000	0.096934
	17.045000	0.090357
	17.050000	0.248215
	17.055000	0.251504
	17.060000	0.093645
	17.065000	0.090357
	17.070000	0.248215
	17.075000	0.254793
	17.080000	0.093645
	17.085000	0.090357
	17.090000	0.251504
	17.095000	0.258081
	17.100000	0.100223
	17.105000	0.093645
	17.110000	0.254793
	17.115000	0.258081
	17.120000	0.103511
	17.125000	0.100223
	17.130000	0.254793
	17.135000	0.261370
	17.140000	0.110089
	17.145000	0.100223
	17.150000	0.258081
	17.155000	0.264659
	17.160000	0.113378
	17.165000	0.103511
	17.170000	0.264659
	17.175000	0.274525
	17.180000	0.116666
	17.185000	0.106800
	17.190000	0.264659
	17.195000	0.277814
	17.200000	0.119955
	17.205000	0.113378
	17.210000	0.267948
	17.215000	0.281102
	17.220000	0.123244
	17.225000	0.110089
	17.230000	0.274525
	17.235000	0.287680
	17.240000	0.129821
	17.245000	0.113378
	17.250000	0.277814
	17.255000	0.290969
	17.260000	0.126533
	17.265000	0.116666
	17.270000	0.277814
	17.275000	0.290969
	17.280000	0.129821
	17.285000	0.119955
	17.290000	0.281102
	17.295000	0.290969
	17.300000	0.136399
	17.305000	0.116666
	17.310000	0.277814
	17.315000	0.294257
	17.320000	0.136399
	17.325000	0.119955
	17.330000	0.284391
	17.335000	0.290969
	17.340000	0.139687
	17.345000	0.126533
	17.350000	0.284391
	17.355000	0.297546
	17.360000	0.139687
	17.365000	0.126533
	17.370000	0.287680
	17.375000	0.297546
	17.380000	0.146265
	17.385000	0.133110
	17.390000	0.290969
	17.395000	0.300835
	17.400000	0.146265
	17.405000	0.129821
	17.410000	0.284391
	17.415000	0.307412
	17.420000	0.146265
	17.425000	0.133110
	17.430000	0.294257
	17.435000	0.300835
	17.440000	0.142976
	17.445000	0.129821
	17.450000	0.287680
	17.455000	0.297546
	17.460000	0.142976
	17.465000	0.119955
	17.470000	0.281102
	17.475000	0.297546
	17.480000	0.136399
	17.485000	0.116666
	17.490000	0.274525
	17.495000	0.290969
	17.500000	0.129821
	17.505000	0.116666
	17.510000	0.267948
	17.515000	0.290969
	17.520000	0.129821
	17.525000	0.110089
	17.530000	0.267948
	17.535000	0.290969
	17.540000	0.129821
	17.545000	0.116666
	17.550000	0.261370
	17.555000	0.284391
	17.560000	0.129821
	17.565000	0.110089
	17.570000	0.267948
	17.575000	0.281102
	17.580000	0.129821
	17.585000	0.106800
	17.590000	0.261370
	17.595000	0.287680
	17.600000	0.133110
	17.605000	0.106800
	17.610000	0.261370
	17.615000	0.284391
	17.620000	0.133110
	17.625000	0.106800
	17.630000	0.267948
	17.635000	0.284391
	17.640000	0.123244
	17.645000	0.110089
	17.650000	0.261370
	17.655000	0.290969
	17.660000	0.136399
	17.665000	0.106800
	17.670000	0.264659
	17.675000	0.290969
	17.680000	0.129821
	17.685000	0.106800
	17.690000	0.261370
	17.695000	0.287680
	17.700000	0.129821
	17.705000	0.110089
	17.710000	0.264659
	17.715000	0.287680
	17.720000	0.133110
	17.725000	0.110089
	17.730000	0.264659
	17.735000	0.294257
	17.740000	0.133110
	17.745000	0.110089
	17.750000	0.264659
	17.755000	0.294257
	17.760000	0.136399
	17.765000	0.116666
	17.770000	0.267948
	17.775000	0.294257
	17.780000	0.139687
	17.785000	0.110089
	17.790000	0.264659
	17.795000	0.294257
	17.800000	0.142976
	17.805000	0.113378
	17.810000	0.267948
	17.815000	0.294257
	17.820000	0.139687
	17.825000	0.110089
	17.830000	0.267948
	17.835000	0.294257
	17.840000	0.142976
	17.845000	0.113378
	17.850000	0.271236
	17.855000	0.300835
	17.860000	0.146265
	17.865000	0.113378
	17.870000	0.274525
	17.875000	0.304124
	17.880000	0.149554
	17.885000	0.116666
	17.890000	0.274525
	17.895000	0.304124
	17.900000	0.146265
	17.905000	0.119955
	17.910000	0.274525
	17.915000	0.304124
	17.920000	0.149554
	17.925000	0.116666
	17.930000	0.274525
	17.935000	0.304124
	17.940000	0.152842
	17.945000	0.119955
	17.950000	0.274525
	17.955000	0.304124
	17.960000	0.149554
	17.965000	0.123244
	17.970000	0.274525
	17.975000	0.307412
	17.980000	0.156131
	17.985000	0.119955
	17.990000	0.271236
	17.995000	0.310701
	18.000000	0.152842
	18.005000	0.119955
	18.010000	0.274525
	18.015000	0.307412
	18.020000	0.152842
	18.025000	0.113378
	18.030000	0.267948
	18.035000	0.297546
	18.040000	0.146265
	18.045000	0.116666
	18.050000	0.264659
	18.055000	0.300835
	18.060000	0.152842
	18.065000	0.110089
	18.070000	0.261370
	18.075000	0.297546
	18.080000	0.146265
	18.085000	0.110089
	18.090000	0.264659
	18.095000	0.304124
	18.100000	0.152842
	18.105000	0.110089
	18.110000	0.264659
	18.115000	0.304124
	18.120000	0.152842
	18.125000	0.113378
	18.130000	0.267948
	18.135000	0.304124
	18.140000	0.152842
	18.145000	0.113378
	18.150000	0.264659
	18.155000	0.304124
	18.160000	0.156131
	18.165000	0.113378
	18.170000	0.264659
	18.175000	0.307412
	18.180000	0.156131
	18.185000	0.106800
	18.190000	0.264659
	18.195000	0.304124
	18.200000	0.156131
	18.205000	0.110089
	18.210000	0.261370
	18.215000	0.307412
	18.220000	0.152842
	18.225000	0.110089
	18.230000	0.264659
	18.235000	0.307412
	18.240000	0.149554
	18.245000	0.113378
	18.250000	0.264659
	18.255000	0.304124
	18.260000	0.156131
	18.265000	0.116666
	18.270000	0.267948
	18.275000	0.310701
	18.280000	0.159420
	18.285000	0.110089
	18.290000	0.261370
	18.295000	0.304124
	18.300000	0.159420
	18.305000	0.113378
	18.310000	0.264659
	18.315000	0.307412
	18.320000	0.159420
	18.325000	0.110089
	18.330000	0.264659
	18.335000	0.304124
	18.340000	0.156131
	18.345000	0.110089
	18.350000	0.261370
	18.355000	0.307412
	18.360000	0.149554
	18.365000	0.113378
	18.370000	0.264659
	18.375000	0.307412
	18.380000	0.156131
	18.385000	0.113378
	18.390000	0.261370
	18.395000	0.313990
	18.400000	0.159420
	18.405000	0.113378
	18.410000	0.264659
	18.415000	0.313990
	18.420000	0.162708
	18.425000	0.113378
	18.430000	0.267948
	18.435000	0.317278
	18.440000	0.162708
	18.445000	0.116666
	18.450000	0.267948
	18.455000	0.317278
	18.460000	0.165997
	18.465000	0.116666
	18.470000	0.267948
	18.475000	0.320567
	18.480000	0.172575
	18.485000	0.119955
	18.490000	0.271236
	18.495000	0.327145
	18.500000	0.172575
	18.505000	0.123244
	18.510000	0.271236
	18.515000	0.327145
	18.520000	0.175863
	18.525000	0.129821
	18.530000	0.277814
	18.535000	0.330433
	18.540000	0.175863
	18.545000	0.133110
	18.550000	0.281102
	18.555000	0.337011
	18.560000	0.185730
	18.565000	0.136399
	18.570000	0.287680
	18.575000	0.343588
	18.580000	0.195596
	18.585000	0.139687
	18.590000	0.294257
	18.595000	0.343588
	18.600000	0.198884
	18.605000	0.146265
	18.610000	0.300835
	18.615000	0.360032
	18.620000	0.212039
	18.625000	0.152842
	18.630000	0.313990
	18.635000	0.379764
	18.640000	0.231772
	18.645000	0.175863
	18.650000	0.330433
	18.655000	0.396208
	18.660000	0.241638
	18.665000	0.185730
	18.670000	0.343588
	18.675000	0.402785
	18.680000	0.251504
	18.685000	0.189018
	18.690000	0.350166
	18.695000	0.409363
	18.700000	0.251504
	18.705000	0.192307
	18.710000	0.343588
	18.715000	0.409363
	18.720000	0.254793
	18.725000	0.195596
	18.730000	0.346877
	18.735000	0.409363
	18.740000	0.251504
	18.745000	0.189018
	18.750000	0.340299
	18.755000	0.406074
	18.760000	0.251504
	18.765000	0.189018
	18.770000	0.340299
	18.775000	0.409363
	18.780000	0.251504
	18.785000	0.189018
	18.790000	0.337011
	18.795000	0.402785
	18.800000	0.248215
	18.805000	0.185730
	18.810000	0.340299
	18.815000	0.406074
	18.820000	0.254793
	18.825000	0.189018
	18.830000	0.340299
	18.835000	0.402785
	18.840000	0.251504
	18.845000	0.182441
	18.850000	0.340299
	18.855000	0.402785
	18.860000	0.251504
	18.865000	0.179152
	18.870000	0.337011
	18.875000	0.399496
	18.880000	0.251504
	18.885000	0.185730
	18.890000	0.333722
	18.895000	0.399496
	18.900000	0.248215
	18.905000	0.182441
	18.910000	0.333722
	18.915000	0.399496
	18.920000	0.248215
	18.925000	0.175863
	18.930000	0.333722
	18.935000	0.399496
	18.940000	0.248215
	18.945000	0.175863
	18.950000	0.330433
	18.955000	0.402785
	18.960000	0.248215
	18.965000	0.179152
	18.970000	0.327145
	18.975000	0.399496
	18.980000	0.244927
	18.985000	0.175863
	18.990000	0.323856
	18.995000	0.396208
	19.000000	0.244927
	19.005000	0.172575
	19.010000	0.323856
	19.015000	0.389630
	19.020000	0.248215
	19.025000	0.165997
	19.030000	0.317278
	19.035000	0.389630
	19.040000	0.241638
	19.045000	0.165997
	19.050000	0.317278
	19.055000	0.379764
	19.060000	0.235060
	19.065000	0.159420
	19.070000	0.310701
	19.075000	0.373187
	19.080000	0.235060
	19.085000	0.156131
	19.090000	0.300835
	19.095000	0.369898
	19.100000	0.218617
	19.105000	0.136399
	19.110000	0.277814
	19.115000	0.343588
	19.120000	0.185730
	19.125000	0.110089
	19.130000	0.248215
	19.135000	0.320567
	19.140000	0.169286
	19.145000	0.096934
	19.150000	0.241638
	19.155000	0.304124
	19.160000	0.165997
	19.165000	0.087068
	19.170000	0.225194
	19.175000	0.294257
	19.180000	0.156131
	19.185000	0.080490
	19.190000	0.221905
	19.195000	0.290969
	19.200000	0.149554
	19.205000	0.073913
	19.210000	0.215328
	19.215000	0.287680
	19.220000	0.146265
	19.225000	0.070624
	19.230000	0.212039
	19.235000	0.290969
	19.240000	0.146265
	19.245000	0.073913
	19.250000	0.215328
	19.255000	0.290969
	19.260000	0.146265
	19.265000	0.080490
	19.270000	0.215328
	19.275000	0.297546
	19.280000	0.146265
	19.285000	0.073913
	19.290000	0.215328
	19.295000	0.294257
	19.300000	0.159420
	19.305000	0.080490
	19.310000	0.218617
	19.315000	0.290969
	19.320000	0.159420
	19.325000	0.077202
	19.330000	0.221905
	19.335000	0.297546
	19.340000	0.156131
	19.345000	0.080490
	19.350000	0.215328
	19.355000	0.297546
	19.360000	0.156131
	19.365000	0.077202
	19.370000	0.212039
	19.375000	0.294257
	19.380000	0.156131
	19.385000	0.080490
	19.390000	0.215328
	19.395000	0.297546
	19.400000	0.156131
	19.405000	0.077202
	19.410000	0.215328
	19.415000	0.294257
	19.420000	0.146265
	19.425000	0.067335
	19.430000	0.212039
	19.435000	0.287680
	19.440000	0.152842
	19.445000	0.077202
	19.450000	0.208751
	19.455000	0.290969
	19.460000	0.152842
	19.465000	0.073913
	19.470000	0.212039
	19.475000	0.300835
	19.480000	0.159420
	19.485000	0.080490
	19.490000	0.225194
	19.495000	0.304124
	19.500000	0.169286
	19.505000	0.090357
	19.510000	0.225194
	19.515000	0.304124
	19.520000	0.175863
	19.525000	0.093645
	19.530000	0.225194
	19.535000	0.313990
	19.540000	0.175863
	19.545000	0.093645
	19.550000	0.228483
	19.555000	0.310701
	19.560000	0.182441
	19.565000	0.090357
	19.570000	0.235060
	19.575000	0.320567
	19.580000	0.175863
	19.585000	0.096934
	19.590000	0.228483
	19.595000	0.320567
	19.600000	0.189018
	19.605000	0.100223
	19.610000	0.231772
	19.615000	0.323856
	19.620000	0.189018
	19.625000	0.096934
	19.630000	0.238349
	19.635000	0.323856
	19.640000	0.189018
	19.645000	0.103511
	19.650000	0.231772
	19.655000	0.320567
	19.660000	0.189018
	19.665000	0.100223
	19.670000	0.231772
	19.675000	0.317278
	19.680000	0.185730
	19.685000	0.100223
	19.690000	0.228483
	19.695000	0.307412
	19.700000	0.179152
	19.705000	0.093645
	19.710000	0.218617
	19.715000	0.307412
	19.720000	0.175863
	19.725000	0.087068
	19.730000	0.221905
	19.735000	0.304124
	19.740000	0.169286
	19.745000	0.083779
	19.750000	0.215328
	19.755000	0.304124
	19.760000	0.175863
	19.765000	0.093645
	19.770000	0.215328
	19.775000	0.310701
	19.780000	0.175863
	19.785000	0.090357
	19.790000	0.221905
	19.795000	0.304124
	19.800000	0.175863
	19.805000	0.083779
	19.810000	0.218617
	19.815000	0.307412
	19.820000	0.172575
	19.825000	0.087068
	19.830000	0.212039
	19.835000	0.304124
	19.840000	0.172575
	19.845000	0.083779
	19.850000	0.212039
	19.855000	0.304124
	19.860000	0.175863
	19.865000	0.083779
	19.870000	0.212039
	19.875000	0.300835
	19.880000	0.175863
	19.885000	0.083779
	19.890000	0.212039
	19.895000	0.304124
	19.900000	0.175863
	19.905000	0.080490
	19.910000	0.208751
	19.915000	0.300835
	19.920000	0.175863
	19.925000	0.083779
	19.930000	0.212039
	19.935000	0.304124
	19.940000	0.175863
	19.945000	0.077202
	19.950000	0.208751
	19.955000	0.304124
	19.960000	0.182441
	19.965000	0.087068
	19.970000	0.212039
	19.975000	0.310701
	19.980000	0.182441
	19.985000	0.087068
	19.990000	0.215328
	19.995000	0.310701
	20.000000	0.185730
	20.005000	0.087068
	20.010000	0.218617
	20.015000	0.313990
	20.020000	0.185730
	20.025000	0.090357
	20.030000	0.218617
	20.035000	0.320567
	20.040000	0.189018
	20.045000	0.093645
	20.050000	0.218617
	20.055000	0.317278
	20.060000	0.185730
	20.065000	0.090357
	20.070000	0.221905
	20.075000	0.310701
	20.080000	0.192307
	20.085000	0.093645
	20.090000	0.221905
	20.095000	0.317278
	20.100000	0.189018
	20.105000	0.093645
	20.110000	0.221905
	20.115000	0.317278
	20.120000	0.195596
	20.125000	0.093645
	20.130000	0.221905
	20.135000	0.320567
	20.140000	0.195596
	20.145000	0.096934
	20.150000	0.225194
	20.155000	0.320567
	20.160000	0.202173
	20.165000	0.096934
	20.170000	0.225194
	20.175000	0.317278
	20.180000	0.198884
	20.185000	0.100223
	20.190000	0.225194
	20.195000	0.327145
	20.200000	0.202173
	20.205000	0.100223
	20.210000	0.225194
	20.215000	0.323856
	20.220000	0.202173
	20.225000	0.096934
	20.230000	0.221905
	20.235000	0.320567
	20.240000	0.205462
	20.245000	0.096934
	20.250000	0.215328
	20.255000	0.320567
	20.260000	0.202173
	20.265000	0.096934
	20.270000	0.225194
	20.275000	0.323856
	20.280000	0.195596
	20.285000	0.100223
	20.290000	0.218617
	20.295000	0.327145
	20.300000	0.202173
	20.305000	0.100223
	20.310000	0.221905
	20.315000	0.320567
	20.320000	0.202173
	20.325000	0.096934
	20.330000	0.221905
	20.335000	0.323856
	20.340000	0.205462
	20.345000	0.100223
	20.350000	0.218617
	20.355000	0.320567
	20.360000	0.202173
	20.365000	0.103511
	20.370000	0.221905
	20.375000	0.327145
	20.380000	0.205462
	20.385000	0.100223
	20.390000	0.218617
	20.395000	0.327145
	20.400000	0.208751
	20.405000	0.100223
	20.410000	0.221905
	20.415000	0.327145
	20.420000	0.212039
	20.425000	0.100223
	20.430000	0.221905
	20.435000	0.327145
	20.440000	0.212039
	20.445000	0.103511
	20.450000	0.218617
	20.455000	0.323856
	20.460000	0.208751
	20.465000	0.096934
	20.470000	0.221905
	20.475000	0.323856
	20.480000	0.208751
	20.485000	0.106800
	20.490000	0.215328
	20.495000	0.327145
	20.500000	0.212039
	20.505000	0.100223
	20.510000	0.221905
	20.515000	0.327145
	20.520000	0.212039
	20.525000	0.103511
	20.530000	0.215328
	20.535000	0.323856
	20.540000	0.215328
	20.545000	0.100223
	20.550000	0.215328
	20.555000	0.323856
	20.560000	0.212039
	20.565000	0.100223
	20.570000	0.215328
	20.575000	0.323856
	20.580000	0.212039
	20.585000	0.100223
	20.590000	0.221905
	20.595000	0.330433
	20.600000	0.208751
	20.605000	0.100223
	20.610000	0.215328
	20.615000	0.327145
	20.620000	0.212039
	20.625000	0.103511
	20.630000	0.215328
	20.635000	0.323856
	20.640000	0.212039
	20.645000	0.103511
	20.650000	0.215328
	20.655000	0.330433
	20.660000	0.212039
	20.665000	0.100223
	20.670000	0.212039
	20.675000	0.327145
	20.680000	0.215328
	20.685000	0.100223
	20.690000	0.215328
	20.695000	0.330433
	20.700000	0.215328
	20.705000	0.103511
	20.710000	0.218617
	20.715000	0.330433
	20.720000	0.218617
	20.725000	0.103511
	20.730000	0.221905
	20.735000	0.330433
	20.740000	0.221905
	20.745000	0.103511
	20.750000	0.215328
	20.755000	0.330433
	20.760000	0.225194
	20.765000	0.106800
	20.770000	0.218617
	20.775000	0.337011
	20.780000	0.231772
	20.785000	0.106800
	20.790000	0.221905
	20.795000	0.337011
	20.800000	0.225194
	20.805000	0.106800
	20.810000	0.225194
	20.815000	0.340299
	20.820000	0.231772
	20.825000	0.119955
	20.830000	0.228483
	20.835000	0.343588
	20.840000	0.238349
	20.845000	0.123244
	20.850000	0.231772
	20.855000	0.353454
	20.860000	0.248215
	20.865000	0.136399
	20.870000	0.248215
	20.875000	0.369898
	20.880000	0.267948
	20.885000	0.156131
	20.890000	0.267948
	20.895000	0.392919
	20.900000	0.290969
	20.905000	0.175863
	20.910000	0.287680
	20.915000	0.412651
	20.920000	0.310701
	20.925000	0.185730
	20.930000	0.294257
	20.935000	0.419229
	20.940000	0.307412
	20.945000	0.189018
	20.950000	0.290969
	20.955000	0.422518
	20.960000	0.310701
	20.965000	0.185730
	20.970000	0.290969
	20.975000	0.419229
	20.980000	0.307412
	20.985000	0.185730
	20.990000	0.287680
	20.995000	0.419229
	21.000000	0.307412
	21.005000	0.175863
	21.010000	0.287680
	21.015000	0.412651
	21.020000	0.300835
	21.025000	0.182441
	21.030000	0.281102
	21.035000	0.406074
	21.040000	0.304124
	21.045000	0.172575
	21.050000	0.277814
	21.055000	0.409363
	21.060000	0.290969
	21.065000	0.172575
	21.070000	0.277814
	21.075000	0.399496
	21.080000	0.294257
	21.085000	0.172575
	21.090000	0.271236
	21.095000	0.402785
	21.100000	0.290969
	21.105000	0.162708
	21.110000	0.267948
	21.115000	0.399496
	21.120000	0.294257
	21.125000	0.159420
	21.130000	0.267948
	21.135000	0.396208
	21.140000	0.294257
	21.145000	0.169286
	21.150000	0.267948
	21.155000	0.399496
	21.160000	0.294257
	21.165000	0.169286
	21.170000	0.267948
	21.175000	0.406074
	21.180000	0.300835
	21.185000	0.172575
	21.190000	0.267948
	21.195000	0.402785
	21.200000	0.304124
	21.205000	0.165997
	21.210000	0.274525
	21.215000	0.402785
	21.220000	0.304124
	21.225000	0.162708
	21.230000	0.274525
	21.235000	0.402785
	21.240000	0.304124
	21.245000	0.169286
	21.250000	0.274525
	21.255000	0.402785
	21.260000	0.300835
	21.265000	0.169286
	21.270000	0.271236
	21.275000	0.402785
	21.280000	0.297546
	21.285000	0.169286
	21.290000	0.264659
	21.295000	0.402785
	21.300000	0.297546
	21.305000	0.162708
	21.310000	0.258081
	21.315000	0.396208
	21.320000	0.290969
	21.325000	0.156131
	21.330000	0.254793
	21.335000	0.383053
	21.340000	0.287680
	21.345000	0.146265
	21.350000	0.241638
	21.355000	0.373187
	21.360000	0.271236
	21.365000	0.139687
	21.370000	0.231772
	21.375000	0.366609
	21.380000	0.264659
	21.385000	0.129821
	21.390000	0.225194
	21.395000	0.346877
	21.400000	0.248215
	21.405000	0.103511
	21.410000	0.195596
	21.415000	0.317278
	21.420000	0.212039
	21.425000	0.077202
	21.430000	0.159420
	21.435000	0.287680
	21.440000	0.189018
	21.445000	0.057469
	21.450000	0.146265
	21.455000	0.274525
	21.460000	0.169286
	21.465000	0.041026
	21.470000	0.126533
	21.475000	0.264659
	21.480000	0.169286
	21.485000	0.041026
	21.490000	0.133110
	21.495000	0.261370
	21.500000	0.169286
	21.505000	0.034448
	21.510000	0.123244
	21.515000	0.258081
	21.520000	0.162708
	21.525000	0.034448
	21.530000	0.119955
	21.535000	0.254793
	21.540000	0.162708
	21.545000	0.034448
	21.550000	0.126533
	21.555000	0.264659
	21.560000	0.169286
	21.565000	0.041026
	21.570000	0.136399
	21.575000	0.261370
	21.580000	0.172575
	21.585000	0.041026
	21.590000	0.129821
	21.595000	0.264659
	21.600000	0.172575
	21.605000	0.041026
	21.610000	0.136399
	21.615000	0.264659
	21.620000	0.175863
	21.625000	0.044314
	21.630000	0.129821
	21.635000	0.267948
	21.640000	0.175863
	21.645000	0.044314
	21.650000	0.136399
	21.655000	0.261370
	21.660000	0.175863
	21.665000	0.044314
	21.670000	0.136399
	21.675000	0.261370
	21.680000	0.182441
	21.685000	0.054181
	21.690000	0.136399
	21.695000	0.267948
	21.700000	0.185730
	21.705000	0.050892
	21.710000	0.136399
	21.715000	0.277814
	21.720000	0.192307
	21.725000	0.057469
	21.730000	0.142976
	21.735000	0.281102
	21.740000	0.195596
	21.745000	0.060758
	21.750000	0.139687
	21.755000	0.281102
	21.760000	0.198884
	21.765000	0.070624
	21.770000	0.149554
	21.775000	0.284391
	21.780000	0.205462
	21.785000	0.067335
	21.790000	0.152842
	21.795000	0.290969
	21.800000	0.205462
	21.805000	0.070624
	21.810000	0.156131
	21.815000	0.294257
	21.820000	0.215328
	21.825000	0.080490
	21.830000	0.156131
	21.835000	0.290969
	21.840000	0.215328
	21.845000	0.077202
	21.850000	0.159420
	21.855000	0.294257
	21.860000	0.212039
	21.865000	0.077202
	21.870000	0.159420
	21.875000	0.300835
	21.880000	0.215328
	21.885000	0.080490
	21.890000	0.162708
	21.895000	0.294257
	21.900000	0.218617
	21.905000	0.077202
	21.910000	0.156131
	21.915000	0.287680
	21.920000	0.212039
	21.925000	0.067335
	21.930000	0.149554
	21.935000	0.287680
	21.940000	0.208751
	21.945000	0.070624
	21.950000	0.142976
	21.955000	0.281102
	21.960000	0.198884
	21.965000	0.064047
	21.970000	0.142976
	21.975000	0.281102
	21.980000	0.202173
	21.985000	0.067335
	21.990000	0.139687
	21.995000	0.281102
	22.000000	0.205462
	22.005000	0.064047
	22.010000	0.136399
	22.015000	0.281102
	22.020000	0.205462
	22.025000	0.064047
	22.030000	0.146265
	22.035000	0.277814
	22.040000	0.208751
	22.045000	0.067335
	22.050000	0.146265
	22.055000	0.284391
	22.060000	0.205462
	22.065000	0.067335
	22.070000	0.139687
	22.075000	0.284391
	22.080000	0.208751
	22.085000	0.067335
	22.090000	0.142976
	22.095000	0.281102
	22.100000	0.208751
	22.105000	0.070624
	22.110000	0.142976
	22.115000	0.284391
	22.120000	0.208751
	22.125000	0.067335
	22.130000	0.139687
	22.135000	0.284391
	22.140000	0.205462
	22.145000	0.064047
	22.150000	0.142976
	22.155000	0.281102
	22.160000	0.212039
	22.165000	0.067335
	22.170000	0.146265
	22.175000	0.284391
	22.180000	0.208751
	22.185000	0.070624
	22.190000	0.139687
	22.195000	0.281102
	22.200000	0.212039
	22.205000	0.073913
	22.210000	0.139687
	22.215000	0.284391
	22.220000	0.218617
	22.225000	0.070624
	22.230000	0.142976
	22.235000	0.287680
	22.240000	0.218617
	22.245000	0.073913
	22.250000	0.139687
	22.255000	0.287680
	22.260000	0.215328
	22.265000	0.070624
	22.270000	0.139687
	22.275000	0.281102
	22.280000	0.218617
	22.285000	0.080490
	22.290000	0.142976
	22.295000	0.284391
	22.300000	0.218617
	22.305000	0.077202
	22.310000	0.146265
	22.315000	0.287680
	22.320000	0.218617
	22.325000	0.077202
	22.330000	0.146265
	22.335000	0.287680
	22.340000	0.218617
	22.345000	0.083779
	22.350000	0.149554
	22.355000	0.287680
	22.360000	0.221905
	22.365000	0.077202
	22.370000	0.146265
	22.375000	0.290969
	22.380000	0.228483
	22.385000	0.083779
	22.390000	0.142976
	22.395000	0.294257
	22.400000	0.231772
	22.405000	0.083779
	22.410000	0.149554
	22.415000	0.294257
	22.420000	0.235060
	22.425000	0.087068
	22.430000	0.149554
	22.435000	0.294257
	22.440000	0.228483
	22.445000	0.090357
	22.450000	0.146265
	22.455000	0.297546
	22.460000	0.231772
	22.465000	0.087068
	22.470000	0.149554
	22.475000	0.294257
	22.480000	0.235060
	22.485000	0.083779
	22.490000	0.149554
	22.495000	0.294257
	22.500000	0.231772
	22.505000	0.090357
	22.510000	0.149554
	22.515000	0.297546
	22.520000	0.228483
	22.525000	0.087068
	22.530000	0.149554
	22.535000	0.290969
	22.540000	0.228483
	22.545000	0.083779
	22.550000	0.146265
	22.555000	0.290969
	22.560000	0.231772
	22.565000	0.093645
	22.570000	0.142976
	22.575000	0.287680
	22.580000	0.231772
	22.585000	0.083779
	22.590000	0.146265
	22.595000	0.297546
	22.600000	0.238349
	22.605000	0.083779
	22.610000	0.149554
	22.615000	0.294257
	22.620000	0.235060
	22.625000	0.090357
	22.630000	0.142976
	22.635000	0.294257
	22.640000	0.235060
	22.645000	0.090357
	22.650000	0.149554
	22.655000	0.294257
	22.660000	0.238349
	22.665000	0.093645
	22.670000	0.146265
	22.675000	0.287680
	22.680000	0.241638
	22.685000	0.090357
	22.690000	0.146265
	22.695000	0.294257
	22.700000	0.241638
	22.705000	0.093645
	22.710000	0.149554
	22.715000	0.294257
	22.720000	0.244927
	22.725000	0.093645
	22.730000	0.146265
	22.735000	0.294257
	22.740000	0.238349
	22.745000	0.090357
	22.750000	0.146265
	22.755000	0.297546
	22.760000	0.244927
	22.765000	0.093645
	22.770000	0.146265
	22.775000	0.297546
	22.780000	0.244927
	22.785000	0.096934
	22.790000	0.146265
	22.795000	0.297546
	22.800000	0.244927
	22.805000	0.090357
	22.810000	0.149554
	22.815000	0.294257
	22.820000	0.244927
	22.825000	0.093645
	22.830000	0.146265
	22.835000	0.297546
	22.840000	0.244927
	22.845000	0.096934
	22.850000	0.146265
	22.855000	0.294257
	22.860000	0.244927
	22.865000	0.093645
	22.870000	0.146265
	22.875000	0.294257
	22.880000	0.241638
	22.885000	0.096934
	22.890000	0.146265
	22.895000	0.290969
	22.900000	0.241638
	22.905000	0.096934
	22.910000	0.146265
	22.915000	0.290969
	22.920000	0.244927
	22.925000	0.100223
	22.930000	0.142976
	22.935000	0.294257
	22.940000	0.244927
	22.945000	0.096934
	22.950000	0.139687
	22.955000	0.297546
	22.960000	0.248215
	22.965000	0.096934
	22.970000	0.142976
	22.975000	0.297546
	22.980000	0.254793
	22.985000	0.096934
	22.990000	0.146265
	22.995000	0.294257
	23.000000	0.251504
	23.005000	0.100223
	23.010000	0.142976
	23.015000	0.294257
	23.020000	0.248215
	23.025000	0.100223
	23.030000	0.149554
	23.035000	0.300835
	23.040000	0.251504
	23.045000	0.103511
	23.050000	0.149554
	23.055000	0.297546
	23.060000	0.258081
	23.065000	0.103511
	23.070000	0.149554
	23.075000	0.304124
	23.080000	0.258081
	23.085000	0.100223
	23.090000	0.146265
	23.095000	0.294257
	23.100000	0.258081
	23.105000	0.103511
	23.110000	0.146265
	23.115000	0.300835
	23.120000	0.254793
	23.125000	0.106800
	23.130000	0.149554
	23.135000	0.300835
	23.140000	0.254793
	23.145000	0.106800
	23.150000	0.146265
	23.155000	0.297546
	23.160000	0.261370
	23.165000	0.100223
	23.170000	0.146265
	23.175000	0.300835
	23.180000	0.254793
	23.185000	0.100223
	23.190000	0.146265
	23.195000	0.294257
	23.200000	0.258081
	23.205000	0.106800
	23.210000	0.146265
	23.215000	0.300835
	23.220000	0.258081
	23.225000	0.106800
	23.230000	0.142976
	23.235000	0.300835
	23.240000	0.261370
	23.245000	0.106800
	23.250000	0.139687
	23.255000	0.294257
	23.260000	0.254793
	23.265000	0.106800
	23.270000	0.139687
	23.275000	0.297546
	23.280000	0.261370
	23.285000	0.106800
	23.290000	0.142976
	23.295000	0.300835
	23.300000	0.264659
	23.305000	0.110089
	23.310000	0.136399
	23.315000	0.294257
	23.320000	0.264659
	23.325000	0.110089
	23.330000	0.142976
	23.335000	0.297546
	23.340000	0.258081
	23.345000	0.110089
	23.350000	0.142976
	23.355000	0.297546
	23.360000	0.261370
	23.365000	0.110089
	23.370000	0.136399
	23.375000	0.297546
	23.380000	0.264659
	23.385000	0.106800
	23.390000	0.142976
	23.395000	0.294257
	23.400000	0.264659
	23.405000	0.106800
	23.410000	0.142976
	23.415000	0.297546
	23.420000	0.264659
	23.425000	0.106800
	23.430000	0.139687
	23.435000	0.297546
	23.440000	0.264659
	23.445000	0.106800
	23.450000	0.136399
	23.455000	0.294257
	23.460000	0.264659
	23.465000	0.110089
	23.470000	0.142976
	23.475000	0.297546
	23.480000	0.264659
	23.485000	0.110089
	23.490000	0.139687
	23.495000	0.297546
	23.500000	0.267948
	23.505000	0.106800
	23.510000	0.139687
	23.515000	0.297546
	23.520000	0.267948
	23.525000	0.110089
	23.530000	0.142976
	23.535000	0.294257
	23.540000	0.264659
	23.545000	0.103511
	23.550000	0.142976
	23.555000	0.294257
	23.560000	0.264659
	23.565000	0.110089
	23.570000	0.139687
	23.575000	0.294257
	23.580000	0.264659
	23.585000	0.113378
	23.590000	0.139687
	23.595000	0.294257
	23.600000	0.267948
	23.605000	0.106800
	23.610000	0.136399
	23.615000	0.290969
	23.620000	0.267948
	23.625000	0.113378
	23.630000	0.133110
	23.635000	0.290969
	23.640000	0.264659
	23.645000	0.113378
	23.650000	0.139687
	23.655000	0.297546
	23.660000	0.274525
	23.665000	0.116666
	23.670000	0.136399
	23.675000	0.294257
	23.680000	0.271236
	23.685000	0.113378
	23.690000	0.139687
	23.695000	0.300835
	23.700000	0.274525
	23.705000	0.116666
	23.710000	0.133110
	23.715000	0.290969
	23.720000	0.274525
	23.725000	0.116666
	23.730000	0.136399
	23.735000	0.290969
	23.740000	0.274525
	23.745000	0.116666
	23.750000	0.136399
	23.755000	0.297546
	23.760000	0.274525
	23.765000	0.116666
	23.770000	0.136399
	23.775000	0.294257
	23.780000	0.274525
	23.785000	0.119955
	23.790000	0.136399
	23.795000	0.290969
	23.800000	0.274525
	23.805000	0.116666
	23.810000	0.136399
	23.815000	0.294257
	23.820000	0.281102
	23.825000	0.116666
	23.830000	0.136399
	23.835000	0.294257
	23.840000	0.271236
	23.845000	0.116666
	23.850000	0.139687
	23.855000	0.294257
	23.860000	0.277814
	23.865000	0.123244
	23.870000	0.136399
	23.875000	0.294257
	23.880000	0.277814
	23.885000	0.119955
	23.890000	0.136399
	23.895000	0.294257
	23.900000	0.281102
	23.905000	0.116666
	23.910000	0.133110
	23.915000	0.294257
	23.920000	0.281102
	23.925000	0.119955
	23.930000	0.129821
	23.935000	0.294257
	23.940000	0.277814
	23.945000	0.126533
	23.950000	0.139687
	23.955000	0.290969
	23.960000	0.277814
	23.965000	0.119955
	23.970000	0.133110
	23.975000	0.294257
	23.980000	0.284391
	23.985000	0.119955
	23.990000	0.133110
	23.995000	0.287680
	24.000000	0.281102
	24.005000	0.123244
	24.010000	0.133110
	24.015000	0.294257
	24.020000	0.281102
	24.025000	0.123244
	24.030000	0.133110
	24.035000	0.294257
	24.040000	0.277814
	24.045000	0.119955
	24.050000	0.129821
	24.055000	0.287680
	24.060000	0.281102
	24.065000	0.123244
	24.070000	0.133110
	24.075000	0.287680
	24.080000	0.281102
	24.085000	0.119955
	24.090000	0.129821
	24.095000	0.290969
	24.100000	0.281102
	24.105000	0.119955
	24.110000	0.126533
	24.115000	0.290969
	24.120000	0.277814
	24.125000	0.119955
	24.130000	0.129821
	24.135000	0.287680
	24.140000	0.281102
	24.145000	0.126533
	24.150000	0.126533
	24.155000	0.287680
	24.160000	0.281102
	24.165000	0.123244
	24.170000	0.129821
	24.175000	0.290969
	24.180000	0.281102
	24.185000	0.119955
	24.190000	0.129821
	24.195000	0.284391
	24.200000	0.277814
	24.205000	0.126533
	24.210000	0.123244
	24.215000	0.287680
	24.220000	0.281102
	24.225000	0.119955
	24.230000	0.129821
	24.235000	0.287680
	24.240000	0.281102
	24.245000	0.126533
	24.250000	0.133110
	24.255000	0.287680
	24.260000	0.287680
	24.265000	0.126533
	24.270000	0.129821
	24.275000	0.287680
	24.280000	0.287680
	24.285000	0.126533
	24.290000	0.129821
	24.295000	0.287680
	24.300000	0.287680
	24.305000	0.129821
	24.310000	0.126533
	24.315000	0.287680
	24.320000	0.284391
	24.325000	0.129821
	24.330000	0.129821
	24.335000	0.290969
	24.340000	0.287680
	24.345000	0.133110
	24.350000	0.129821
	24.355000	0.284391
	24.360000	0.287680
	24.365000	0.126533
	24.370000	0.133110
	24.375000	0.284391
	24.380000	0.290969
	24.385000	0.129821
	24.390000	0.133110
	24.395000	0.287680
	24.400000	0.284391
	24.405000	0.129821
	24.410000	0.126533
	24.415000	0.284391
	24.420000	0.290969
	24.425000	0.133110
	24.430000	0.129821
	24.435000	0.287680
	24.440000	0.287680
	24.445000	0.136399
	24.450000	0.129821
	24.455000	0.284391
	24.460000	0.290969
	24.465000	0.126533
	24.470000	0.126533
	24.475000	0.287680
	24.480000	0.290969
	24.485000	0.129821
	24.490000	0.126533
	24.495000	0.284391
	24.500000	0.290969
	24.505000	0.133110
	24.510000	0.123244
	24.515000	0.284391
	24.520000	0.287680
	24.525000	0.129821
	24.530000	0.123244
	24.535000	0.284391
	24.540000	0.294257
	24.545000	0.133110
	24.550000	0.126533
	24.555000	0.284391
	24.560000	0.297546
	24.565000	0.126533
	24.570000	0.126533
	24.575000	0.287680
	24.580000	0.290969
	24.585000	0.136399
	24.590000	0.123244
	24.595000	0.281102
	24.600000	0.290969
	24.605000	0.133110
	24.610000	0.123244
	24.615000	0.284391
	24.620000	0.294257
	24.625000	0.133110
	24.630000	0.123244
	24.635000	0.284391
	24.640000	0.294257
	24.645000	0.133110
	24.650000	0.123244
	24.655000	0.281102
	24.660000	0.290969
	24.665000	0.133110
	24.670000	0.126533
	24.675000	0.281102
	24.680000	0.287680
	24.685000	0.133110
	24.690000	0.123244
	24.695000	0.284391
	24.700000	0.294257
	24.705000	0.133110
	24.710000	0.123244
	24.715000	0.274525
	24.720000	0.287680
	24.725000	0.133110
	24.730000	0.119955
	24.735000	0.284391
	24.740000	0.294257
	24.745000	0.136399
	24.750000	0.119955
	24.755000	0.284391
	24.760000	0.294257
	24.765000	0.136399
	24.770000	0.123244
	24.775000	0.281102
	24.780000	0.294257
	24.785000	0.133110
	24.790000	0.119955
	24.795000	0.284391
	24.800000	0.290969
	24.805000	0.139687
	24.810000	0.123244
	24.815000	0.274525
	24.820000	0.297546
	24.825000	0.139687
	24.830000	0.116666
	24.835000	0.277814
	24.840000	0.294257
	24.845000	0.133110
	24.850000	0.123244
	24.855000	0.277814
	24.860000	0.290969
	24.865000	0.139687
	24.870000	0.123244
	24.875000	0.277814
	24.880000	0.297546
	24.885000	0.139687
	24.890000	0.116666
	24.895000	0.277814
	24.900000	0.297546
	24.905000	0.139687
	24.910000	0.123244
	24.915000	0.277814
	24.920000	0.294257
	24.925000	0.139687
	24.930000	0.123244
	24.935000	0.277814
	24.940000	0.300835
	24.945000	0.142976
	24.950000	0.126533
	24.955000	0.277814
	24.960000	0.300835
	24.965000	0.139687
	24.970000	0.119955
	24.975000	0.274525
	24.980000	0.300835
	24.985000	0.139687
	24.990000	0.126533
	24.995000	0.274525
	25.000000	0.300835
	25.005000	0.142976
	25.010000	0.116666
	25.015000	0.281102
	25.020000	0.297546
	25.025000	0.146265
	25.030000	0.116666
	25.035000	0.281102
	25.040000	0.300835
	25.045000	0.142976
	25.050000	0.123244
	25.055000	0.274525
	25.060000	0.300835
	25.065000	0.149554
	25.070000	0.119955
	25.075000	0.274525
	25.080000	0.297546
	25.085000	0.146265
	25.090000	0.116666
	25.095000	0.277814
	25.100000	0.297546
	25.105000	0.142976
	25.110000	0.119955
	25.115000	0.277814
	25.120000	0.300835
	25.125000	0.142976
	25.130000	0.123244
	25.135000	0.274525
	25.140000	0.304124
	25.145000	0.142976
	25.150000	0.116666
	25.155000	0.274525
	25.160000	0.300835
	25.165000	0.142976
	25.170000	0.116666
	25.175000	0.274525
	25.180000	0.297546
	25.185000	0.146265
	25.190000	0.116666
	25.195000	0.274525
	25.200000	0.304124
	25.205000	0.142976
	25.210000	0.116666
	25.215000	0.274525
	25.220000	0.300835
	25.225000	0.146265
	25.230000	0.119955
	25.235000	0.277814
	25.240000	0.300835
	25.245000	0.146265
	25.250000	0.119955
	25.255000	0.274525
	25.260000	0.304124
	25.265000	0.142976
	25.270000	0.119955
	25.275000	0.274525
	25.280000	0.297546
	25.285000	0.142976
	25.290000	0.123244
	25.295000	0.271236
	25.300000	0.304124
	25.305000	0.146265
	25.310000	0.113378
	25.315000	0.267948
	25.320000	0.297546
	25.325000	0.146265
	25.330000	0.110089
	25.335000	0.274525
	25.340000	0.307412
	25.345000	0.146265
	25.350000	0.113378
	25.355000	0.274525
	25.360000	0.300835
	25.365000	0.149554
	25.370000	0.116666
	25.375000	0.274525
	25.380000	0.304124
	25.385000	0.149554
	25.390000	0.113378
	25.395000	0.277814
	25.400000	0.304124
	25.405000	0.149554
	25.410000	0.113378
	25.415000	0.271236
	25.420000	0.307412
	25.425000	0.146265
	25.430000	0.113378
	25.435000	0.274525
	25.440000	0.304124
	25.445000	0.152842
	25.450000	0.113378
	25.455000	0.267948
	25.460000	0.304124
	25.465000	0.149554
	25.470000	0.113378
	25.475000	0.267948
	25.480000	0.300835
	25.485000	0.149554
	25.490000	0.113378
	25.495000	0.267948
	25.500000	0.310701
	25.505000	0.149554
	25.510000	0.116666
	25.515000	0.267948
	25.520000	0.307412
	25.525000	0.149554
	25.530000	0.110089
	25.535000	0.274525
	25.540000	0.304124
	25.545000	0.152842
	25.550000	0.113378
	25.555000	0.267948
	25.560000	0.307412
	25.565000	0.156131
	25.570000	0.113378
	25.575000	0.264659
	25.580000	0.307412
	25.585000	0.156131
	25.590000	0.113378
	25.595000	0.267948
	25.600000	0.310701
	25.605000	0.152842
	25.610000	0.116666
	25.615000	0.267948
	25.620000	0.307412
	25.625000	0.152842
	25.630000	0.110089
	25.635000	0.264659
	25.640000	0.304124
	25.645000	0.159420
	25.650000	0.110089
	25.655000	0.264659
	25.660000	0.307412
	25.665000	0.159420
	25.670000	0.113378
	25.675000	0.261370
	25.680000	0.307412
	25.685000	0.152842
	25.690000	0.113378
	25.695000	0.267948
	25.700000	0.307412
	25.705000	0.156131
	25.710000	0.113378
	25.715000	0.264659
	25.720000	0.310701
	25.725000	0.156131
	25.730000	0.113378
	25.735000	0.264659
	25.740000	0.313990
	25.745000	0.159420
	25.750000	0.110089
	25.755000	0.261370
	25.760000	0.310701
	25.765000	0.156131
	25.770000	0.116666
	25.775000	0.264659
	25.780000	0.310701
	25.785000	0.152842
	25.790000	0.116666
	25.795000	0.267948
	25.800000	0.310701
	25.805000	0.162708
	25.810000	0.113378
	25.815000	0.261370
	25.820000	0.310701
	25.825000	0.156131
	25.830000	0.113378
	25.835000	0.264659
	25.840000	0.310701
	25.845000	0.156131
	25.850000	0.106800
	25.855000	0.261370
	25.860000	0.310701
	25.865000	0.159420
	25.870000	0.106800
	25.875000	0.261370
	25.880000	0.307412
	25.885000	0.162708
	25.890000	0.106800
	25.895000	0.264659
	25.900000	0.307412
	25.905000	0.156131
	25.910000	0.110089
	25.915000	0.261370
	25.920000	0.310701
	25.925000	0.159420
	25.930000	0.110089
	25.935000	0.261370
	25.940000	0.310701
	25.945000	0.162708
	25.950000	0.113378
	25.955000	0.258081
	25.960000	0.307412
	25.965000	0.159420
	25.970000	0.116666
	25.975000	0.258081
	25.980000	0.307412
	25.985000	0.159420
	25.990000	0.103511
	25.995000	0.261370
	26.000000	0.310701
	26.005000	0.159420
	26.010000	0.113378
	26.015000	0.261370
	26.020000	0.313990
	26.025000	0.159420
	26.030000	0.110089
	26.035000	0.261370
	26.040000	0.310701
	26.045000	0.162708
	26.050000	0.113378
	26.055000	0.261370
	26.060000	0.310701
	26.065000	0.159420
	26.070000	0.110089
	26.075000	0.258081
	26.080000	0.317278
	26.085000	0.159420
	26.090000	0.103511
	26.095000	0.261370
	26.100000	0.313990
	26.105000	0.159420
	26.110000	0.110089
	26.115000	0.258081
	26.120000	0.313990
	26.125000	0.162708
	26.130000	0.110089
	26.135000	0.261370
	26.140000	0.313990
	26.145000	0.165997
	26.150000	0.106800
	26.155000	0.258081
	26.160000	0.313990
	26.165000	0.162708
	26.170000	0.106800
	26.175000	0.264659
	26.180000	0.313990
	26.185000	0.165997
	26.190000	0.103511
	26.195000	0.261370
	26.200000	0.313990
	26.205000	0.165997
	26.210000	0.103511
	26.215000	0.258081
	26.220000	0.313990
	26.225000	0.165997
	26.230000	0.103511
	26.235000	0.254793
	26.240000	0.320567
	26.245000	0.162708
	26.250000	0.103511
	26.255000	0.254793
	26.260000	0.320567
	26.265000	0.165997
	26.270000	0.106800
	26.275000	0.258081
	26.280000	0.320567
	26.285000	0.169286
	26.290000	0.106800
	26.295000	0.254793
	26.300000	0.320567
	26.305000	0.165997
	26.310000	0.103511
	26.315000	0.258081
	26.320000	0.317278
	26.325000	0.169286
	26.330000	0.103511
	26.335000	0.254793
	26.340000	0.320567
	26.345000	0.165997
	26.350000	0.100223
	26.355000	0.251504
	26.360000	0.320567
	26.365000	0.169286
	26.370000	0.103511
	26.375000	0.248215
	26.380000	0.310701
	26.385000	0.165997
	26.390000	0.096934
	26.395000	0.254793
	26.400000	0.317278
	26.405000	0.159420
	26.410000	0.100223
	26.415000	0.248215
	26.420000	0.317278
	26.425000	0.169286
	26.430000	0.100223
	26.435000	0.251504
	26.440000	0.317278
	26.445000	0.162708
	26.450000	0.100223
	26.455000	0.248215
	26.460000	0.317278
	26.465000	0.162708
	26.470000	0.096934
	26.475000	0.244927
	26.480000	0.313990
	26.485000	0.169286
	26.490000	0.096934
	26.495000	0.248215
	26.500000	0.317278
	26.505000	0.169286
	26.510000	0.100223
	26.515000	0.244927
	26.520000	0.317278
	26.525000	0.162708
	26.530000	0.100223
	26.535000	0.248215
	26.540000	0.317278
	26.545000	0.172575
	26.550000	0.096934
	26.555000	0.244927
	26.560000	0.320567
	26.565000	0.165997
	26.570000	0.096934
	26.575000	0.251504
	26.580000	0.317278
	26.585000	0.172575
	26.590000	0.096934
	26.595000	0.241638
	26.600000	0.323856
	26.605000	0.169286
	26.610000	0.093645
	26.615000	0.248215
	26.620000	0.313990
	26.625000	0.172575
	26.630000	0.100223
	26.635000	0.244927
	26.640000	0.320567
	26.645000	0.169286
	26.650000	0.100223
	26.655000	0.244927
	26.660000	0.317278
	26.665000	0.169286
	26.670000	0.100223
	26.675000	0.248215
	26.680000	0.320567
	26.685000	0.169286
	26.690000	0.096934
	26.695000	0.238349
	26.700000	0.317278
	26.705000	0.169286
	26.710000	0.096934
	26.715000	0.244927
	26.720000	0.317278
	26.725000	0.172575
	26.730000	0.096934
	26.735000	0.244927
	26.740000	0.317278
	26.745000	0.172575
	26.750000	0.100223
	26.755000	0.244927
	26.760000	0.317278
	26.765000	0.172575
	26.770000	0.100223
	26.775000	0.241638
	26.780000	0.320567
	26.785000	0.172575
	26.790000	0.096934
	26.795000	0.244927
	26.800000	0.320567
	26.805000	0.179152
	26.810000	0.096934
	26.815000	0.241638
	26.820000	0.327145
	26.825000	0.172575
	26.830000	0.100223
	26.835000	0.241638
	26.840000	0.320567
	26.845000	0.179152
	26.850000	0.100223
	26.855000	0.244927
	26.860000	0.320567
	26.865000	0.175863
	26.870000	0.096934
	26.875000	0.244927
	26.880000	0.317278
	26.885000	0.175863
	26.890000	0.096934
	26.895000	0.241638
	26.900000	0.320567
	26.905000	0.179152
	26.910000	0.100223
	26.915000	0.241638
	26.920000	0.323856
	26.925000	0.175863
	26.930000	0.100223
	26.935000	0.238349
	26.940000	0.323856
	26.945000	0.175863
	26.950000	0.096934
