2024/7/26 	 22:11:55 
 This file comes from Vt only measurement 	 1.000000E-1 
 Voltage Sensitivity 	 0.000000E+0 
 Sampling rate 	 200 
 Number of samples per channel 	 -1 
 No filter from Labview 	 	 	 
 	 
 ***End_of_Header*** 
 	 Time 	  Voltage 	 Filtered Voltage 	 
	0.000000	1.215100
	0.005000	1.267719
	0.010000	1.399268
	0.015000	1.343360
	0.020000	1.211811
	0.025000	1.267719
	0.030000	1.395979
	0.035000	1.340071
	0.040000	1.215100
	0.045000	1.271008
	0.050000	1.389402
	0.055000	1.340071
	0.060000	1.218388
	0.065000	1.267719
	0.070000	1.399268
	0.075000	1.343360
	0.080000	1.215100
	0.085000	1.274297
	0.090000	1.395979
	0.095000	1.340071
	0.100000	1.221677
	0.105000	1.274297
	0.110000	1.395979
	0.115000	1.346649
	0.120000	1.224966
	0.125000	1.274297
	0.130000	1.399268
	0.135000	1.346649
	0.140000	1.224966
	0.145000	1.274297
	0.150000	1.399268
	0.155000	1.343360
	0.160000	1.218388
	0.165000	1.271008
	0.170000	1.395979
	0.175000	1.343360
	0.180000	1.221677
	0.185000	1.271008
	0.190000	1.395979
	0.195000	1.340071
	0.200000	1.221677
	0.205000	1.274297
	0.210000	1.395979
	0.215000	1.340071
	0.220000	1.228255
	0.225000	1.274297
	0.230000	1.395979
	0.235000	1.346649
	0.240000	1.224966
	0.245000	1.274297
	0.250000	1.395979
	0.255000	1.349937
	0.260000	1.224966
	0.265000	1.277585
	0.270000	1.399268
	0.275000	1.346649
	0.280000	1.218388
	0.285000	1.274297
	0.290000	1.399268
	0.295000	1.346649
	0.300000	1.221677
	0.305000	1.280874
	0.310000	1.402557
	0.315000	1.340071
	0.320000	1.221677
	0.325000	1.274297
	0.330000	1.399268
	0.335000	1.343360
	0.340000	1.221677
	0.345000	1.280874
	0.350000	1.402557
	0.355000	1.346649
	0.360000	1.228255
	0.365000	1.277585
	0.370000	1.399268
	0.375000	1.346649
	0.380000	1.224966
	0.385000	1.277585
	0.390000	1.402557
	0.395000	1.353226
	0.400000	1.224966
	0.405000	1.280874
	0.410000	1.405846
	0.415000	1.346649
	0.420000	1.224966
	0.425000	1.280874
	0.430000	1.399268
	0.435000	1.349937
	0.440000	1.221677
	0.445000	1.280874
	0.450000	1.405846
	0.455000	1.353226
	0.460000	1.228255
	0.465000	1.280874
	0.470000	1.402557
	0.475000	1.349937
	0.480000	1.228255
	0.485000	1.284163
	0.490000	1.402557
	0.495000	1.353226
	0.500000	1.231543
	0.505000	1.280874
	0.510000	1.399268
	0.515000	1.349937
	0.520000	1.221677
	0.525000	1.284163
	0.530000	1.399268
	0.535000	1.349937
	0.540000	1.228255
	0.545000	1.280874
	0.550000	1.392691
	0.555000	1.346649
	0.560000	1.221677
	0.565000	1.277585
	0.570000	1.399268
	0.575000	1.340071
	0.580000	1.215100
	0.585000	1.277585
	0.590000	1.392691
	0.595000	1.336782
	0.600000	1.215100
	0.605000	1.267719
	0.610000	1.392691
	0.615000	1.336782
	0.620000	1.211811
	0.625000	1.267719
	0.630000	1.389402
	0.635000	1.333494
	0.640000	1.208522
	0.645000	1.261142
	0.650000	1.386113
	0.655000	1.320339
	0.660000	1.198656
	0.665000	1.257853
	0.670000	1.379536
	0.675000	1.320339
	0.680000	1.192079
	0.685000	1.251276
	0.690000	1.369670
	0.695000	1.313761
	0.700000	1.185501
	0.705000	1.238121
	0.710000	1.359803
	0.715000	1.300606
	0.720000	1.178924
	0.725000	1.234832
	0.730000	1.359803
	0.735000	1.294029
	0.740000	1.165769
	0.745000	1.224966
	0.750000	1.343360
	0.755000	1.290740
	0.760000	1.162480
	0.765000	1.224966
	0.770000	1.346649
	0.775000	1.290740
	0.780000	1.165769
	0.785000	1.221677
	0.790000	1.346649
	0.795000	1.287452
	0.800000	1.162480
	0.805000	1.215100
	0.810000	1.340071
	0.815000	1.287452
	0.820000	1.155903
	0.825000	1.221677
	0.830000	1.349937
	0.835000	1.290740
	0.840000	1.169058
	0.845000	1.231543
	0.850000	1.356515
	0.855000	1.307184
	0.860000	1.178924
	0.865000	1.241409
	0.870000	1.372958
	0.875000	1.317050
	0.880000	1.188790
	0.885000	1.247987
	0.890000	1.376247
	0.895000	1.323628
	0.900000	1.195367
	0.905000	1.251276
	0.910000	1.382825
	0.915000	1.320339
	0.920000	1.198656
	0.925000	1.251276
	0.930000	1.382825
	0.935000	1.323628
	0.940000	1.198656
	0.945000	1.251276
	0.950000	1.372958
	0.955000	1.320339
	0.960000	1.192079
	0.965000	1.244698
	0.970000	1.359803
	0.975000	1.303895
	0.980000	1.175635
	0.985000	1.234832
	0.990000	1.356515
	0.995000	1.307184
	1.000000	1.178924
	1.005000	1.234832
	1.010000	1.366381
	1.015000	1.310473
	1.020000	1.188790
	1.025000	1.244698
	1.030000	1.379536
	1.035000	1.317050
	1.040000	1.201945
	1.045000	1.257853
	1.050000	1.376247
	1.055000	1.330205
	1.060000	1.208522
	1.065000	1.257853
	1.070000	1.392691
	1.075000	1.333494
	1.080000	1.215100
	1.085000	1.274297
	1.090000	1.399268
	1.095000	1.343360
	1.100000	1.218388
	1.105000	1.277585
	1.110000	1.405846
	1.115000	1.349937
	1.120000	1.228255
	1.125000	1.284163
	1.130000	1.409134
	1.135000	1.353226
	1.140000	1.228255
	1.145000	1.290740
	1.150000	1.412423
	1.155000	1.356515
	1.160000	1.238121
	1.165000	1.287452
	1.170000	1.412423
	1.175000	1.359803
	1.180000	1.231543
	1.185000	1.290740
	1.190000	1.412423
	1.195000	1.359803
	1.200000	1.234832
	1.205000	1.290740
	1.210000	1.419000
	1.215000	1.356515
	1.220000	1.238121
	1.225000	1.290740
	1.230000	1.415712
	1.235000	1.359803
	1.240000	1.231543
	1.245000	1.290740
	1.250000	1.415712
	1.255000	1.356515
	1.260000	1.231543
	1.265000	1.290740
	1.270000	1.409134
	1.275000	1.353226
	1.280000	1.228255
	1.285000	1.290740
	1.290000	1.419000
	1.295000	1.349937
	1.300000	1.224966
	1.305000	1.287452
	1.310000	1.409134
	1.315000	1.346649
	1.320000	1.228255
	1.325000	1.284163
	1.330000	1.409134
	1.335000	1.353226
	1.340000	1.221677
	1.345000	1.284163
	1.350000	1.402557
	1.355000	1.340071
	1.360000	1.215100
	1.365000	1.271008
	1.370000	1.402557
	1.375000	1.343360
	1.380000	1.211811
	1.385000	1.277585
	1.390000	1.399268
	1.395000	1.343360
	1.400000	1.211811
	1.405000	1.271008
	1.410000	1.402557
	1.415000	1.340071
	1.420000	1.211811
	1.425000	1.274297
	1.430000	1.402557
	1.435000	1.343360
	1.440000	1.218388
	1.445000	1.277585
	1.450000	1.405846
	1.455000	1.343360
	1.460000	1.205234
	1.465000	1.267719
	1.470000	1.395979
	1.475000	1.336782
	1.480000	1.198656
	1.485000	1.257853
	1.490000	1.382825
	1.495000	1.317050
	1.500000	1.182212
	1.505000	1.241409
	1.510000	1.366381
	1.515000	1.303895
	1.520000	1.172346
	1.525000	1.234832
	1.530000	1.356515
	1.535000	1.294029
	1.540000	1.169058
	1.545000	1.224966
	1.550000	1.353226
	1.555000	1.290740
	1.560000	1.165769
	1.565000	1.221677
	1.570000	1.346649
	1.575000	1.284163
	1.580000	1.162480
	1.585000	1.221677
	1.590000	1.340071
	1.595000	1.284163
	1.600000	1.162480
	1.605000	1.215100
	1.610000	1.346649
	1.615000	1.290740
	1.620000	1.169058
	1.625000	1.231543
	1.630000	1.359803
	1.635000	1.297318
	1.640000	1.175635
	1.645000	1.238121
	1.650000	1.366381
	1.655000	1.300606
	1.660000	1.185501
	1.665000	1.244698
	1.670000	1.369670
	1.675000	1.313761
	1.680000	1.188790
	1.685000	1.247987
	1.690000	1.372958
	1.695000	1.317050
	1.700000	1.195367
	1.705000	1.254564
	1.710000	1.379536
	1.715000	1.320339
	1.720000	1.205234
	1.725000	1.264431
	1.730000	1.382825
	1.735000	1.326916
	1.740000	1.201945
	1.745000	1.267719
	1.750000	1.389402
	1.755000	1.326916
	1.760000	1.208522
	1.765000	1.264431
	1.770000	1.389402
	1.775000	1.326916
	1.780000	1.211811
	1.785000	1.274297
	1.790000	1.392691
	1.795000	1.333494
	1.800000	1.211811
	1.805000	1.271008
	1.810000	1.392691
	1.815000	1.336782
	1.820000	1.211811
	1.825000	1.274297
	1.830000	1.392691
	1.835000	1.336782
	1.840000	1.211811
	1.845000	1.274297
	1.850000	1.389402
	1.855000	1.340071
	1.860000	1.221677
	1.865000	1.277585
	1.870000	1.402557
	1.875000	1.340071
	1.880000	1.215100
	1.885000	1.280874
	1.890000	1.402557
	1.895000	1.340071
	1.900000	1.218388
	1.905000	1.280874
	1.910000	1.402557
	1.915000	1.343360
	1.920000	1.218388
	1.925000	1.280874
	1.930000	1.409134
	1.935000	1.340071
	1.940000	1.218388
	1.945000	1.287452
	1.950000	1.405846
	1.955000	1.343360
	1.960000	1.221677
	1.965000	1.287452
	1.970000	1.402557
	1.975000	1.343360
	1.980000	1.221677
	1.985000	1.284163
	1.990000	1.405846
	1.995000	1.346649
	2.000000	1.228255
	2.005000	1.284163
	2.010000	1.405846
	2.015000	1.346649
	2.020000	1.224966
	2.025000	1.284163
	2.030000	1.405846
	2.035000	1.343360
	2.040000	1.218388
	2.045000	1.280874
	2.050000	1.402557
	2.055000	1.343360
	2.060000	1.221677
	2.065000	1.280874
	2.070000	1.402557
	2.075000	1.336782
	2.080000	1.218388
	2.085000	1.280874
	2.090000	1.399268
	2.095000	1.336782
	2.100000	1.221677
	2.105000	1.277585
	2.110000	1.399268
	2.115000	1.333494
	2.120000	1.218388
	2.125000	1.277585
	2.130000	1.402557
	2.135000	1.333494
	2.140000	1.215100
	2.145000	1.271008
	2.150000	1.399268
	2.155000	1.336782
	2.160000	1.215100
	2.165000	1.274297
	2.170000	1.399268
	2.175000	1.333494
	2.180000	1.215100
	2.185000	1.280874
	2.190000	1.399268
	2.195000	1.336782
	2.200000	1.218388
	2.205000	1.277585
	2.210000	1.399268
	2.215000	1.333494
	2.220000	1.221677
	2.225000	1.277585
	2.230000	1.402557
	2.235000	1.340071
	2.240000	1.218388
	2.245000	1.277585
	2.250000	1.402557
	2.255000	1.336782
	2.260000	1.218388
	2.265000	1.284163
	2.270000	1.402557
	2.275000	1.336782
	2.280000	1.224966
	2.285000	1.277585
	2.290000	1.402557
	2.295000	1.340071
	2.300000	1.221677
	2.305000	1.284163
	2.310000	1.405846
	2.315000	1.343360
	2.320000	1.224966
	2.325000	1.280874
	2.330000	1.405846
	2.335000	1.346649
	2.340000	1.224966
	2.345000	1.284163
	2.350000	1.405846
	2.355000	1.343360
	2.360000	1.224966
	2.365000	1.287452
	2.370000	1.409134
	2.375000	1.343360
	2.380000	1.228255
	2.385000	1.290740
	2.390000	1.405846
	2.395000	1.349937
	2.400000	1.224966
	2.405000	1.290740
	2.410000	1.409134
	2.415000	1.349937
	2.420000	1.234832
	2.425000	1.297318
	2.430000	1.415712
	2.435000	1.353226
	2.440000	1.234832
	2.445000	1.300606
	2.450000	1.412423
	2.455000	1.356515
	2.460000	1.238121
	2.465000	1.294029
	2.470000	1.419000
	2.475000	1.353226
	2.480000	1.238121
	2.485000	1.307184
	2.490000	1.419000
	2.495000	1.359803
	2.500000	1.241409
	2.505000	1.303895
	2.510000	1.419000
	2.515000	1.359803
	2.520000	1.241409
	2.525000	1.307184
	2.530000	1.419000
	2.535000	1.363092
	2.540000	1.251276
	2.545000	1.310473
	2.550000	1.425578
	2.555000	1.366381
	2.560000	1.257853
	2.565000	1.310473
	2.570000	1.432155
	2.575000	1.366381
	2.580000	1.251276
	2.585000	1.313761
	2.590000	1.435444
	2.595000	1.372958
	2.600000	1.254564
	2.605000	1.317050
	2.610000	1.428867
	2.615000	1.369670
	2.620000	1.257853
	2.625000	1.317050
	2.630000	1.432155
	2.635000	1.369670
	2.640000	1.254564
	2.645000	1.313761
	2.650000	1.425578
	2.655000	1.372958
	2.660000	1.254564
	2.665000	1.317050
	2.670000	1.428867
	2.675000	1.369670
	2.680000	1.257853
	2.685000	1.320339
	2.690000	1.432155
	2.695000	1.369670
	2.700000	1.254564
	2.705000	1.317050
	2.710000	1.432155
	2.715000	1.366381
	2.720000	1.254564
	2.725000	1.313761
	2.730000	1.425578
	2.735000	1.359803
	2.740000	1.251276
	2.745000	1.310473
	2.750000	1.425578
	2.755000	1.359803
	2.760000	1.244698
	2.765000	1.307184
	2.770000	1.422289
	2.775000	1.359803
	2.780000	1.241409
	2.785000	1.303895
	2.790000	1.412423
	2.795000	1.353226
	2.800000	1.238121
	2.805000	1.297318
	2.810000	1.412423
	2.815000	1.346649
	2.820000	1.228255
	2.825000	1.290740
	2.830000	1.409134
	2.835000	1.343360
	2.840000	1.224966
	2.845000	1.290740
	2.850000	1.405846
	2.855000	1.340071
	2.860000	1.218388
	2.865000	1.284163
	2.870000	1.409134
	2.875000	1.336782
	2.880000	1.218388
	2.885000	1.287452
	2.890000	1.399268
	2.895000	1.333494
	2.900000	1.215100
	2.905000	1.277585
	2.910000	1.405846
	2.915000	1.330205
	2.920000	1.211811
	2.925000	1.280874
	2.930000	1.402557
	2.935000	1.336782
	2.940000	1.211811
	2.945000	1.280874
	2.950000	1.402557
	2.955000	1.340071
	2.960000	1.224966
	2.965000	1.294029
	2.970000	1.428867
	2.975000	1.376247
	2.980000	1.267719
	2.985000	1.349937
	2.990000	1.484775
	2.995000	1.425578
	3.000000	1.313761
	3.005000	1.389402
	3.010000	1.511085
	3.015000	1.448599
	3.020000	1.333494
	3.025000	1.402557
	3.030000	1.514373
	3.035000	1.461754
	3.040000	1.340071
	3.045000	1.392691
	3.050000	1.494641
	3.055000	1.419000
	3.060000	1.290740
	3.065000	1.346649
	3.070000	1.455176
	3.075000	1.395979
	3.080000	1.277585
	3.085000	1.336782
	3.090000	1.445310
	3.095000	1.389402
	3.100000	1.274297
	3.105000	1.333494
	3.110000	1.445310
	3.115000	1.389402
	3.120000	1.271008
	3.125000	1.333494
	3.130000	1.448599
	3.135000	1.389402
	3.140000	1.267719
	3.145000	1.336782
	3.150000	1.451888
	3.155000	1.392691
	3.160000	1.277585
	3.165000	1.333494
	3.170000	1.451888
	3.175000	1.389402
	3.180000	1.277585
	3.185000	1.340071
	3.190000	1.458465
	3.195000	1.399268
	3.200000	1.280874
	3.205000	1.343360
	3.210000	1.458465
	3.215000	1.399268
	3.220000	1.287452
	3.225000	1.343360
	3.230000	1.465043
	3.235000	1.405846
	3.240000	1.287452
	3.245000	1.346649
	3.250000	1.468331
	3.255000	1.409134
	3.260000	1.287452
	3.265000	1.349937
	3.270000	1.468331
	3.275000	1.409134
	3.280000	1.300606
	3.285000	1.363092
	3.290000	1.481486
	3.295000	1.415712
	3.300000	1.300606
	3.305000	1.363092
	3.310000	1.484775
	3.315000	1.422289
	3.320000	1.310473
	3.325000	1.369670
	3.330000	1.488064
	3.335000	1.422289
	3.340000	1.307184
	3.345000	1.372958
	3.350000	1.488064
	3.355000	1.432155
	3.360000	1.310473
	3.365000	1.379536
	3.370000	1.491352
	3.375000	1.428867
	3.380000	1.313761
	3.385000	1.379536
	3.390000	1.501219
	3.395000	1.432155
	3.400000	1.320339
	3.405000	1.386113
	3.410000	1.497930
	3.415000	1.435444
	3.420000	1.317050
	3.425000	1.372958
	3.430000	1.488064
	3.435000	1.425578
	3.440000	1.303895
	3.445000	1.372958
	3.450000	1.484775
	3.455000	1.415712
	3.460000	1.300606
	3.465000	1.372958
	3.470000	1.484775
	3.475000	1.422289
	3.480000	1.294029
	3.485000	1.369670
	3.490000	1.491352
	3.495000	1.422289
	3.500000	1.307184
	3.505000	1.382825
	3.510000	1.504507
	3.515000	1.448599
	3.520000	1.330205
	3.525000	1.412423
	3.530000	1.537395
	3.535000	1.478198
	3.540000	1.356515
	3.545000	1.428867
	3.550000	1.553838
	3.555000	1.484775
	3.560000	1.363092
	3.565000	1.432155
	3.570000	1.550549
	3.575000	1.481486
	3.580000	1.349937
	3.585000	1.415712
	3.590000	1.530817
	3.595000	1.461754
	3.600000	1.330205
	3.605000	1.399268
	3.610000	1.517662
	3.615000	1.435444
	3.620000	1.307184
	3.625000	1.379536
	3.630000	1.501219
	3.635000	1.425578
	3.640000	1.294029
	3.645000	1.366381
	3.650000	1.488064
	3.655000	1.419000
	3.660000	1.287452
	3.665000	1.359803
	3.670000	1.481486
	3.675000	1.405846
	3.680000	1.287452
	3.685000	1.356515
	3.690000	1.481486
	3.695000	1.409134
	3.700000	1.284163
	3.705000	1.353226
	3.710000	1.478198
	3.715000	1.412423
	3.720000	1.284163
	3.725000	1.356515
	3.730000	1.481486
	3.735000	1.409134
	3.740000	1.284163
	3.745000	1.359803
	3.750000	1.474909
	3.755000	1.409134
	3.760000	1.287452
	3.765000	1.356515
	3.770000	1.478198
	3.775000	1.405846
	3.780000	1.287452
	3.785000	1.359803
	3.790000	1.481486
	3.795000	1.405846
	3.800000	1.290740
	3.805000	1.356515
	3.810000	1.474909
	3.815000	1.409134
	3.820000	1.297318
	3.825000	1.369670
	3.830000	1.484775
	3.835000	1.415712
	3.840000	1.303895
	3.845000	1.369670
	3.850000	1.484775
	3.855000	1.415712
	3.860000	1.297318
	3.865000	1.366381
	3.870000	1.481486
	3.875000	1.412423
	3.880000	1.297318
	3.885000	1.366381
	3.890000	1.484775
	3.895000	1.409134
	3.900000	1.294029
	3.905000	1.363092
	3.910000	1.478198
	3.915000	1.415712
	3.920000	1.287452
	3.925000	1.359803
	3.930000	1.478198
	3.935000	1.405846
	3.940000	1.287452
	3.945000	1.359803
	3.950000	1.474909
	3.955000	1.405846
	3.960000	1.287452
	3.965000	1.359803
	3.970000	1.471620
	3.975000	1.402557
	3.980000	1.287452
	3.985000	1.353226
	3.990000	1.468331
	3.995000	1.402557
	4.000000	1.287452
	4.005000	1.356515
	4.010000	1.474909
	4.015000	1.402557
	4.020000	1.280874
	4.025000	1.353226
	4.030000	1.471620
	4.035000	1.405846
	4.040000	1.284163
	4.045000	1.353226
	4.050000	1.471620
	4.055000	1.402557
	4.060000	1.284163
	4.065000	1.356515
	4.070000	1.468331
	4.075000	1.399268
	4.080000	1.280874
	4.085000	1.353226
	4.090000	1.471620
	4.095000	1.402557
	4.100000	1.287452
	4.105000	1.353226
	4.110000	1.468331
	4.115000	1.395979
	4.120000	1.280874
	4.125000	1.349937
	4.130000	1.468331
	4.135000	1.395979
	4.140000	1.277585
	4.145000	1.346649
	4.150000	1.461754
	4.155000	1.392691
	4.160000	1.274297
	4.165000	1.343360
	4.170000	1.458465
	4.175000	1.386113
	4.180000	1.267719
	4.185000	1.336782
	4.190000	1.458465
	4.195000	1.386113
	4.200000	1.264431
	4.205000	1.336782
	4.210000	1.451888
	4.215000	1.386113
	4.220000	1.267719
	4.225000	1.333494
	4.230000	1.455176
	4.235000	1.379536
	4.240000	1.267719
	4.245000	1.336782
	4.250000	1.451888
	4.255000	1.379536
	4.260000	1.261142
	4.265000	1.333494
	4.270000	1.451888
	4.275000	1.379536
	4.280000	1.261142
	4.285000	1.336782
	4.290000	1.448599
	4.295000	1.382825
	4.300000	1.261142
	4.305000	1.333494
	4.310000	1.448599
	4.315000	1.379536
	4.320000	1.264431
	4.325000	1.330205
	4.330000	1.448599
	4.335000	1.379536
	4.340000	1.257853
	4.345000	1.333494
	4.350000	1.451888
	4.355000	1.376247
	4.360000	1.261142
	4.365000	1.333494
	4.370000	1.448599
	4.375000	1.379536
	4.380000	1.261142
	4.385000	1.330205
	4.390000	1.445310
	4.395000	1.372958
	4.400000	1.261142
	4.405000	1.326916
	4.410000	1.445310
	4.415000	1.376247
	4.420000	1.261142
	4.425000	1.326916
	4.430000	1.445310
	4.435000	1.376247
	4.440000	1.261142
	4.445000	1.330205
	4.450000	1.448599
	4.455000	1.376247
	4.460000	1.257853
	4.465000	1.326916
	4.470000	1.455176
	4.475000	1.382825
	4.480000	1.264431
	4.485000	1.330205
	4.490000	1.448599
	4.495000	1.376247
	4.500000	1.264431
	4.505000	1.333494
	4.510000	1.451888
	4.515000	1.379536
	4.520000	1.261142
	4.525000	1.336782
	4.530000	1.448599
	4.535000	1.372958
	4.540000	1.264431
	4.545000	1.340071
	4.550000	1.451888
	4.555000	1.382825
	4.560000	1.267719
	4.565000	1.336782
	4.570000	1.451888
	4.575000	1.379536
	4.580000	1.264431
	4.585000	1.340071
	4.590000	1.445310
	4.595000	1.379536
	4.600000	1.267719
	4.605000	1.333494
	4.610000	1.445310
	4.615000	1.379536
	4.620000	1.264431
	4.625000	1.333494
	4.630000	1.448599
	4.635000	1.379536
	4.640000	1.267719
	4.645000	1.333494
	4.650000	1.448599
	4.655000	1.379536
	4.660000	1.264431
	4.665000	1.333494
	4.670000	1.448599
	4.675000	1.379536
	4.680000	1.267719
	4.685000	1.340071
	4.690000	1.448599
	4.695000	1.382825
	4.700000	1.271008
	4.705000	1.336782
	4.710000	1.448599
	4.715000	1.379536
	4.720000	1.264431
	4.725000	1.333494
	4.730000	1.451888
	4.735000	1.379536
	4.740000	1.274297
	4.745000	1.333494
	4.750000	1.451888
	4.755000	1.382825
	4.760000	1.267719
	4.765000	1.340071
	4.770000	1.451888
	4.775000	1.386113
	4.780000	1.271008
	4.785000	1.343360
	4.790000	1.451888
	4.795000	1.382825
	4.800000	1.274297
	4.805000	1.343360
	4.810000	1.455176
	4.815000	1.389402
	4.820000	1.271008
	4.825000	1.346649
	4.830000	1.458465
	4.835000	1.386113
	4.840000	1.280874
	4.845000	1.346649
	4.850000	1.465043
	4.855000	1.392691
	4.860000	1.287452
	4.865000	1.353226
	4.870000	1.468331
	4.875000	1.402557
	4.880000	1.287452
	4.885000	1.359803
	4.890000	1.468331
	4.895000	1.399268
	4.900000	1.287452
	4.905000	1.356515
	4.910000	1.465043
	4.915000	1.399268
	4.920000	1.294029
	4.925000	1.356515
	4.930000	1.468331
	4.935000	1.405846
	4.940000	1.294029
	4.945000	1.353226
	4.950000	1.465043
	4.955000	1.399268
	4.960000	1.294029
	4.965000	1.353226
	4.970000	1.465043
	4.975000	1.399268
	4.980000	1.294029
	4.985000	1.356515
	4.990000	1.465043
	4.995000	1.399268
	5.000000	1.294029
	5.005000	1.353226
	5.010000	1.468331
	5.015000	1.405846
	5.020000	1.294029
	5.025000	1.353226
	5.030000	1.465043
	5.035000	1.402557
	5.040000	1.297318
	5.045000	1.359803
	5.050000	1.465043
	5.055000	1.402557
	5.060000	1.294029
	5.065000	1.356515
	5.070000	1.471620
	5.075000	1.402557
	5.080000	1.297318
	5.085000	1.359803
	5.090000	1.468331
	5.095000	1.402557
	5.100000	1.294029
	5.105000	1.359803
	5.110000	1.468331
	5.115000	1.399268
	5.120000	1.297318
	5.125000	1.353226
	5.130000	1.468331
	5.135000	1.399268
	5.140000	1.280874
	5.145000	1.349937
	5.150000	1.458465
	5.155000	1.386113
	5.160000	1.267719
	5.165000	1.340071
	5.170000	1.445310
	5.175000	1.379536
	5.180000	1.261142
	5.185000	1.330205
	5.190000	1.445310
	5.195000	1.376247
	5.200000	1.261142
	5.205000	1.323628
	5.210000	1.445310
	5.215000	1.366381
	5.220000	1.251276
	5.225000	1.313761
	5.230000	1.435444
	5.235000	1.366381
	5.240000	1.254564
	5.245000	1.323628
	5.250000	1.458465
	5.255000	1.405846
	5.260000	1.303895
	5.265000	1.386113
	5.270000	1.514373
	5.275000	1.455176
	5.280000	1.346649
	5.285000	1.415712
	5.290000	1.530817
	5.295000	1.465043
	5.300000	1.346649
	5.305000	1.402557
	5.310000	1.511085
	5.315000	1.438733
	5.320000	1.310473
	5.325000	1.369670
	5.330000	1.484775
	5.335000	1.412423
	5.340000	1.290740
	5.345000	1.359803
	5.350000	1.474909
	5.355000	1.405846
	5.360000	1.284163
	5.365000	1.353226
	5.370000	1.458465
	5.375000	1.389402
	5.380000	1.274297
	5.385000	1.340071
	5.390000	1.455176
	5.395000	1.389402
	5.400000	1.267719
	5.405000	1.336782
	5.410000	1.448599
	5.415000	1.379536
	5.420000	1.261142
	5.425000	1.326916
	5.430000	1.442022
	5.435000	1.369670
	5.440000	1.257853
	5.445000	1.320339
	5.450000	1.438733
	5.455000	1.372958
	5.460000	1.254564
	5.465000	1.326916
	5.470000	1.442022
	5.475000	1.376247
	5.480000	1.261142
	5.485000	1.333494
	5.490000	1.448599
	5.495000	1.389402
	5.500000	1.267719
	5.505000	1.336782
	5.510000	1.458465
	5.515000	1.386113
	5.520000	1.274297
	5.525000	1.343360
	5.530000	1.458465
	5.535000	1.395979
	5.540000	1.274297
	5.545000	1.340071
	5.550000	1.465043
	5.555000	1.395979
	5.560000	1.277585
	5.565000	1.346649
	5.570000	1.465043
	5.575000	1.395979
	5.580000	1.277585
	5.585000	1.353226
	5.590000	1.471620
	5.595000	1.402557
	5.600000	1.284163
	5.605000	1.353226
	5.610000	1.468331
	5.615000	1.409134
	5.620000	1.287452
	5.625000	1.353226
	5.630000	1.474909
	5.635000	1.405846
	5.640000	1.294029
	5.645000	1.359803
	5.650000	1.481486
	5.655000	1.415712
	5.660000	1.294029
	5.665000	1.366381
	5.670000	1.478198
	5.675000	1.412423
	5.680000	1.297318
	5.685000	1.366381
	5.690000	1.484775
	5.695000	1.415712
	5.700000	1.303895
	5.705000	1.366381
	5.710000	1.481486
	5.715000	1.419000
	5.720000	1.300606
	5.725000	1.369670
	5.730000	1.488064
	5.735000	1.419000
	5.740000	1.307184
	5.745000	1.376247
	5.750000	1.491352
	5.755000	1.428867
	5.760000	1.317050
	5.765000	1.382825
	5.770000	1.501219
	5.775000	1.435444
	5.780000	1.330205
	5.785000	1.409134
	5.790000	1.527528
	5.795000	1.461754
	5.800000	1.346649
	5.805000	1.419000
	5.810000	1.540683
	5.815000	1.474909
	5.820000	1.356515
	5.825000	1.425578
	5.830000	1.537395
	5.835000	1.458465
	5.840000	1.333494
	5.845000	1.399268
	5.850000	1.511085
	5.855000	1.435444
	5.860000	1.310473
	5.865000	1.366381
	5.870000	1.481486
	5.875000	1.399268
	5.880000	1.271008
	5.885000	1.336782
	5.890000	1.455176
	5.895000	1.382825
	5.900000	1.257853
	5.905000	1.320339
	5.910000	1.432155
	5.915000	1.366381
	5.920000	1.251276
	5.925000	1.317050
	5.930000	1.432155
	5.935000	1.366381
	5.940000	1.251276
	5.945000	1.320339
	5.950000	1.438733
	5.955000	1.372958
	5.960000	1.261142
	5.965000	1.326916
	5.970000	1.445310
	5.975000	1.379536
	5.980000	1.264431
	5.985000	1.333494
	5.990000	1.442022
	5.995000	1.379536
	6.000000	1.264431
	6.005000	1.333494
	6.010000	1.448599
	6.015000	1.382825
	6.020000	1.274297
	6.025000	1.333494
	6.030000	1.445310
	6.035000	1.386113
	6.040000	1.274297
	6.045000	1.340071
	6.050000	1.448599
	6.055000	1.386113
	6.060000	1.277585
	6.065000	1.336782
	6.070000	1.451888
	6.075000	1.389402
	6.080000	1.271008
	6.085000	1.336782
	6.090000	1.448599
	6.095000	1.389402
	6.100000	1.274297
	6.105000	1.340071
	6.110000	1.451888
	6.115000	1.392691
	6.120000	1.271008
	6.125000	1.340071
	6.130000	1.451888
	6.135000	1.386113
	6.140000	1.277585
	6.145000	1.336782
	6.150000	1.455176
	6.155000	1.389402
	6.160000	1.274297
	6.165000	1.336782
	6.170000	1.455176
	6.175000	1.386113
	6.180000	1.274297
	6.185000	1.336782
	6.190000	1.448599
	6.195000	1.382825
	6.200000	1.267719
	6.205000	1.336782
	6.210000	1.448599
	6.215000	1.386113
	6.220000	1.271008
	6.225000	1.336782
	6.230000	1.451888
	6.235000	1.379536
	6.240000	1.274297
	6.245000	1.336782
	6.250000	1.448599
	6.255000	1.386113
	6.260000	1.280874
	6.265000	1.336782
	6.270000	1.445310
	6.275000	1.386113
	6.280000	1.277585
	6.285000	1.340071
	6.290000	1.455176
	6.295000	1.386113
	6.300000	1.274297
	6.305000	1.336782
	6.310000	1.451888
	6.315000	1.386113
	6.320000	1.274297
	6.325000	1.340071
	6.330000	1.451888
	6.335000	1.389402
	6.340000	1.271008
	6.345000	1.340071
	6.350000	1.458465
	6.355000	1.386113
	6.360000	1.274297
	6.365000	1.340071
	6.370000	1.451888
	6.375000	1.382825
	6.380000	1.274297
	6.385000	1.340071
	6.390000	1.448599
	6.395000	1.382825
	6.400000	1.274297
	6.405000	1.333494
	6.410000	1.445310
	6.415000	1.379536
	6.420000	1.267719
	6.425000	1.330205
	6.430000	1.445310
	6.435000	1.379536
	6.440000	1.261142
	6.445000	1.330205
	6.450000	1.442022
	6.455000	1.372958
	6.460000	1.261142
	6.465000	1.320339
	6.470000	1.435444
	6.475000	1.369670
	6.480000	1.254564
	6.485000	1.320339
	6.490000	1.432155
	6.495000	1.369670
	6.500000	1.247987
	6.505000	1.317050
	6.510000	1.435444
	6.515000	1.366381
	6.520000	1.247987
	6.525000	1.310473
	6.530000	1.422289
	6.535000	1.363092
	6.540000	1.247987
	6.545000	1.310473
	6.550000	1.422289
	6.555000	1.356515
	6.560000	1.241409
	6.565000	1.307184
	6.570000	1.412423
	6.575000	1.356515
	6.580000	1.231543
	6.585000	1.297318
	6.590000	1.415712
	6.595000	1.346649
	6.600000	1.234832
	6.605000	1.297318
	6.610000	1.405846
	6.615000	1.349937
	6.620000	1.234832
	6.625000	1.290740
	6.630000	1.405846
	6.635000	1.340071
	6.640000	1.224966
	6.645000	1.290740
	6.650000	1.399268
	6.655000	1.340071
	6.660000	1.224966
	6.665000	1.290740
	6.670000	1.402557
	6.675000	1.336782
	6.680000	1.221677
	6.685000	1.287452
	6.690000	1.395979
	6.695000	1.333494
	6.700000	1.215100
	6.705000	1.280874
	6.710000	1.399268
	6.715000	1.326916
	6.720000	1.218388
	6.725000	1.277585
	6.730000	1.389402
	6.735000	1.326916
	6.740000	1.218388
	6.745000	1.277585
	6.750000	1.392691
	6.755000	1.330205
	6.760000	1.211811
	6.765000	1.274297
	6.770000	1.389402
	6.775000	1.326916
	6.780000	1.208522
	6.785000	1.271008
	6.790000	1.389402
	6.795000	1.326916
	6.800000	1.211811
	6.805000	1.277585
	6.810000	1.386113
	6.815000	1.320339
	6.820000	1.211811
	6.825000	1.267719
	6.830000	1.386113
	6.835000	1.323628
	6.840000	1.211811
	6.845000	1.274297
	6.850000	1.386113
	6.855000	1.320339
	6.860000	1.208522
	6.865000	1.271008
	6.870000	1.382825
	6.875000	1.317050
	6.880000	1.208522
	6.885000	1.264431
	6.890000	1.379536
	6.895000	1.313761
	6.900000	1.201945
	6.905000	1.261142
	6.910000	1.376247
	6.915000	1.317050
	6.920000	1.201945
	6.925000	1.264431
	6.930000	1.379536
	6.935000	1.310473
	6.940000	1.201945
	6.945000	1.261142
	6.950000	1.379536
	6.955000	1.313761
	6.960000	1.198656
	6.965000	1.264431
	6.970000	1.372958
	6.975000	1.313761
	6.980000	1.205234
	6.985000	1.264431
	6.990000	1.369670
	6.995000	1.313761
	7.000000	1.198656
	7.005000	1.264431
	7.010000	1.372958
	7.015000	1.310473
	7.020000	1.195367
	7.025000	1.257853
	7.030000	1.372958
	7.035000	1.310473
	7.040000	1.198656
	7.045000	1.257853
	7.050000	1.366381
	7.055000	1.310473
	7.060000	1.195367
	7.065000	1.257853
	7.070000	1.366381
	7.075000	1.307184
	7.080000	1.195367
	7.085000	1.257853
	7.090000	1.363092
	7.095000	1.303895
	7.100000	1.192079
	7.105000	1.257853
	7.110000	1.366381
	7.115000	1.303895
	7.120000	1.195367
	7.125000	1.251276
	7.130000	1.363092
	7.135000	1.300606
	7.140000	1.195367
	7.145000	1.251276
	7.150000	1.363092
	7.155000	1.300606
	7.160000	1.188790
	7.165000	1.244698
	7.170000	1.356515
	7.175000	1.297318
	7.180000	1.192079
	7.185000	1.244698
	7.190000	1.359803
	7.195000	1.297318
	7.200000	1.188790
	7.205000	1.241409
	7.210000	1.349937
	7.215000	1.294029
	7.220000	1.182212
	7.225000	1.244698
	7.230000	1.346649
	7.235000	1.290740
	7.240000	1.182212
	7.245000	1.241409
	7.250000	1.349937
	7.255000	1.287452
	7.260000	1.175635
	7.265000	1.231543
	7.270000	1.340071
	7.275000	1.277585
	7.280000	1.169058
	7.285000	1.238121
	7.290000	1.336782
	7.295000	1.277585
	7.300000	1.165769
	7.305000	1.221677
	7.310000	1.330205
	7.315000	1.274297
	7.320000	1.155903
	7.325000	1.221677
	7.330000	1.330205
	7.335000	1.264431
	7.340000	1.152614
	7.345000	1.208522
	7.350000	1.320339
	7.355000	1.261142
	7.360000	1.146037
	7.365000	1.205234
	7.370000	1.320339
	7.375000	1.257853
	7.380000	1.142748
	7.385000	1.208522
	7.390000	1.320339
	7.395000	1.254564
	7.400000	1.139459
	7.405000	1.198656
	7.410000	1.310473
	7.415000	1.244698
	7.420000	1.132882
	7.425000	1.192079
	7.430000	1.307184
	7.435000	1.254564
	7.440000	1.149325
	7.445000	1.224966
	7.450000	1.359803
	7.455000	1.320339
	7.460000	1.228255
	7.465000	1.307184
	7.470000	1.428867
	7.475000	1.376247
	7.480000	1.271008
	7.485000	1.330205
	7.490000	1.448599
	7.495000	1.376247
	7.500000	1.257853
	7.505000	1.313761
	7.510000	1.419000
	7.515000	1.356515
	7.520000	1.231543
	7.525000	1.287452
	7.530000	1.402557
	7.535000	1.333494
	7.540000	1.205234
	7.545000	1.264431
	7.550000	1.369670
	7.555000	1.300606
	7.560000	1.178924
	7.565000	1.231543
	7.570000	1.349937
	7.575000	1.290740
	7.580000	1.175635
	7.585000	1.234832
	7.590000	1.353226
	7.595000	1.287452
	7.600000	1.169058
	7.605000	1.234832
	7.610000	1.349937
	7.615000	1.294029
	7.620000	1.172346
	7.625000	1.234832
	7.630000	1.356515
	7.635000	1.290740
	7.640000	1.169058
	7.645000	1.234832
	7.650000	1.353226
	7.655000	1.294029
	7.660000	1.175635
	7.665000	1.231543
	7.670000	1.346649
	7.675000	1.294029
	7.680000	1.172346
	7.685000	1.234832
	7.690000	1.353226
	7.695000	1.297318
	7.700000	1.175635
	7.705000	1.241409
	7.710000	1.356515
	7.715000	1.300606
	7.720000	1.185501
	7.725000	1.244698
	7.730000	1.366381
	7.735000	1.303895
	7.740000	1.185501
	7.745000	1.251276
	7.750000	1.369670
	7.755000	1.310473
	7.760000	1.195367
	7.765000	1.257853
	7.770000	1.376247
	7.775000	1.313761
	7.780000	1.205234
	7.785000	1.264431
	7.790000	1.382825
	7.795000	1.326916
	7.800000	1.211811
	7.805000	1.271008
	7.810000	1.389402
	7.815000	1.330205
	7.820000	1.221677
	7.825000	1.280874
	7.830000	1.402557
	7.835000	1.340071
	7.840000	1.224966
	7.845000	1.287452
	7.850000	1.399268
	7.855000	1.340071
	7.860000	1.234832
	7.865000	1.294029
	7.870000	1.409134
	7.875000	1.349937
	7.880000	1.234832
	7.885000	1.294029
	7.890000	1.415712
	7.895000	1.353226
	7.900000	1.241409
	7.905000	1.297318
	7.910000	1.415712
	7.915000	1.363092
	7.920000	1.247987
	7.925000	1.310473
	7.930000	1.425578
	7.935000	1.366381
	7.940000	1.254564
	7.945000	1.313761
	7.950000	1.428867
	7.955000	1.376247
	7.960000	1.261142
	7.965000	1.323628
	7.970000	1.438733
	7.975000	1.376247
	7.980000	1.257853
	7.985000	1.317050
	7.990000	1.425578
	7.995000	1.369670
	8.000000	1.244698
	8.005000	1.297318
	8.010000	1.409134
	8.015000	1.349937
	8.020000	1.234832
	8.025000	1.290740
	8.030000	1.409134
	8.035000	1.343360
	8.040000	1.215100
	8.045000	1.274297
	8.050000	1.382825
	8.055000	1.317050
	8.060000	1.195367
	8.065000	1.247987
	8.070000	1.353226
	8.075000	1.294029
	8.080000	1.169058
	8.085000	1.224966
	8.090000	1.333494
	8.095000	1.274297
	8.100000	1.162480
	8.105000	1.215100
	8.110000	1.326916
	8.115000	1.274297
	8.120000	1.165769
	8.125000	1.218388
	8.130000	1.333494
	8.135000	1.274297
	8.140000	1.169058
	8.145000	1.221677
	8.150000	1.333494
	8.155000	1.274297
	8.160000	1.169058
	8.165000	1.224966
	8.170000	1.333494
	8.175000	1.277585
	8.180000	1.169058
	8.185000	1.224966
	8.190000	1.343360
	8.195000	1.280874
	8.200000	1.172346
	8.205000	1.224966
	8.210000	1.340071
	8.215000	1.284163
	8.220000	1.178924
	8.225000	1.234832
	8.230000	1.343360
	8.235000	1.287452
	8.240000	1.178924
	8.245000	1.234832
	8.250000	1.349937
	8.255000	1.290740
	8.260000	1.182212
	8.265000	1.238121
	8.270000	1.349937
	8.275000	1.297318
	8.280000	1.188790
	8.285000	1.241409
	8.290000	1.349937
	8.295000	1.300606
	8.300000	1.188790
	8.305000	1.251276
	8.310000	1.356515
	8.315000	1.303895
	8.320000	1.195367
	8.325000	1.254564
	8.330000	1.363092
	8.335000	1.310473
	8.340000	1.195367
	8.345000	1.251276
	8.350000	1.366381
	8.355000	1.310473
	8.360000	1.198656
	8.365000	1.261142
	8.370000	1.372958
	8.375000	1.313761
	8.380000	1.205234
	8.385000	1.257853
	8.390000	1.372958
	8.395000	1.320339
	8.400000	1.208522
	8.405000	1.267719
	8.410000	1.376247
	8.415000	1.317050
	8.420000	1.211811
	8.425000	1.271008
	8.430000	1.379536
	8.435000	1.326916
	8.440000	1.215100
	8.445000	1.274297
	8.450000	1.382825
	8.455000	1.330205
	8.460000	1.211811
	8.465000	1.271008
	8.470000	1.386113
	8.475000	1.326916
	8.480000	1.221677
	8.485000	1.277585
	8.490000	1.386113
	8.495000	1.333494
	8.500000	1.218388
	8.505000	1.277585
	8.510000	1.389402
	8.515000	1.330205
	8.520000	1.221677
	8.525000	1.277585
	8.530000	1.386113
	8.535000	1.330205
	8.540000	1.215100
	8.545000	1.271008
	8.550000	1.382825
	8.555000	1.330205
	8.560000	1.215100
	8.565000	1.267719
	8.570000	1.382825
	8.575000	1.323628
	8.580000	1.211811
	8.585000	1.264431
	8.590000	1.376247
	8.595000	1.317050
	8.600000	1.208522
	8.605000	1.257853
	8.610000	1.372958
	8.615000	1.313761
	8.620000	1.205234
	8.625000	1.257853
	8.630000	1.376247
	8.635000	1.317050
	8.640000	1.201945
	8.645000	1.257853
	8.650000	1.363092
	8.655000	1.313761
	8.660000	1.198656
	8.665000	1.254564
	8.670000	1.366381
	8.675000	1.307184
	8.680000	1.198656
	8.685000	1.254564
	8.690000	1.356515
	8.695000	1.307184
	8.700000	1.198656
	8.705000	1.247987
	8.710000	1.356515
	8.715000	1.307184
	8.720000	1.188790
	8.725000	1.244698
	8.730000	1.349937
	8.735000	1.300606
	8.740000	1.195367
	8.745000	1.247987
	8.750000	1.356515
	8.755000	1.303895
	8.760000	1.192079
	8.765000	1.241409
	8.770000	1.356515
	8.775000	1.300606
	8.780000	1.192079
	8.785000	1.241409
	8.790000	1.353226
	8.795000	1.300606
	8.800000	1.192079
	8.805000	1.241409
	8.810000	1.353226
	8.815000	1.300606
	8.820000	1.195367
	8.825000	1.247987
	8.830000	1.356515
	8.835000	1.303895
	8.840000	1.188790
	8.845000	1.244698
	8.850000	1.356515
	8.855000	1.303895
	8.860000	1.195367
	8.865000	1.244698
	8.870000	1.356515
	8.875000	1.303895
	8.880000	1.192079
	8.885000	1.241409
	8.890000	1.356515
	8.895000	1.300606
	8.900000	1.188790
	8.905000	1.238121
	8.910000	1.353226
	8.915000	1.297318
	8.920000	1.192079
	8.925000	1.241409
	8.930000	1.349937
	8.935000	1.303895
	8.940000	1.188790
	8.945000	1.244698
	8.950000	1.353226
	8.955000	1.300606
	8.960000	1.188790
	8.965000	1.241409
	8.970000	1.349937
	8.975000	1.297318
	8.980000	1.192079
	8.985000	1.241409
	8.990000	1.353226
	8.995000	1.300606
	9.000000	1.192079
	9.005000	1.238121
	9.010000	1.349937
	9.015000	1.300606
	9.020000	1.188790
	9.025000	1.244698
	9.030000	1.353226
	9.035000	1.300606
	9.040000	1.185501
	9.045000	1.241409
	9.050000	1.346649
	9.055000	1.297318
	9.060000	1.188790
	9.065000	1.238121
	9.070000	1.349937
	9.075000	1.300606
	9.080000	1.192079
	9.085000	1.241409
	9.090000	1.349937
	9.095000	1.297318
	9.100000	1.192079
	9.105000	1.238121
	9.110000	1.353226
	9.115000	1.300606
	9.120000	1.188790
	9.125000	1.241409
	9.130000	1.349937
	9.135000	1.300606
	9.140000	1.185501
	9.145000	1.241409
	9.150000	1.349937
	9.155000	1.300606
	9.160000	1.188790
	9.165000	1.241409
	9.170000	1.349937
	9.175000	1.300606
	9.180000	1.188790
	9.185000	1.241409
	9.190000	1.353226
	9.195000	1.297318
	9.200000	1.192079
	9.205000	1.247987
	9.210000	1.349937
	9.215000	1.300606
	9.220000	1.195367
	9.225000	1.244698
	9.230000	1.349937
	9.235000	1.300606
	9.240000	1.188790
	9.245000	1.241409
	9.250000	1.353226
	9.255000	1.300606
	9.260000	1.192079
	9.265000	1.241409
	9.270000	1.353226
	9.275000	1.297318
	9.280000	1.195367
	9.285000	1.241409
	9.290000	1.349937
	9.295000	1.300606
	9.300000	1.192079
	9.305000	1.241409
	9.310000	1.346649
	9.315000	1.300606
	9.320000	1.185501
	9.325000	1.234832
	9.330000	1.346649
	9.335000	1.294029
	9.340000	1.185501
	9.345000	1.231543
	9.350000	1.340071
	9.355000	1.287452
	9.360000	1.182212
	9.365000	1.228255
	9.370000	1.333494
	9.375000	1.287452
	9.380000	1.178924
	9.385000	1.221677
	9.390000	1.336782
	9.395000	1.280874
	9.400000	1.165769
	9.405000	1.215100
	9.410000	1.326916
	9.415000	1.280874
	9.420000	1.159191
	9.425000	1.215100
	9.430000	1.320339
	9.435000	1.274297
	9.440000	1.159191
	9.445000	1.205234
	9.450000	1.317050
	9.455000	1.267719
	9.460000	1.155903
	9.465000	1.205234
	9.470000	1.313761
	9.475000	1.261142
	9.480000	1.149325
	9.485000	1.195367
	9.490000	1.310473
	9.495000	1.257853
	9.500000	1.136170
	9.505000	1.192079
	9.510000	1.307184
	9.515000	1.247987
	9.520000	1.139459
	9.525000	1.188790
	9.530000	1.297318
	9.535000	1.247987
	9.540000	1.126304
	9.545000	1.178924
	9.550000	1.294029
	9.555000	1.238121
	9.560000	1.126304
	9.565000	1.178924
	9.570000	1.290740
	9.575000	1.244698
	9.580000	1.136170
	9.585000	1.192079
	9.590000	1.326916
	9.595000	1.280874
	9.600000	1.185501
	9.605000	1.251276
	9.610000	1.379536
	9.615000	1.353226
	9.620000	1.244698
	9.625000	1.303895
	9.630000	1.425578
	9.635000	1.379536
	9.640000	1.254564
	9.645000	1.300606
	9.650000	1.415712
	9.655000	1.363092
	9.660000	1.244698
	9.665000	1.290740
	9.670000	1.405846
	9.675000	1.346649
	9.680000	1.228255
	9.685000	1.267719
	9.690000	1.379536
	9.695000	1.323628
	9.700000	1.201945
	9.705000	1.251276
	9.710000	1.369670
	9.715000	1.323628
	9.720000	1.201945
	9.725000	1.247987
	9.730000	1.363092
	9.735000	1.317050
	9.740000	1.195367
	9.745000	1.251276
	9.750000	1.363092
	9.755000	1.317050
	9.760000	1.198656
	9.765000	1.244698
	9.770000	1.366381
	9.775000	1.317050
	9.780000	1.198656
	9.785000	1.241409
	9.790000	1.369670
	9.795000	1.317050
	9.800000	1.198656
	9.805000	1.247987
	9.810000	1.363092
	9.815000	1.317050
	9.820000	1.198656
	9.825000	1.238121
	9.830000	1.366381
	9.835000	1.317050
	9.840000	1.201945
	9.845000	1.241409
	9.850000	1.366381
	9.855000	1.313761
	9.860000	1.198656
	9.865000	1.247987
	9.870000	1.366381
	9.875000	1.313761
	9.880000	1.198656
	9.885000	1.241409
	9.890000	1.366381
	9.895000	1.326916
	9.900000	1.198656
	9.905000	1.244698
	9.910000	1.369670
	9.915000	1.320339
	9.920000	1.201945
	9.925000	1.244698
	9.930000	1.369670
	9.935000	1.317050
	9.940000	1.198656
	9.945000	1.244698
	9.950000	1.369670
	9.955000	1.323628
	9.960000	1.205234
	9.965000	1.251276
	9.970000	1.366381
	9.975000	1.326916
	9.980000	1.201945
	9.985000	1.251276
	9.990000	1.369670
	9.995000	1.323628
	10.000000	1.201945
	10.005000	1.247987
	10.010000	1.372958
	10.015000	1.320339
	10.020000	1.201945
	10.025000	1.251276
	10.030000	1.366381
	10.035000	1.320339
	10.040000	1.201945
	10.045000	1.247987
	10.050000	1.363092
	10.055000	1.320339
	10.060000	1.195367
	10.065000	1.247987
	10.070000	1.366381
	10.075000	1.320339
	10.080000	1.201945
	10.085000	1.247987
	10.090000	1.372958
	10.095000	1.326916
	10.100000	1.211811
	10.105000	1.257853
	10.110000	1.372958
	10.115000	1.333494
	10.120000	1.224966
	10.125000	1.274297
	10.130000	1.392691
	10.135000	1.349937
	10.140000	1.241409
	10.145000	1.290740
	10.150000	1.405846
	10.155000	1.356515
	10.160000	1.241409
	10.165000	1.284163
	10.170000	1.399268
	10.175000	1.346649
	10.180000	1.228255
	10.185000	1.267719
	10.190000	1.389402
	10.195000	1.356515
	10.200000	1.238121
	10.205000	1.284163
	10.210000	1.399268
	10.215000	1.343360
	10.220000	1.221677
	10.225000	1.261142
	10.230000	1.366381
	10.235000	1.320339
	10.240000	1.192079
	10.245000	1.231543
	10.250000	1.340071
	10.255000	1.290740
	10.260000	1.169058
	10.265000	1.208522
	10.270000	1.320339
	10.275000	1.267719
	10.280000	1.152614
	10.285000	1.192079
	10.290000	1.303895
	10.295000	1.261142
	10.300000	1.149325
	10.305000	1.188790
	10.310000	1.300606
	10.315000	1.261142
	10.320000	1.152614
	10.325000	1.192079
	10.330000	1.307184
	10.335000	1.267719
	10.340000	1.159191
	10.345000	1.201945
	10.350000	1.310473
	10.355000	1.274297
	10.360000	1.169058
	10.365000	1.208522
	10.370000	1.317050
	10.375000	1.274297
	10.380000	1.169058
	10.385000	1.205234
	10.390000	1.313761
	10.395000	1.274297
	10.400000	1.169058
	10.405000	1.211811
	10.410000	1.313761
	10.415000	1.280874
	10.420000	1.178924
	10.425000	1.221677
	10.430000	1.323628
	10.435000	1.294029
	10.440000	1.188790
	10.445000	1.241409
	10.450000	1.346649
	10.455000	1.317050
	10.460000	1.211811
	10.465000	1.264431
	10.470000	1.363092
	10.475000	1.330205
	10.480000	1.231543
	10.485000	1.274297
	10.490000	1.382825
	10.495000	1.343360
	10.500000	1.251276
	10.505000	1.290740
	10.510000	1.395979
	10.515000	1.359803
	10.520000	1.254564
	10.525000	1.297318
	10.530000	1.402557
	10.535000	1.369670
	10.540000	1.261142
	10.545000	1.303895
	10.550000	1.412423
	10.555000	1.372958
	10.560000	1.271008
	10.565000	1.313761
	10.570000	1.412423
	10.575000	1.379536
	10.580000	1.277585
	10.585000	1.317050
	10.590000	1.422289
	10.595000	1.389402
	10.600000	1.287452
	10.605000	1.330205
	10.610000	1.432155
	10.615000	1.399268
	10.620000	1.294029
	10.625000	1.333494
	10.630000	1.435444
	10.635000	1.409134
	10.640000	1.297318
	10.645000	1.333494
	10.650000	1.438733
	10.655000	1.402557
	10.660000	1.297318
	10.665000	1.336782
	10.670000	1.442022
	10.675000	1.402557
	10.680000	1.300606
	10.685000	1.336782
	10.690000	1.438733
	10.695000	1.402557
	10.700000	1.297318
	10.705000	1.330205
	10.710000	1.435444
	10.715000	1.399268
	10.720000	1.290740
	10.725000	1.326916
	10.730000	1.435444
	10.735000	1.399268
	10.740000	1.287452
	10.745000	1.323628
	10.750000	1.435444
	10.755000	1.392691
	10.760000	1.287452
	10.765000	1.323628
	10.770000	1.425578
	10.775000	1.386113
	10.780000	1.277585
	10.785000	1.320339
	10.790000	1.422289
	10.795000	1.382825
	10.800000	1.277585
	10.805000	1.313761
	10.810000	1.415712
	10.815000	1.382825
	10.820000	1.271008
	10.825000	1.307184
	10.830000	1.412423
	10.835000	1.376247
	10.840000	1.264431
	10.845000	1.303895
	10.850000	1.409134
	10.855000	1.372958
	10.860000	1.264431
	10.865000	1.297318
	10.870000	1.405846
	10.875000	1.372958
	10.880000	1.261142
	10.885000	1.290740
	10.890000	1.395979
	10.895000	1.363092
	10.900000	1.254564
	10.905000	1.290740
	10.910000	1.392691
	10.915000	1.356515
	10.920000	1.251276
	10.925000	1.287452
	10.930000	1.392691
	10.935000	1.356515
	10.940000	1.251276
	10.945000	1.287452
	10.950000	1.386113
	10.955000	1.349937
	10.960000	1.251276
	10.965000	1.280874
	10.970000	1.389402
	10.975000	1.346649
	10.980000	1.247987
	10.985000	1.274297
	10.990000	1.386113
	10.995000	1.353226
	11.000000	1.244698
	11.005000	1.277585
	11.010000	1.382825
	11.015000	1.346649
	11.020000	1.244698
	11.025000	1.277585
	11.030000	1.379536
	11.035000	1.346649
	11.040000	1.238121
	11.045000	1.274297
	11.050000	1.382825
	11.055000	1.346649
	11.060000	1.238121
	11.065000	1.274297
	11.070000	1.379536
	11.075000	1.343360
	11.080000	1.238121
	11.085000	1.271008
	11.090000	1.382825
	11.095000	1.346649
	11.100000	1.241409
	11.105000	1.277585
	11.110000	1.379536
	11.115000	1.346649
	11.120000	1.244698
	11.125000	1.267719
	11.130000	1.376247
	11.135000	1.343360
	11.140000	1.241409
	11.145000	1.267719
	11.150000	1.379536
	11.155000	1.349937
	11.160000	1.234832
	11.165000	1.264431
	11.170000	1.376247
	11.175000	1.343360
	11.180000	1.234832
	11.185000	1.271008
	11.190000	1.376247
	11.195000	1.343360
	11.200000	1.234832
	11.205000	1.264431
	11.210000	1.372958
	11.215000	1.346649
	11.220000	1.234832
	11.225000	1.264431
	11.230000	1.372958
	11.235000	1.340071
	11.240000	1.228255
	11.245000	1.264431
	11.250000	1.376247
	11.255000	1.343360
	11.260000	1.228255
	11.265000	1.261142
	11.270000	1.366381
	11.275000	1.333494
	11.280000	1.228255
	11.285000	1.257853
	11.290000	1.363092
	11.295000	1.333494
	11.300000	1.221677
	11.305000	1.251276
	11.310000	1.363092
	11.315000	1.333494
	11.320000	1.224966
	11.325000	1.251276
	11.330000	1.359803
	11.335000	1.330205
	11.340000	1.215100
	11.345000	1.247987
	11.350000	1.353226
	11.355000	1.326916
	11.360000	1.215100
	11.365000	1.244698
	11.370000	1.356515
	11.375000	1.326916
	11.380000	1.215100
	11.385000	1.241409
	11.390000	1.356515
	11.395000	1.323628
	11.400000	1.211811
	11.405000	1.238121
	11.410000	1.349937
	11.415000	1.320339
	11.420000	1.211811
	11.425000	1.238121
	11.430000	1.349937
	11.435000	1.320339
	11.440000	1.211811
	11.445000	1.238121
	11.450000	1.346649
	11.455000	1.320339
	11.460000	1.211811
	11.465000	1.238121
	11.470000	1.346649
	11.475000	1.317050
	11.480000	1.208522
	11.485000	1.234832
	11.490000	1.349937
	11.495000	1.313761
	11.500000	1.208522
	11.505000	1.234832
	11.510000	1.346649
	11.515000	1.320339
	11.520000	1.208522
	11.525000	1.241409
	11.530000	1.340071
	11.535000	1.313761
	11.540000	1.208522
	11.545000	1.238121
	11.550000	1.343360
	11.555000	1.313761
	11.560000	1.208522
	11.565000	1.238121
	11.570000	1.346649
	11.575000	1.313761
	11.580000	1.211811
	11.585000	1.234832
	11.590000	1.349937
	11.595000	1.317050
	11.600000	1.205234
	11.605000	1.234832
	11.610000	1.343360
	11.615000	1.317050
	11.620000	1.205234
	11.625000	1.234832
	11.630000	1.343360
	11.635000	1.313761
	11.640000	1.205234
	11.645000	1.231543
	11.650000	1.340071
	11.655000	1.313761
	11.660000	1.205234
	11.665000	1.228255
	11.670000	1.336782
	11.675000	1.310473
	11.680000	1.198656
	11.685000	1.228255
	11.690000	1.336782
	11.695000	1.303895
	11.700000	1.188790
	11.705000	1.218388
	11.710000	1.330205
	11.715000	1.297318
	11.720000	1.188790
	11.725000	1.215100
	11.730000	1.326916
	11.735000	1.300606
	11.740000	1.185501
	11.745000	1.211811
	11.750000	1.320339
	11.755000	1.290740
	11.760000	1.182212
	11.765000	1.208522
	11.770000	1.323628
	11.775000	1.290740
	11.780000	1.175635
	11.785000	1.198656
	11.790000	1.317050
	11.795000	1.290740
	11.800000	1.172346
	11.805000	1.198656
	11.810000	1.313761
	11.815000	1.287452
	11.820000	1.169058
	11.825000	1.192079
	11.830000	1.310473
	11.835000	1.280874
	11.840000	1.159191
	11.845000	1.182212
	11.850000	1.297318
	11.855000	1.267719
	11.860000	1.155903
	11.865000	1.178924
	11.870000	1.294029
	11.875000	1.271008
	11.880000	1.146037
	11.885000	1.175635
	11.890000	1.290740
	11.895000	1.264431
	11.900000	1.136170
	11.905000	1.162480
	11.910000	1.284163
	11.915000	1.254564
	11.920000	1.139459
	11.925000	1.162480
	11.930000	1.280874
	11.935000	1.254564
	11.940000	1.146037
	11.945000	1.175635
	11.950000	1.300606
	11.955000	1.284163
	11.960000	1.172346
	11.965000	1.205234
	11.970000	1.340071
	11.975000	1.326916
	11.980000	1.218388
	11.985000	1.257853
	11.990000	1.399268
	11.995000	1.392691
	12.000000	1.280874
	12.005000	1.310473
	12.010000	1.428867
	12.015000	1.412423
	12.020000	1.284163
	12.025000	1.313761
	12.030000	1.435444
	12.035000	1.415712
	12.040000	1.290740
	12.045000	1.317050
	12.050000	1.445310
	12.055000	1.422289
	12.060000	1.294029
	12.065000	1.320339
	12.070000	1.451888
	12.075000	1.425578
	12.080000	1.300606
	12.085000	1.323628
	12.090000	1.461754
	12.095000	1.438733
	12.100000	1.310473
	12.105000	1.333494
	12.110000	1.478198
	12.115000	1.458465
	12.120000	1.326916
	12.125000	1.359803
	12.130000	1.501219
	12.135000	1.481486
	12.140000	1.346649
	12.145000	1.366381
	12.150000	1.507796
	12.155000	1.484775
	12.160000	1.340071
	12.165000	1.363092
	12.170000	1.497930
	12.175000	1.478198
	12.180000	1.333494
	12.185000	1.356515
	12.190000	1.491352
	12.195000	1.465043
	12.200000	1.326916
	12.205000	1.343360
	12.210000	1.484775
	12.215000	1.451888
	12.220000	1.310473
	12.225000	1.330205
	12.230000	1.471620
	12.235000	1.438733
	12.240000	1.297318
	12.245000	1.313761
	12.250000	1.445310
	12.255000	1.415712
	12.260000	1.274297
	12.265000	1.294029
	12.270000	1.415712
	12.275000	1.389402
	12.280000	1.244698
	12.285000	1.251276
	12.290000	1.369670
	12.295000	1.340071
	12.300000	1.198656
	12.305000	1.198656
	12.310000	1.317050
	12.315000	1.284163
	12.320000	1.152614
	12.325000	1.162480
	12.330000	1.277585
	12.335000	1.257853
	12.340000	1.129593
	12.345000	1.146037
	12.350000	1.254564
	12.355000	1.231543
	12.360000	1.116438
	12.365000	1.132882
	12.370000	1.247987
	12.375000	1.238121
	12.380000	1.123015
	12.385000	1.142748
	12.390000	1.254564
	12.395000	1.238121
	12.400000	1.132882
	12.405000	1.146037
	12.410000	1.254564
	12.415000	1.238121
	12.420000	1.129593
	12.425000	1.142748
	12.430000	1.241409
	12.435000	1.241409
	12.440000	1.142748
	12.445000	1.182212
	12.450000	1.313761
	12.455000	1.317050
	12.460000	1.238121
	12.465000	1.254564
	12.470000	1.369670
	12.475000	1.359803
	12.480000	1.251276
	12.485000	1.261142
	12.490000	1.356515
	12.495000	1.346649
	12.500000	1.231543
	12.505000	1.238121
	12.510000	1.333494
	12.515000	1.313761
	12.520000	1.201945
	12.525000	1.215100
	12.530000	1.303895
	12.535000	1.284163
	12.540000	1.172346
	12.545000	1.175635
	12.550000	1.277585
	12.555000	1.254564
	12.560000	1.146037
	12.565000	1.159191
	12.570000	1.261142
	12.575000	1.244698
	12.580000	1.139459
	12.585000	1.146037
	12.590000	1.251276
	12.595000	1.238121
	12.600000	1.136170
	12.605000	1.155903
	12.610000	1.257853
	12.615000	1.251276
	12.620000	1.149325
	12.625000	1.165769
	12.630000	1.271008
	12.635000	1.261142
	12.640000	1.155903
	12.645000	1.172346
	12.650000	1.277585
	12.655000	1.271008
	12.660000	1.172346
	12.665000	1.188790
	12.670000	1.303895
	12.675000	1.300606
	12.680000	1.208522
	12.685000	1.224966
	12.690000	1.340071
	12.695000	1.343360
	12.700000	1.267719
	12.705000	1.323628
	12.710000	1.481486
	12.715000	1.514373
	12.720000	1.451888
	12.725000	1.488064
	12.730000	1.626190
	12.735000	1.636056
	12.740000	1.550549
	12.745000	1.576859
	12.750000	1.691964
	12.755000	1.691964
	12.760000	1.596592
	12.765000	1.613035
	12.770000	1.721563
	12.775000	1.721563
	12.780000	1.622901
	12.785000	1.632767
	12.790000	1.741295
	12.795000	1.728140
	12.800000	1.626190
	12.805000	1.642634
	12.810000	1.741295
	12.815000	1.734718
	12.820000	1.626190
	12.825000	1.645922
	12.830000	1.741295
	12.835000	1.734718
	12.840000	1.629479
	12.845000	1.639345
	12.850000	1.741295
	12.855000	1.731429
	12.860000	1.622901
	12.865000	1.636056
	12.870000	1.738007
	12.875000	1.724852
	12.880000	1.619613
	12.885000	1.626190
	12.890000	1.731429
	12.895000	1.721563
	12.900000	1.609746
	12.905000	1.619613
	12.910000	1.724852
	12.915000	1.711697
	12.920000	1.606458
	12.925000	1.613035
	12.930000	1.718274
	12.935000	1.705119
	12.940000	1.599880
	12.945000	1.606458
	12.950000	1.708408
	12.955000	1.691964
	12.960000	1.590014
	12.965000	1.590014
	12.970000	1.695253
	12.975000	1.685387
	12.980000	1.576859
	12.985000	1.583437
	12.990000	1.682098
	12.995000	1.675521
	13.000000	1.566993
	13.005000	1.576859
	13.010000	1.672232
	13.015000	1.668943
	13.020000	1.560416
	13.025000	1.560416
	13.030000	1.668943
	13.035000	1.659077
	13.040000	1.550549
	13.045000	1.557127
	13.050000	1.659077
	13.055000	1.645922
	13.060000	1.537395
	13.065000	1.543972
	13.070000	1.649211
	13.075000	1.636056
	13.080000	1.527528
	13.085000	1.537395
	13.090000	1.639345
	13.095000	1.626190
	13.100000	1.514373
	13.105000	1.514373
	13.110000	1.622901
	13.115000	1.613035
	13.120000	1.501219
	13.125000	1.504507
	13.130000	1.609746
	13.135000	1.603169
	13.140000	1.494641
	13.145000	1.491352
	13.150000	1.596592
	13.155000	1.586725
	13.160000	1.481486
	13.165000	1.484775
	13.170000	1.583437
	13.175000	1.576859
	13.180000	1.465043
	13.185000	1.471620
	13.190000	1.573570
	13.195000	1.560416
	13.200000	1.455176
	13.205000	1.451888
	13.210000	1.563704
	13.215000	1.553838
	13.220000	1.435444
	13.225000	1.445310
	13.230000	1.547261
	13.235000	1.543972
	13.240000	1.432155
	13.245000	1.432155
	13.250000	1.537395
	13.255000	1.534106
	13.260000	1.419000
	13.265000	1.419000
	13.270000	1.524240
	13.275000	1.524240
	13.280000	1.405846
	13.285000	1.412423
	13.290000	1.520951
	13.295000	1.511085
	13.300000	1.402557
	13.305000	1.402557
	13.310000	1.514373
	13.315000	1.501219
	13.320000	1.389402
	13.325000	1.392691
	13.330000	1.501219
	13.335000	1.494641
	13.340000	1.382825
	13.345000	1.389402
	13.350000	1.491352
	13.355000	1.484775
	13.360000	1.376247
	13.365000	1.379536
	13.370000	1.484775
	13.375000	1.478198
	13.380000	1.366381
	13.385000	1.369670
	13.390000	1.478198
	13.395000	1.478198
	13.400000	1.363092
	13.405000	1.363092
	13.410000	1.471620
	13.415000	1.468331
	13.420000	1.356515
	13.425000	1.356515
	13.430000	1.468331
	13.435000	1.461754
	13.440000	1.349937
	13.445000	1.353226
	13.450000	1.458465
	13.455000	1.461754
	13.460000	1.349937
	13.465000	1.346649
	13.470000	1.455176
	13.475000	1.451888
	13.480000	1.343360
	13.485000	1.343360
	13.490000	1.451888
	13.495000	1.451888
	13.500000	1.340071
	13.505000	1.343360
	13.510000	1.448599
	13.515000	1.448599
	13.520000	1.336782
	13.525000	1.340071
	13.530000	1.448599
	13.535000	1.448599
	13.540000	1.340071
	13.545000	1.340071
	13.550000	1.445310
	13.555000	1.442022
	13.560000	1.330205
	13.565000	1.333494
	13.570000	1.438733
	13.575000	1.438733
	13.580000	1.330205
	13.585000	1.326916
	13.590000	1.438733
	13.595000	1.435444
	13.600000	1.326916
	13.605000	1.326916
	13.610000	1.435444
	13.615000	1.435444
	13.620000	1.326916
	13.625000	1.323628
	13.630000	1.432155
	13.635000	1.428867
	13.640000	1.323628
	13.645000	1.317050
	13.650000	1.425578
	13.655000	1.428867
	13.660000	1.313761
	13.665000	1.313761
	13.670000	1.425578
	13.675000	1.425578
	13.680000	1.313761
	13.685000	1.313761
	13.690000	1.419000
	13.695000	1.415712
	13.700000	1.303895
	13.705000	1.303895
	13.710000	1.415712
	13.715000	1.412423
	13.720000	1.300606
	13.725000	1.294029
	13.730000	1.415712
	13.735000	1.412423
	13.740000	1.303895
	13.745000	1.300606
	13.750000	1.412423
	13.755000	1.409134
	13.760000	1.294029
	13.765000	1.294029
	13.770000	1.402557
	13.775000	1.399268
	13.780000	1.294029
	13.785000	1.294029
	13.790000	1.399268
	13.795000	1.405846
	13.800000	1.290740
	13.805000	1.287452
	13.810000	1.395979
	13.815000	1.399268
	13.820000	1.294029
	13.825000	1.294029
	13.830000	1.395979
	13.835000	1.399268
	13.840000	1.284163
	13.845000	1.284163
	13.850000	1.399268
	13.855000	1.395979
	13.860000	1.290740
	13.865000	1.287452
	13.870000	1.395979
	13.875000	1.395979
	13.880000	1.290740
	13.885000	1.280874
	13.890000	1.389402
	13.895000	1.392691
	13.900000	1.284163
	13.905000	1.277585
	13.910000	1.386113
	13.915000	1.386113
	13.920000	1.280874
	13.925000	1.274297
	13.930000	1.379536
	13.935000	1.389402
	13.940000	1.274297
	13.945000	1.271008
	13.950000	1.379536
	13.955000	1.379536
	13.960000	1.267719
	13.965000	1.261142
	13.970000	1.369670
	13.975000	1.372958
	13.980000	1.261142
	13.985000	1.257853
	13.990000	1.359803
	13.995000	1.369670
	14.000000	1.257853
	14.005000	1.254564
	14.010000	1.366381
	14.015000	1.369670
	14.020000	1.261142
	14.025000	1.251276
	14.030000	1.356515
	14.035000	1.363092
	14.040000	1.251276
	14.045000	1.241409
	14.050000	1.349937
	14.055000	1.346649
	14.060000	1.238121
	14.065000	1.238121
	14.070000	1.346649
	14.075000	1.349937
	14.080000	1.241409
	14.085000	1.241409
	14.090000	1.343360
	14.095000	1.353226
	14.100000	1.238121
	14.105000	1.228255
	14.110000	1.333494
	14.115000	1.343360
	14.120000	1.228255
	14.125000	1.211811
	14.130000	1.320339
	14.135000	1.330205
	14.140000	1.215100
	14.145000	1.205234
	14.150000	1.310473
	14.155000	1.317050
	14.160000	1.201945
	14.165000	1.195367
	14.170000	1.297318
	14.175000	1.303895
	14.180000	1.192079
	14.185000	1.182212
	14.190000	1.294029
	14.195000	1.300606
	14.200000	1.192079
	14.205000	1.178924
	14.210000	1.287452
	14.215000	1.294029
	14.220000	1.185501
	14.225000	1.172346
	14.230000	1.277585
	14.235000	1.290740
	14.240000	1.178924
	14.245000	1.165769
	14.250000	1.271008
	14.255000	1.274297
	14.260000	1.172346
	14.265000	1.162480
	14.270000	1.264431
	14.275000	1.274297
	14.280000	1.169058
	14.285000	1.152614
	14.290000	1.257853
	14.295000	1.264431
	14.300000	1.159191
	14.305000	1.146037
	14.310000	1.257853
	14.315000	1.271008
	14.320000	1.159191
	14.325000	1.155903
	14.330000	1.271008
	14.335000	1.287452
	14.340000	1.185501
	14.345000	1.188790
	14.350000	1.313761
	14.355000	1.343360
	14.360000	1.251276
	14.365000	1.261142
	14.370000	1.395979
	14.375000	1.428867
	14.380000	1.330205
	14.385000	1.326916
	14.390000	1.451888
	14.395000	1.474909
	14.400000	1.356515
	14.405000	1.346649
	14.410000	1.474909
	14.415000	1.494641
	14.420000	1.376247
	14.425000	1.366381
	14.430000	1.491352
	14.435000	1.511085
	14.440000	1.389402
	14.445000	1.372958
	14.450000	1.497930
	14.455000	1.514373
	14.460000	1.386113
	14.465000	1.372958
	14.470000	1.494641
	14.475000	1.507796
	14.480000	1.382825
	14.485000	1.363092
	14.490000	1.484775
	14.495000	1.501219
	14.500000	1.372958
	14.505000	1.349937
	14.510000	1.471620
	14.515000	1.494641
	14.520000	1.356515
	14.525000	1.340071
	14.530000	1.461754
	14.535000	1.478198
	14.540000	1.349937
	14.545000	1.326916
	14.550000	1.451888
	14.555000	1.468331
	14.560000	1.333494
	14.565000	1.313761
	14.570000	1.438733
	14.575000	1.451888
	14.580000	1.323628
	14.585000	1.307184
	14.590000	1.425578
	14.595000	1.438733
	14.600000	1.307184
	14.605000	1.284163
	14.610000	1.405846
	14.615000	1.419000
	14.620000	1.287452
	14.625000	1.264431
	14.630000	1.382825
	14.635000	1.395979
	14.640000	1.274297
	14.645000	1.244698
	14.650000	1.366381
	14.655000	1.379536
	14.660000	1.267719
	14.665000	1.241409
	14.670000	1.353226
	14.675000	1.372958
	14.680000	1.261142
	14.685000	1.234832
	14.690000	1.346649
	14.695000	1.372958
	14.700000	1.261142
	14.705000	1.244698
	14.710000	1.346649
	14.715000	1.369670
	14.720000	1.271008
	14.725000	1.254564
	14.730000	1.356515
	14.735000	1.366381
	14.740000	1.257853
	14.745000	1.238121
	14.750000	1.330205
	14.755000	1.356515
	14.760000	1.267719
	14.765000	1.254564
	14.770000	1.372958
	14.775000	1.399268
	14.780000	1.303895
	14.785000	1.290740
	14.790000	1.382825
	14.795000	1.395979
	14.800000	1.290740
	14.805000	1.264431
	14.810000	1.359803
	14.815000	1.369670
	14.820000	1.257853
	14.825000	1.231543
	14.830000	1.326916
	14.835000	1.336782
	14.840000	1.238121
	14.845000	1.211811
	14.850000	1.307184
	14.855000	1.320339
	14.860000	1.224966
	14.865000	1.198656
	14.870000	1.297318
	14.875000	1.317050
	14.880000	1.218388
	14.885000	1.201945
	14.890000	1.294029
	14.895000	1.313761
	14.900000	1.218388
	14.905000	1.201945
	14.910000	1.297318
	14.915000	1.323628
	14.920000	1.224966
	14.925000	1.205234
	14.930000	1.300606
	14.935000	1.326916
	14.940000	1.234832
	14.945000	1.211811
	14.950000	1.313761
	14.955000	1.333494
	14.960000	1.238121
	14.965000	1.224966
	14.970000	1.326916
	14.975000	1.356515
	14.980000	1.267719
	14.985000	1.261142
	14.990000	1.366381
	14.995000	1.399268
	15.000000	1.333494
	15.005000	1.343360
	15.010000	1.471620
	15.015000	1.520951
	15.020000	1.445310
	15.025000	1.445310
	15.030000	1.563704
	15.035000	1.596592
	15.040000	1.514373
	15.045000	1.504507
	15.050000	1.609746
	15.055000	1.642634
	15.060000	1.550549
	15.065000	1.537395
	15.070000	1.642634
	15.075000	1.668943
	15.080000	1.583437
	15.085000	1.560416
	15.090000	1.662366
	15.095000	1.691964
	15.100000	1.596592
	15.105000	1.576859
	15.110000	1.672232
	15.115000	1.695253
	15.120000	1.603169
	15.125000	1.583437
	15.130000	1.672232
	15.135000	1.701831
	15.140000	1.606458
	15.145000	1.586725
	15.150000	1.675521
	15.155000	1.701831
	15.160000	1.606458
	15.165000	1.580148
	15.170000	1.672232
	15.175000	1.701831
	15.180000	1.603169
	15.185000	1.580148
	15.190000	1.675521
	15.195000	1.695253
	15.200000	1.599880
	15.205000	1.580148
	15.210000	1.668943
	15.215000	1.695253
	15.220000	1.603169
	15.225000	1.576859
	15.230000	1.672232
	15.235000	1.698542
	15.240000	1.596592
	15.245000	1.573570
	15.250000	1.668943
	15.255000	1.688676
	15.260000	1.593303
	15.265000	1.573570
	15.270000	1.665655
	15.275000	1.691964
	15.280000	1.593303
	15.285000	1.566993
	15.290000	1.662366
	15.295000	1.685387
	15.300000	1.590014
	15.305000	1.560416
	15.310000	1.652500
	15.315000	1.682098
	15.320000	1.583437
	15.325000	1.557127
	15.330000	1.655789
	15.335000	1.678810
	15.340000	1.580148
	15.345000	1.550549
	15.350000	1.649211
	15.355000	1.668943
	15.360000	1.576859
	15.365000	1.543972
	15.370000	1.642634
	15.375000	1.662366
	15.380000	1.563704
	15.385000	1.540683
	15.390000	1.626190
	15.395000	1.645922
	15.400000	1.550549
	15.405000	1.520951
	15.410000	1.609746
	15.415000	1.622901
	15.420000	1.520951
	15.425000	1.488064
	15.430000	1.570282
	15.435000	1.583437
	15.440000	1.494641
	15.445000	1.461754
	15.450000	1.547261
	15.455000	1.566993
	15.460000	1.474909
	15.465000	1.445310
	15.470000	1.534106
	15.475000	1.550549
	15.480000	1.451888
	15.485000	1.425578
	15.490000	1.504507
	15.495000	1.534106
	15.500000	1.438733
	15.505000	1.405846
	15.510000	1.491352
	15.515000	1.511085
	15.520000	1.419000
	15.525000	1.392691
	15.530000	1.474909
	15.535000	1.494641
	15.540000	1.399268
	15.545000	1.369670
	15.550000	1.455176
	15.555000	1.471620
	15.560000	1.382825
	15.565000	1.349937
	15.570000	1.425578
	15.575000	1.442022
	15.580000	1.353226
	15.585000	1.323628
	15.590000	1.399268
	15.595000	1.415712
	15.600000	1.326916
	15.605000	1.294029
	15.610000	1.376247
	15.615000	1.399268
	15.620000	1.310473
	15.625000	1.284163
	15.630000	1.363092
	15.635000	1.386113
	15.640000	1.300606
	15.645000	1.271008
	15.650000	1.349937
	15.655000	1.369670
	15.660000	1.287452
	15.665000	1.257853
	15.670000	1.343360
	15.675000	1.366381
	15.680000	1.280874
	15.685000	1.254564
	15.690000	1.336782
	15.695000	1.363092
	15.700000	1.280874
	15.705000	1.247987
	15.710000	1.333494
	15.715000	1.356515
	15.720000	1.274297
	15.725000	1.251276
	15.730000	1.326916
	15.735000	1.356515
	15.740000	1.271008
	15.745000	1.244698
	15.750000	1.326916
	15.755000	1.349937
	15.760000	1.264431
	15.765000	1.244698
	15.770000	1.326916
	15.775000	1.346649
	15.780000	1.267719
	15.785000	1.238121
	15.790000	1.320339
	15.795000	1.346649
	15.800000	1.261142
	15.805000	1.234832
	15.810000	1.317050
	15.815000	1.353226
	15.820000	1.277585
	15.825000	1.261142
	15.830000	1.363092
	15.835000	1.399268
	15.840000	1.317050
	15.845000	1.284163
	15.850000	1.369670
	15.855000	1.395979
	15.860000	1.317050
	15.865000	1.300606
	15.870000	1.395979
	15.875000	1.435444
	15.880000	1.346649
	15.885000	1.323628
	15.890000	1.419000
	15.895000	1.465043
	15.900000	1.395979
	15.905000	1.369670
	15.910000	1.474909
	15.915000	1.507796
	15.920000	1.419000
	15.925000	1.389402
	15.930000	1.474909
	15.935000	1.504507
	15.940000	1.415712
	15.945000	1.372958
	15.950000	1.471620
	15.955000	1.501219
	15.960000	1.412423
	15.965000	1.382825
	15.970000	1.478198
	15.975000	1.514373
	15.980000	1.422289
	15.985000	1.389402
	15.990000	1.481486
	15.995000	1.514373
	16.000000	1.422289
	16.005000	1.386113
	16.010000	1.481486
	16.015000	1.514373
	16.020000	1.415712
	16.025000	1.382825
	16.030000	1.471620
	16.035000	1.494641
	16.040000	1.379536
	16.045000	1.330205
	16.050000	1.415712
	16.055000	1.438733
	16.060000	1.336782
	16.065000	1.303895
	16.070000	1.395979
	16.075000	1.432155
	16.080000	1.343360
	16.085000	1.310473
	16.090000	1.405846
	16.095000	1.442022
	16.100000	1.356515
	16.105000	1.320339
	16.110000	1.405846
	16.115000	1.442022
	16.120000	1.340071
	16.125000	1.307184
	16.130000	1.392691
	16.135000	1.425578
	16.140000	1.336782
	16.145000	1.300606
	16.150000	1.402557
	16.155000	1.442022
	16.160000	1.346649
	16.165000	1.320339
	16.170000	1.419000
	16.175000	1.461754
	16.180000	1.372958
	16.185000	1.333494
	16.190000	1.425578
	16.195000	1.461754
	16.200000	1.359803
	16.205000	1.317050
	16.210000	1.402557
	16.215000	1.442022
	16.220000	1.333494
	16.225000	1.297318
	16.230000	1.382825
	16.235000	1.422289
	16.240000	1.330205
	16.245000	1.294029
	16.250000	1.386113
	16.255000	1.425578
	16.260000	1.326916
	16.265000	1.297318
	16.270000	1.392691
	16.275000	1.432155
	16.280000	1.333494
	16.285000	1.297318
	16.290000	1.392691
	16.295000	1.428867
	16.300000	1.333494
	16.305000	1.294029
	16.310000	1.389402
	16.315000	1.428867
	16.320000	1.333494
	16.325000	1.294029
	16.330000	1.392691
	16.335000	1.432155
	16.340000	1.343360
	16.345000	1.303895
	16.350000	1.389402
	16.355000	1.432155
	16.360000	1.336782
	16.365000	1.287452
	16.370000	1.379536
	16.375000	1.405846
	16.380000	1.307184
	16.385000	1.254564
	16.390000	1.340071
	16.395000	1.379536
	16.400000	1.287452
	16.405000	1.247987
	16.410000	1.343360
	16.415000	1.392691
	16.420000	1.303895
	16.425000	1.264431
	16.430000	1.369670
	16.435000	1.412423
	16.440000	1.317050
	16.445000	1.287452
	16.450000	1.379536
	16.455000	1.432155
	16.460000	1.343360
	16.465000	1.307184
	16.470000	1.409134
	16.475000	1.461754
	16.480000	1.369670
	16.485000	1.336782
	16.490000	1.435444
	16.495000	1.484775
	16.500000	1.399268
	16.505000	1.356515
	16.510000	1.458465
	16.515000	1.511085
	16.520000	1.419000
	16.525000	1.382825
	16.530000	1.484775
	16.535000	1.527528
	16.540000	1.435444
	16.545000	1.389402
	16.550000	1.494641
	16.555000	1.543972
	16.560000	1.455176
	16.565000	1.405846
	16.570000	1.511085
	16.575000	1.560416
	16.580000	1.471620
	16.585000	1.425578
	16.590000	1.520951
	16.595000	1.576859
	16.600000	1.488064
	16.605000	1.442022
	16.610000	1.547261
	16.615000	1.596592
	16.620000	1.511085
	16.625000	1.468331
	16.630000	1.560416
	16.635000	1.616324
	16.640000	1.504507
	16.645000	1.465043
	16.650000	1.560416
	16.655000	1.613035
	16.660000	1.511085
	16.665000	1.458465
	16.670000	1.560416
	16.675000	1.606458
	16.680000	1.511085
	16.685000	1.461754
	16.690000	1.553838
	16.695000	1.606458
	16.700000	1.504507
	16.705000	1.458465
	16.710000	1.550549
	16.715000	1.599880
	16.720000	1.501219
	16.725000	1.448599
	16.730000	1.547261
	16.735000	1.593303
	16.740000	1.491352
	16.745000	1.438733
	16.750000	1.540683
	16.755000	1.583437
	16.760000	1.484775
	16.765000	1.432155
	16.770000	1.520951
	16.775000	1.576859
	16.780000	1.478198
	16.785000	1.422289
	16.790000	1.517662
	16.795000	1.563704
	16.800000	1.465043
	16.805000	1.409134
	16.810000	1.504507
	16.815000	1.553838
	16.820000	1.455176
	16.825000	1.399268
	16.830000	1.484775
	16.835000	1.530817
	16.840000	1.435444
	16.845000	1.376247
	16.850000	1.465043
	16.855000	1.511085
	16.860000	1.412423
	16.865000	1.359803
	16.870000	1.448599
	16.875000	1.497930
	16.880000	1.392691
	16.885000	1.333494
	16.890000	1.425578
	16.895000	1.468331
	16.900000	1.359803
	16.905000	1.300606
	16.910000	1.392691
	16.915000	1.438733
	16.920000	1.336782
	16.925000	1.284163
	16.930000	1.369670
	16.935000	1.419000
	16.940000	1.320339
	16.945000	1.261142
	16.950000	1.353226
	16.955000	1.405846
	16.960000	1.307184
	16.965000	1.247987
	16.970000	1.336782
	16.975000	1.389402
	16.980000	1.287452
	16.985000	1.231543
	16.990000	1.323628
	16.995000	1.376247
	17.000000	1.280874
	17.005000	1.221677
	17.010000	1.313761
	17.015000	1.366381
	17.020000	1.264431
	17.025000	1.211811
	17.030000	1.300606
	17.035000	1.359803
	17.040000	1.254564
	17.045000	1.201945
	17.050000	1.287452
	17.055000	1.340071
	17.060000	1.251276
	17.065000	1.185501
	17.070000	1.277585
	17.075000	1.326916
	17.080000	1.234832
	17.085000	1.172346
	17.090000	1.261142
	17.095000	1.320339
	17.100000	1.221677
	17.105000	1.159191
	17.110000	1.254564
	17.115000	1.307184
	17.120000	1.211811
	17.125000	1.152614
	17.130000	1.244698
	17.135000	1.300606
	17.140000	1.201945
	17.145000	1.142748
	17.150000	1.234832
	17.155000	1.287452
	17.160000	1.198656
	17.165000	1.132882
	17.170000	1.224966
	17.175000	1.280874
	17.180000	1.185501
	17.185000	1.129593
	17.190000	1.215100
	17.195000	1.271008
	17.200000	1.178924
	17.205000	1.119727
	17.210000	1.201945
	17.215000	1.264431
	17.220000	1.172346
	17.225000	1.116438
	17.230000	1.205234
	17.235000	1.257853
	17.240000	1.172346
	17.245000	1.109861
	17.250000	1.198656
	17.255000	1.251276
	17.260000	1.162480
	17.265000	1.106572
	17.270000	1.195367
	17.275000	1.254564
	17.280000	1.162480
	17.285000	1.096706
	17.290000	1.188790
	17.295000	1.241409
	17.300000	1.155903
	17.305000	1.096706
	17.310000	1.182212
	17.315000	1.247987
	17.320000	1.159191
	17.325000	1.096706
	17.330000	1.182212
	17.335000	1.241409
	17.340000	1.152614
	17.345000	1.093417
	17.350000	1.178924
	17.355000	1.241409
	17.360000	1.152614
	17.365000	1.090128
	17.370000	1.178924
	17.375000	1.241409
	17.380000	1.149325
	17.385000	1.090128
	17.390000	1.182212
	17.395000	1.241409
	17.400000	1.149325
	17.405000	1.093417
	17.410000	1.178924
	17.415000	1.247987
	17.420000	1.155903
	17.425000	1.093417
	17.430000	1.185501
	17.435000	1.247987
	17.440000	1.159191
	17.445000	1.099994
	17.450000	1.192079
	17.455000	1.254564
	17.460000	1.162480
	17.465000	1.106572
	17.470000	1.195367
	17.475000	1.264431
	17.480000	1.172346
	17.485000	1.119727
	17.490000	1.208522
	17.495000	1.274297
	17.500000	1.182212
	17.505000	1.123015
	17.510000	1.215100
	17.515000	1.280874
	17.520000	1.198656
	17.525000	1.136170
	17.530000	1.224966
	17.535000	1.294029
	17.540000	1.205234
	17.545000	1.142748
	17.550000	1.238121
	17.555000	1.307184
	17.560000	1.221677
	17.565000	1.165769
	17.570000	1.254564
	17.575000	1.320339
	17.580000	1.234832
	17.585000	1.172346
	17.590000	1.257853
	17.595000	1.333494
	17.600000	1.238121
	17.605000	1.169058
	17.610000	1.251276
	17.615000	1.323628
	17.620000	1.231543
	17.625000	1.162480
	17.630000	1.254564
	17.635000	1.317050
	17.640000	1.228255
	17.645000	1.159191
	17.650000	1.241409
	17.655000	1.310473
	17.660000	1.221677
	17.665000	1.149325
	17.670000	1.234832
	17.675000	1.300606
	17.680000	1.211811
	17.685000	1.142748
	17.690000	1.224966
	17.695000	1.297318
	17.700000	1.211811
	17.705000	1.139459
	17.710000	1.224966
	17.715000	1.290740
	17.720000	1.205234
	17.725000	1.132882
	17.730000	1.218388
	17.735000	1.287452
	17.740000	1.195367
	17.745000	1.123015
	17.750000	1.201945
	17.755000	1.277585
	17.760000	1.192079
	17.765000	1.116438
	17.770000	1.201945
	17.775000	1.274297
	17.780000	1.185501
	17.785000	1.109861
	17.790000	1.195367
	17.795000	1.264431
	17.800000	1.178924
	17.805000	1.106572
	17.810000	1.188790
	17.815000	1.257853
	17.820000	1.172346
	17.825000	1.099994
	17.830000	1.185501
	17.835000	1.251276
	17.840000	1.169058
	17.845000	1.093417
	17.850000	1.178924
	17.855000	1.251276
	17.860000	1.162480
	17.865000	1.086840
	17.870000	1.169058
	17.875000	1.234832
	17.880000	1.162480
	17.885000	1.080262
	17.890000	1.165769
	17.895000	1.238121
	17.900000	1.146037
	17.905000	1.076973
	17.910000	1.162480
	17.915000	1.231543
	17.920000	1.149325
	17.925000	1.076973
	17.930000	1.149325
	17.935000	1.224966
	17.940000	1.142748
	17.945000	1.063818
	17.950000	1.152614
	17.955000	1.224966
	17.960000	1.142748
	17.965000	1.060530
	17.970000	1.142748
	17.975000	1.221677
	17.980000	1.136170
	17.985000	1.063818
	17.990000	1.146037
	17.995000	1.218388
	18.000000	1.136170
	18.005000	1.057241
	18.010000	1.142748
	18.015000	1.218388
	18.020000	1.136170
	18.025000	1.053952
	18.030000	1.142748
	18.035000	1.215100
	18.040000	1.139459
	18.045000	1.060530
	18.050000	1.142748
	18.055000	1.218388
	18.060000	1.132882
	18.065000	1.057241
	18.070000	1.136170
	18.075000	1.218388
	18.080000	1.136170
	18.085000	1.063818
	18.090000	1.139459
	18.095000	1.215100
	18.100000	1.129593
	18.105000	1.057241
	18.110000	1.136170
	18.115000	1.211811
	18.120000	1.136170
	18.125000	1.057241
	18.130000	1.136170
	18.135000	1.215100
	18.140000	1.132882
	18.145000	1.057241
	18.150000	1.136170
	18.155000	1.221677
	18.160000	1.136170
	18.165000	1.057241
	18.170000	1.139459
	18.175000	1.218388
	18.180000	1.142748
	18.185000	1.053952
	18.190000	1.132882
	18.195000	1.215100
	18.200000	1.136170
	18.205000	1.057241
	18.210000	1.139459
	18.215000	1.215100
	18.220000	1.132882
	18.225000	1.053952
	18.230000	1.132882
	18.235000	1.215100
	18.240000	1.146037
	18.245000	1.060530
	18.250000	1.136170
	18.255000	1.215100
	18.260000	1.139459
	18.265000	1.053952
	18.270000	1.129593
	18.275000	1.221677
	18.280000	1.139459
	18.285000	1.057241
	18.290000	1.126304
	18.295000	1.211811
	18.300000	1.136170
	18.305000	1.057241
	18.310000	1.129593
	18.315000	1.211811
	18.320000	1.129593
	18.325000	1.050664
	18.330000	1.123015
	18.335000	1.205234
	18.340000	1.129593
	18.345000	1.044086
	18.350000	1.123015
	18.355000	1.198656
	18.360000	1.123015
	18.365000	1.037509
	18.370000	1.109861
	18.375000	1.195367
	18.380000	1.119727
	18.385000	1.034220
	18.390000	1.109861
	18.395000	1.188790
	18.400000	1.113149
	18.405000	1.027643
	18.410000	1.103283
	18.415000	1.182212
	18.420000	1.103283
	18.425000	1.024354
	18.430000	1.093417
	18.435000	1.182212
	18.440000	1.099994
	18.445000	1.017776
	18.450000	1.086840
	18.455000	1.175635
	18.460000	1.093417
	18.465000	1.007910
	18.470000	1.080262
	18.475000	1.169058
	18.480000	1.093417
	18.485000	1.007910
	18.490000	1.076973
	18.495000	1.162480
	18.500000	1.083551
	18.505000	0.998044
	18.510000	1.070396
	18.515000	1.159191
	18.520000	1.073685
	18.525000	0.988178
	18.530000	1.060530
	18.535000	1.149325
	18.540000	1.067107
	18.545000	0.984889
	18.550000	1.050664
	18.555000	1.139459
	18.560000	1.063818
	18.565000	0.971734
	18.570000	1.044086
	18.575000	1.136170
	18.580000	1.060530
	18.585000	0.971734
	18.590000	1.040797
	18.595000	1.129593
	18.600000	1.053952
	18.605000	0.965157
	18.610000	1.030931
	18.615000	1.119727
	18.620000	1.047375
	18.625000	0.955291
	18.630000	1.027643
	18.635000	1.116438
	18.640000	1.037509
	18.645000	0.948713
	18.650000	1.024354
	18.655000	1.116438
	18.660000	1.037509
	18.665000	0.945424
	18.670000	1.017776
	18.675000	1.109861
	18.680000	1.034220
	18.685000	0.942136
	18.690000	1.011199
	18.695000	1.103283
	18.700000	1.027643
	18.705000	0.938847
	18.710000	1.011199
	18.715000	1.103283
	18.720000	1.027643
	18.725000	0.928981
	18.730000	1.007910
	18.735000	1.099994
	18.740000	1.024354
	18.745000	0.928981
	18.750000	1.004621
	18.755000	1.099994
	18.760000	1.027643
	18.765000	0.925692
	18.770000	1.004621
	18.775000	1.099994
	18.780000	1.027643
	18.785000	0.925692
	18.790000	1.004621
	18.795000	1.099994
	18.800000	1.027643
	18.805000	0.928981
	18.810000	1.004621
	18.815000	1.099994
	18.820000	1.034220
	18.825000	0.932270
	18.830000	1.011199
	18.835000	1.109861
	18.840000	1.037509
	18.845000	0.938847
	18.850000	1.011199
	18.855000	1.109861
	18.860000	1.037509
	18.865000	0.938847
	18.870000	1.014488
	18.875000	1.113149
	18.880000	1.040797
	18.885000	0.942136
	18.890000	1.014488
	18.895000	1.119727
	18.900000	1.047375
	18.905000	0.945424
	18.910000	1.011199
	18.915000	1.123015
	18.920000	1.044086
	18.925000	0.942136
	18.930000	1.014488
	18.935000	1.123015
	18.940000	1.050664
	18.945000	0.942136
	18.950000	1.024354
	18.955000	1.126304
	18.960000	1.053952
	18.965000	0.945424
	18.970000	1.021065
	18.975000	1.129593
	18.980000	1.057241
	18.985000	0.948713
	18.990000	1.017776
	18.995000	1.132882
	19.000000	1.060530
	19.005000	0.952002
	19.010000	1.024354
	19.015000	1.136170
	19.020000	1.063818
	19.025000	0.948713
	19.030000	1.024354
	19.035000	1.142748
	19.040000	1.070396
	19.045000	0.952002
	19.050000	1.027643
	19.055000	1.142748
	19.060000	1.073685
	19.065000	0.961868
	19.070000	1.027643
	19.075000	1.142748
	19.080000	1.067107
	19.085000	0.952002
	19.090000	1.014488
	19.095000	1.132882
	19.100000	1.060530
	19.105000	0.945424
	19.110000	1.007910
	19.115000	1.119727
	19.120000	1.053952
	19.125000	0.938847
	19.130000	1.004621
	19.135000	1.123015
	19.140000	1.057241
	19.145000	0.938847
	19.150000	1.001333
	19.155000	1.116438
	19.160000	1.050664
	19.165000	0.935558
	19.170000	0.998044
	19.175000	1.109861
	19.180000	1.040797
	19.185000	0.919115
	19.190000	0.978312
	19.195000	1.076973
	19.200000	0.988178
	19.205000	0.856629
	19.210000	0.892805
	19.215000	0.981600
	19.220000	0.896094
	19.225000	0.771122
	19.230000	0.823742
	19.235000	0.919115
	19.240000	0.843474
	19.245000	0.731657
	19.250000	0.780988
	19.255000	0.879650
	19.260000	0.810587
	19.265000	0.698770
	19.270000	0.754679
	19.275000	0.846763
	19.280000	0.787566
	19.285000	0.675749
	19.290000	0.734946
	19.295000	0.830319
	19.300000	0.764545
	19.305000	0.659306
	19.310000	0.711925
	19.315000	0.810587
	19.320000	0.748101
	19.325000	0.642862
	19.330000	0.695482
	19.335000	0.794143
	19.340000	0.731657
	19.345000	0.629707
	19.350000	0.679038
	19.355000	0.777700
	19.360000	0.721791
	19.365000	0.613263
	19.370000	0.665883
	19.375000	0.764545
	19.380000	0.705348
	19.385000	0.606686
	19.390000	0.659306
	19.395000	0.757967
	19.400000	0.702059
	19.405000	0.593531
	19.410000	0.649439
	19.415000	0.744812
	19.420000	0.685615
	19.425000	0.590242
	19.430000	0.639573
	19.435000	0.734946
	19.440000	0.682327
	19.445000	0.580376
	19.450000	0.629707
	19.455000	0.731657
	19.460000	0.669172
	19.465000	0.573799
	19.470000	0.623130
	19.475000	0.725080
	19.480000	0.672460
	19.485000	0.567221
	19.490000	0.619841
	19.495000	0.721791
	19.500000	0.669172
	19.505000	0.560644
	19.510000	0.616552
	19.515000	0.715214
	19.520000	0.662594
	19.525000	0.557355
	19.530000	0.613263
	19.535000	0.711925
	19.540000	0.659306
	19.545000	0.554066
	19.550000	0.606686
	19.555000	0.708636
	19.560000	0.659306
	19.565000	0.557355
	19.570000	0.603397
	19.575000	0.708636
	19.580000	0.649439
	19.585000	0.547489
	19.590000	0.600109
	19.595000	0.702059
	19.600000	0.649439
	19.605000	0.544200
	19.610000	0.593531
	19.615000	0.695482
	19.620000	0.642862
	19.625000	0.537623
	19.630000	0.583665
	19.635000	0.685615
	19.640000	0.639573
	19.645000	0.534334
	19.650000	0.580376
	19.655000	0.685615
	19.660000	0.629707
	19.665000	0.531045
	19.670000	0.573799
	19.675000	0.682327
	19.680000	0.629707
	19.685000	0.524468
	19.690000	0.573799
	19.695000	0.675749
	19.700000	0.626418
	19.705000	0.524468
	19.710000	0.570510
	19.715000	0.672460
	19.720000	0.626418
	19.725000	0.517891
	19.730000	0.567221
	19.735000	0.675749
	19.740000	0.619841
	19.745000	0.517891
	19.750000	0.563933
	19.755000	0.665883
	19.760000	0.623130
	19.765000	0.514602
	19.770000	0.563933
	19.775000	0.659306
	19.780000	0.613263
	19.785000	0.508024
	19.790000	0.547489
	19.795000	0.656017
	19.800000	0.606686
	19.805000	0.504736
	19.810000	0.547489
	19.815000	0.642862
	19.820000	0.600109
	19.825000	0.498158
	19.830000	0.534334
	19.835000	0.642862
	19.840000	0.596820
	19.845000	0.488292
	19.850000	0.534334
	19.855000	0.636285
	19.860000	0.590242
	19.865000	0.485003
	19.870000	0.524468
	19.875000	0.629707
	19.880000	0.590242
	19.885000	0.478426
	19.890000	0.517891
	19.895000	0.626418
	19.900000	0.586954
	19.905000	0.478426
	19.910000	0.514602
	19.915000	0.623130
	19.920000	0.580376
	19.925000	0.475137
	19.930000	0.511313
	19.935000	0.619841
	19.940000	0.580376
	19.945000	0.471848
	19.950000	0.511313
	19.955000	0.619841
	19.960000	0.573799
	19.965000	0.465271
	19.970000	0.511313
	19.975000	0.609975
	19.980000	0.570510
	19.985000	0.468560
	19.990000	0.508024
	19.995000	0.606686
	20.000000	0.567221
	20.005000	0.461982
	20.010000	0.501447
	20.015000	0.609975
	20.020000	0.567221
	20.025000	0.458694
	20.030000	0.498158
	20.035000	0.600109
	20.040000	0.567221
	20.045000	0.458694
	20.050000	0.501447
	20.055000	0.603397
	20.060000	0.563933
	20.065000	0.455405
	20.070000	0.494869
	20.075000	0.600109
	20.080000	0.563933
	20.085000	0.455405
	20.090000	0.494869
	20.095000	0.593531
	20.100000	0.557355
	20.105000	0.452116
	20.110000	0.491581
	20.115000	0.593531
	20.120000	0.557355
	20.125000	0.448827
	20.130000	0.485003
	20.135000	0.590242
	20.140000	0.550778
	20.145000	0.445539
	20.150000	0.485003
	20.155000	0.590242
	20.160000	0.550778
	20.165000	0.438961
	20.170000	0.475137
	20.175000	0.586954
	20.180000	0.544200
	20.185000	0.442250
	20.190000	0.478426
	20.195000	0.583665
	20.200000	0.547489
	20.205000	0.438961
	20.210000	0.471848
	20.215000	0.577088
	20.220000	0.540912
	20.225000	0.435672
	20.230000	0.471848
	20.235000	0.573799
	20.240000	0.540912
	20.245000	0.438961
	20.250000	0.465271
	20.255000	0.573799
	20.260000	0.537623
	20.265000	0.435672
	20.270000	0.468560
	20.275000	0.570510
	20.280000	0.540912
	20.285000	0.429095
	20.290000	0.471848
	20.295000	0.573799
	20.300000	0.537623
	20.305000	0.432384
	20.310000	0.461982
	20.315000	0.567221
	20.320000	0.537623
	20.325000	0.429095
	20.330000	0.461982
	20.335000	0.570510
	20.340000	0.534334
	20.345000	0.422518
	20.350000	0.455405
	20.355000	0.563933
	20.360000	0.531045
	20.365000	0.425806
	20.370000	0.452116
	20.375000	0.563933
	20.380000	0.531045
	20.385000	0.425806
	20.390000	0.452116
	20.395000	0.560644
	20.400000	0.531045
	20.405000	0.419229
	20.410000	0.452116
	20.415000	0.554066
	20.420000	0.527757
	20.425000	0.419229
	20.430000	0.448827
	20.435000	0.557355
	20.440000	0.531045
	20.445000	0.419229
	20.450000	0.452116
	20.455000	0.560644
	20.460000	0.531045
	20.465000	0.422518
	20.470000	0.445539
	20.475000	0.554066
	20.480000	0.527757
	20.485000	0.419229
	20.490000	0.448827
	20.495000	0.554066
	20.500000	0.527757
	20.505000	0.422518
	20.510000	0.445539
	20.515000	0.560644
	20.520000	0.524468
	20.525000	0.419229
	20.530000	0.445539
	20.535000	0.554066
	20.540000	0.527757
	20.545000	0.415940
	20.550000	0.445539
	20.555000	0.550778
	20.560000	0.527757
	20.565000	0.412651
	20.570000	0.442250
	20.575000	0.550778
	20.580000	0.527757
	20.585000	0.422518
	20.590000	0.442250
	20.595000	0.547489
	20.600000	0.521179
	20.605000	0.415940
	20.610000	0.442250
	20.615000	0.550778
	20.620000	0.517891
	20.625000	0.412651
	20.630000	0.435672
	20.635000	0.547489
	20.640000	0.521179
	20.645000	0.412651
	20.650000	0.438961
	20.655000	0.544200
	20.660000	0.517891
	20.665000	0.409363
	20.670000	0.429095
	20.675000	0.537623
	20.680000	0.517891
	20.685000	0.409363
	20.690000	0.429095
	20.695000	0.537623
	20.700000	0.514602
	20.705000	0.406074
	20.710000	0.429095
	20.715000	0.537623
	20.720000	0.511313
	20.725000	0.402785
	20.730000	0.422518
	20.735000	0.534334
	20.740000	0.511313
	20.745000	0.402785
	20.750000	0.425806
	20.755000	0.531045
	20.760000	0.504736
	20.765000	0.399496
	20.770000	0.422518
	20.775000	0.531045
	20.780000	0.504736
	20.785000	0.396208
	20.790000	0.415940
	20.795000	0.527757
	20.800000	0.504736
	20.805000	0.399496
	20.810000	0.415940
	20.815000	0.527757
	20.820000	0.504736
	20.825000	0.389630
	20.830000	0.412651
	20.835000	0.521179
	20.840000	0.504736
	20.845000	0.389630
	20.850000	0.412651
	20.855000	0.524468
	20.860000	0.504736
	20.865000	0.389630
	20.870000	0.415940
	20.875000	0.521179
	20.880000	0.504736
	20.885000	0.396208
	20.890000	0.409363
	20.895000	0.524468
	20.900000	0.511313
	20.905000	0.392919
	20.910000	0.406074
	20.915000	0.521179
	20.920000	0.508024
	20.925000	0.392919
	20.930000	0.409363
	20.935000	0.524468
	20.940000	0.508024
	20.945000	0.392919
	20.950000	0.406074
	20.955000	0.521179
	20.960000	0.501447
	20.965000	0.389630
	20.970000	0.402785
	20.975000	0.517891
	20.980000	0.494869
	20.985000	0.386342
	20.990000	0.399496
	20.995000	0.504736
	21.000000	0.494869
	21.005000	0.379764
	21.010000	0.386342
	21.015000	0.501447
	21.020000	0.485003
	21.025000	0.373187
	21.030000	0.383053
	21.035000	0.491581
	21.040000	0.478426
	21.045000	0.360032
	21.050000	0.373187
	21.055000	0.485003
	21.060000	0.465271
	21.065000	0.346877
	21.070000	0.363321
	21.075000	0.468560
	21.080000	0.448827
	21.085000	0.327145
	21.090000	0.340299
	21.095000	0.452116
	21.100000	0.435672
	21.105000	0.320567
	21.110000	0.330433
	21.115000	0.438961
	21.120000	0.419229
	21.125000	0.300835
	21.130000	0.313990
	21.135000	0.432384
	21.140000	0.415940
	21.145000	0.287680
	21.150000	0.294257
	21.155000	0.402785
	21.160000	0.379764
	21.165000	0.248215
	21.170000	0.244927
	21.175000	0.350166
	21.180000	0.327145
	21.185000	0.202173
	21.190000	0.221905
	21.195000	0.343588
	21.200000	0.330433
	21.205000	0.215328
	21.210000	0.231772
	21.215000	0.356743
	21.220000	0.346877
	21.225000	0.228483
	21.230000	0.244927
	21.235000	0.363321
	21.240000	0.360032
	21.245000	0.241638
	21.250000	0.254793
	21.255000	0.379764
	21.260000	0.369898
	21.265000	0.254793
	21.270000	0.264659
	21.275000	0.392919
	21.280000	0.379764
	21.285000	0.254793
	21.290000	0.274525
	21.295000	0.392919
	21.300000	0.389630
	21.305000	0.267948
	21.310000	0.281102
	21.315000	0.399496
	21.320000	0.389630
	21.325000	0.271236
	21.330000	0.287680
	21.335000	0.409363
	21.340000	0.399496
	21.345000	0.277814
	21.350000	0.287680
	21.355000	0.406074
	21.360000	0.402785
	21.365000	0.281102
	21.370000	0.287680
	21.375000	0.412651
	21.380000	0.406074
	21.385000	0.287680
	21.390000	0.290969
	21.395000	0.415940
	21.400000	0.409363
	21.405000	0.290969
	21.410000	0.297546
	21.415000	0.429095
	21.420000	0.415940
	21.425000	0.297546
	21.430000	0.307412
	21.435000	0.432384
	21.440000	0.429095
	21.445000	0.307412
	21.450000	0.307412
	21.455000	0.442250
	21.460000	0.438961
	21.465000	0.320567
	21.470000	0.320567
	21.475000	0.445539
	21.480000	0.445539
	21.485000	0.323856
	21.490000	0.327145
	21.495000	0.452116
	21.500000	0.455405
	21.505000	0.327145
	21.510000	0.333722
	21.515000	0.465271
	21.520000	0.458694
	21.525000	0.333722
	21.530000	0.337011
	21.535000	0.465271
	21.540000	0.458694
	21.545000	0.333722
	21.550000	0.337011
	21.555000	0.458694
	21.560000	0.458694
	21.565000	0.327145
	21.570000	0.323856
	21.575000	0.448827
	21.580000	0.445539
	21.585000	0.310701
	21.590000	0.313990
	21.595000	0.442250
	21.600000	0.435672
	21.605000	0.307412
	21.610000	0.300835
	21.615000	0.435672
	21.620000	0.432384
	21.625000	0.297546
	21.630000	0.300835
	21.635000	0.422518
	21.640000	0.422518
	21.645000	0.290969
	21.650000	0.294257
	21.655000	0.422518
	21.660000	0.419229
	21.665000	0.294257
	21.670000	0.294257
	21.675000	0.422518
	21.680000	0.422518
	21.685000	0.300835
	21.690000	0.307412
	21.695000	0.438961
	21.700000	0.448827
	21.705000	0.330433
	21.710000	0.337011
	21.715000	0.478426
	21.720000	0.485003
	21.725000	0.360032
	21.730000	0.360032
	21.735000	0.491581
	21.740000	0.485003
	21.745000	0.363321
	21.750000	0.360032
	21.755000	0.478426
	21.760000	0.485003
	21.765000	0.356743
	21.770000	0.350166
	21.775000	0.468560
	21.780000	0.475137
	21.785000	0.346877
	21.790000	0.333722
	21.795000	0.455405
	21.800000	0.455405
	21.805000	0.327145
	21.810000	0.313990
	21.815000	0.435672
	21.820000	0.432384
	21.825000	0.304124
	21.830000	0.297546
	21.835000	0.419229
	21.840000	0.419229
	21.845000	0.294257
	21.850000	0.284391
	21.855000	0.406074
	21.860000	0.406074
	21.865000	0.281102
	21.870000	0.274525
	21.875000	0.392919
	21.880000	0.392919
	21.885000	0.267948
	21.890000	0.261370
	21.895000	0.379764
	21.900000	0.383053
	21.905000	0.258081
	21.910000	0.251504
	21.915000	0.369898
	21.920000	0.373187
	21.925000	0.248215
	21.930000	0.241638
	21.935000	0.360032
	21.940000	0.363321
	21.945000	0.244927
	21.950000	0.231772
	21.955000	0.353454
	21.960000	0.353454
	21.965000	0.238349
	21.970000	0.225194
	21.975000	0.343588
	21.980000	0.350166
	21.985000	0.228483
	21.990000	0.221905
	21.995000	0.343588
	22.000000	0.346877
	22.005000	0.231772
	22.010000	0.221905
	22.015000	0.340299
	22.020000	0.346877
	22.025000	0.235060
	22.030000	0.218617
	22.035000	0.340299
	22.040000	0.350166
	22.045000	0.231772
	22.050000	0.221905
	22.055000	0.343588
	22.060000	0.353454
	22.065000	0.235060
	22.070000	0.225194
	22.075000	0.340299
	22.080000	0.353454
	22.085000	0.235060
	22.090000	0.225194
	22.095000	0.350166
	22.100000	0.356743
	22.105000	0.241638
	22.110000	0.228483
	22.115000	0.346877
	22.120000	0.356743
	22.125000	0.241638
	22.130000	0.231772
	22.135000	0.353454
	22.140000	0.360032
	22.145000	0.244927
	22.150000	0.235060
	22.155000	0.353454
	22.160000	0.369898
	22.165000	0.248215
	22.170000	0.238349
	22.175000	0.360032
	22.180000	0.369898
	22.185000	0.251504
	22.190000	0.238349
	22.195000	0.363321
	22.200000	0.369898
	22.205000	0.251504
	22.210000	0.238349
	22.215000	0.356743
	22.220000	0.373187
	22.225000	0.251504
	22.230000	0.235060
	22.235000	0.363321
	22.240000	0.369898
	22.245000	0.254793
	22.250000	0.238349
	22.255000	0.353454
	22.260000	0.373187
	22.265000	0.248215
	22.270000	0.231772
	22.275000	0.350166
	22.280000	0.369898
	22.285000	0.248215
	22.290000	0.235060
	22.295000	0.353454
	22.300000	0.366609
	22.305000	0.248215
	22.310000	0.235060
	22.315000	0.346877
	22.320000	0.366609
	22.325000	0.244927
	22.330000	0.228483
	22.335000	0.346877
	22.340000	0.360032
	22.345000	0.238349
	22.350000	0.221905
	22.355000	0.343588
	22.360000	0.360032
	22.365000	0.241638
	22.370000	0.221905
	22.375000	0.343588
	22.380000	0.356743
	22.385000	0.238349
	22.390000	0.215328
	22.395000	0.337011
	22.400000	0.350166
	22.405000	0.235060
	22.410000	0.208751
	22.415000	0.330433
	22.420000	0.346877
	22.425000	0.228483
	22.430000	0.212039
	22.435000	0.327145
	22.440000	0.346877
	22.445000	0.225194
	22.450000	0.205462
	22.455000	0.320567
	22.460000	0.340299
	22.465000	0.221905
	22.470000	0.202173
	22.475000	0.317278
	22.480000	0.337011
	22.485000	0.212039
	22.490000	0.198884
	22.495000	0.310701
	22.500000	0.333722
	22.505000	0.212039
	22.510000	0.195596
	22.515000	0.310701
	22.520000	0.330433
	22.525000	0.212039
	22.530000	0.189018
	22.535000	0.310701
	22.540000	0.330433
	22.545000	0.212039
	22.550000	0.185730
	22.555000	0.297546
	22.560000	0.327145
	22.565000	0.208751
	22.570000	0.182441
	22.575000	0.300835
	22.580000	0.323856
	22.585000	0.202173
	22.590000	0.185730
	22.595000	0.300835
	22.600000	0.320567
	22.605000	0.205462
	22.610000	0.182441
	22.615000	0.297546
	22.620000	0.327145
	22.625000	0.202173
	22.630000	0.179152
	22.635000	0.297546
	22.640000	0.320567
	22.645000	0.202173
	22.650000	0.179152
	22.655000	0.294257
	22.660000	0.320567
	22.665000	0.198884
	22.670000	0.175863
	22.675000	0.294257
	22.680000	0.317278
	22.685000	0.202173
	22.690000	0.175863
	22.695000	0.290969
	22.700000	0.320567
	22.705000	0.195596
	22.710000	0.172575
	22.715000	0.297546
	22.720000	0.317278
	22.725000	0.198884
	22.730000	0.172575
	22.735000	0.294257
	22.740000	0.313990
	22.745000	0.195596
	22.750000	0.172575
	22.755000	0.290969
	22.760000	0.310701
	22.765000	0.195596
	22.770000	0.175863
	22.775000	0.281102
	22.780000	0.313990
	22.785000	0.195596
	22.790000	0.165997
	22.795000	0.284391
	22.800000	0.313990
	22.805000	0.195596
	22.810000	0.165997
	22.815000	0.284391
	22.820000	0.313990
	22.825000	0.195596
	22.830000	0.162708
	22.835000	0.277814
	22.840000	0.310701
	22.845000	0.195596
	22.850000	0.159420
	22.855000	0.281102
	22.860000	0.307412
	22.865000	0.192307
	22.870000	0.162708
	22.875000	0.274525
	22.880000	0.310701
	22.885000	0.192307
	22.890000	0.162708
	22.895000	0.274525
	22.900000	0.307412
	22.905000	0.189018
	22.910000	0.156131
	22.915000	0.277814
	22.920000	0.304124
	22.925000	0.185730
	22.930000	0.159420
	22.935000	0.277814
	22.940000	0.307412
	22.945000	0.192307
	22.950000	0.162708
	22.955000	0.274525
	22.960000	0.307412
	22.965000	0.185730
	22.970000	0.156131
	22.975000	0.274525
	22.980000	0.304124
	22.985000	0.189018
	22.990000	0.156131
	22.995000	0.277814
	23.000000	0.304124
	23.005000	0.189018
	23.010000	0.156131
	23.015000	0.267948
	23.020000	0.307412
	23.025000	0.189018
	23.030000	0.152842
	23.035000	0.274525
	23.040000	0.304124
	23.045000	0.189018
	23.050000	0.156131
	23.055000	0.274525
	23.060000	0.307412
	23.065000	0.198884
	23.070000	0.152842
	23.075000	0.274525
	23.080000	0.307412
	23.085000	0.192307
	23.090000	0.159420
	23.095000	0.271236
	23.100000	0.304124
	23.105000	0.195596
	23.110000	0.156131
	23.115000	0.271236
	23.120000	0.310701
	23.125000	0.189018
	23.130000	0.156131
	23.135000	0.271236
	23.140000	0.304124
	23.145000	0.189018
	23.150000	0.156131
	23.155000	0.267948
	23.160000	0.307412
	23.165000	0.198884
	23.170000	0.159420
	23.175000	0.264659
	23.180000	0.307412
	23.185000	0.189018
	23.190000	0.152842
	23.195000	0.264659
	23.200000	0.304124
	23.205000	0.182441
	23.210000	0.149554
	23.215000	0.264659
	23.220000	0.304124
	23.225000	0.189018
	23.230000	0.149554
	23.235000	0.264659
	23.240000	0.300835
	23.245000	0.185730
	23.250000	0.146265
	23.255000	0.261370
	23.260000	0.304124
	23.265000	0.189018
	23.270000	0.142976
	23.275000	0.261370
	23.280000	0.300835
	23.285000	0.185730
	23.290000	0.142976
	23.295000	0.254793
	23.300000	0.297546
	23.305000	0.175863
	23.310000	0.139687
	23.315000	0.254793
	23.320000	0.297546
	23.325000	0.179152
	23.330000	0.139687
	23.335000	0.261370
	23.340000	0.297546
	23.345000	0.182441
	23.350000	0.142976
	23.355000	0.254793
	23.360000	0.294257
	23.365000	0.182441
	23.370000	0.139687
	23.375000	0.254793
	23.380000	0.294257
	23.385000	0.179152
	23.390000	0.142976
	23.395000	0.254793
	23.400000	0.297546
	23.405000	0.179152
	23.410000	0.136399
	23.415000	0.254793
	23.420000	0.297546
	23.425000	0.179152
	23.430000	0.136399
	23.435000	0.258081
	23.440000	0.297546
	23.445000	0.179152
	23.450000	0.142976
	23.455000	0.254793
	23.460000	0.294257
	23.465000	0.185730
	23.470000	0.142976
	23.475000	0.254793
	23.480000	0.300835
	23.485000	0.189018
	23.490000	0.139687
	23.495000	0.258081
	23.500000	0.297546
	23.505000	0.189018
	23.510000	0.139687
	23.515000	0.254793
	23.520000	0.300835
	23.525000	0.182441
	23.530000	0.139687
	23.535000	0.254793
	23.540000	0.300835
	23.545000	0.192307
	23.550000	0.136399
	23.555000	0.248215
	23.560000	0.300835
	23.565000	0.185730
	23.570000	0.142976
	23.575000	0.254793
	23.580000	0.300835
	23.585000	0.182441
	23.590000	0.139687
	23.595000	0.254793
	23.600000	0.300835
	23.605000	0.189018
	23.610000	0.139687
	23.615000	0.254793
	23.620000	0.300835
	23.625000	0.182441
	23.630000	0.139687
	23.635000	0.251504
	23.640000	0.304124
	23.645000	0.185730
	23.650000	0.136399
	23.655000	0.251504
	23.660000	0.294257
	23.665000	0.185730
	23.670000	0.136399
	23.675000	0.244927
	23.680000	0.300835
	23.685000	0.185730
	23.690000	0.136399
	23.695000	0.241638
	23.700000	0.300835
	23.705000	0.182441
	23.710000	0.133110
	23.715000	0.244927
	23.720000	0.297546
	23.725000	0.185730
	23.730000	0.129821
	23.735000	0.241638
	23.740000	0.294257
	23.745000	0.182441
	23.750000	0.129821
	23.755000	0.248215
	23.760000	0.294257
	23.765000	0.179152
	23.770000	0.133110
	23.775000	0.241638
	23.780000	0.294257
	23.785000	0.182441
	23.790000	0.133110
	23.795000	0.244927
	23.800000	0.297546
	23.805000	0.182441
	23.810000	0.133110
	23.815000	0.241638
	23.820000	0.294257
	23.825000	0.179152
	23.830000	0.133110
	23.835000	0.241638
	23.840000	0.297546
	23.845000	0.185730
	23.850000	0.129821
	23.855000	0.241638
	23.860000	0.294257
	23.865000	0.185730
	23.870000	0.129821
	23.875000	0.241638
	23.880000	0.287680
	23.885000	0.179152
	23.890000	0.133110
	23.895000	0.235060
	23.900000	0.290969
	23.905000	0.172575
	23.910000	0.129821
	23.915000	0.238349
	23.920000	0.287680
	23.925000	0.175863
	23.930000	0.123244
	23.935000	0.238349
	23.940000	0.290969
	23.945000	0.182441
	23.950000	0.126533
	23.955000	0.238349
	23.960000	0.290969
	23.965000	0.179152
	23.970000	0.119955
	23.975000	0.231772
	23.980000	0.287680
	23.985000	0.175863
	23.990000	0.119955
	23.995000	0.228483
	24.000000	0.284391
	24.005000	0.179152
	24.010000	0.116666
	24.015000	0.228483
	24.020000	0.287680
	24.025000	0.175863
	24.030000	0.119955
	24.035000	0.228483
	24.040000	0.281102
	24.045000	0.175863
	24.050000	0.116666
	24.055000	0.228483
	24.060000	0.284391
	24.065000	0.172575
	24.070000	0.119955
	24.075000	0.225194
	24.080000	0.277814
	24.085000	0.172575
	24.090000	0.113378
	24.095000	0.221905
	24.100000	0.281102
	24.105000	0.169286
	24.110000	0.106800
	24.115000	0.221905
	24.120000	0.281102
	24.125000	0.169286
	24.130000	0.113378
	24.135000	0.218617
	24.140000	0.281102
	24.145000	0.169286
	24.150000	0.106800
	24.155000	0.221905
	24.160000	0.277814
	24.165000	0.165997
	24.170000	0.110089
	24.175000	0.215328
	24.180000	0.277814
	24.185000	0.169286
	24.190000	0.106800
	24.195000	0.215328
	24.200000	0.274525
	24.205000	0.162708
	24.210000	0.103511
	24.215000	0.215328
	24.220000	0.274525
	24.225000	0.165997
	24.230000	0.103511
	24.235000	0.221905
	24.240000	0.277814
	24.245000	0.169286
	24.250000	0.103511
	24.255000	0.208751
	24.260000	0.274525
	24.265000	0.159420
	24.270000	0.090357
	24.275000	0.198884
	24.280000	0.258081
	24.285000	0.139687
	24.290000	0.073913
	24.295000	0.189018
	24.300000	0.248215
	24.305000	0.126533
	24.310000	0.060758
	24.315000	0.172575
	24.320000	0.238349
	24.325000	0.123244
	24.330000	0.057469
	24.335000	0.172575
	24.340000	0.235060
	24.345000	0.113378
	24.350000	0.041026
	24.355000	0.146265
	24.360000	0.205462
	24.365000	0.080490
	24.370000	0.001561
	24.375000	0.110089
	24.380000	0.172575
	24.385000	0.050892
	24.390000	-0.034615
	24.395000	0.077202
	24.400000	0.146265
	24.405000	0.031160
	24.410000	-0.041192
	24.415000	0.080490
	24.420000	0.149554
	24.425000	0.044314
	24.430000	-0.031326
	24.435000	0.090357
	24.440000	0.165997
	24.445000	0.054181
	24.450000	-0.011594
	24.455000	0.100223
	24.460000	0.179152
	24.465000	0.060758
	24.470000	-0.011594
	24.475000	0.110089
	24.480000	0.185730
	24.485000	0.067335
	24.490000	-0.005016
	24.495000	0.116666
	24.500000	0.198884
	24.505000	0.087068
	24.510000	0.018005
	24.515000	0.139687
	24.520000	0.221905
	24.525000	0.103511
	24.530000	0.024582
	24.535000	0.149554
	24.540000	0.221905
	24.545000	0.106800
	24.550000	0.024582
	24.555000	0.146265
	24.560000	0.228483
	24.565000	0.113378
	24.570000	0.027871
	24.575000	0.146265
	24.580000	0.231772
	24.585000	0.116666
	24.590000	0.027871
	24.595000	0.149554
	24.600000	0.235060
	24.605000	0.116666
	24.610000	0.034448
	24.615000	0.156131
	24.620000	0.238349
	24.625000	0.119955
	24.630000	0.037737
	24.635000	0.159420
	24.640000	0.244927
	24.645000	0.129821
	24.650000	0.054181
	24.655000	0.175863
	24.660000	0.261370
	24.665000	0.156131
	24.670000	0.087068
	24.675000	0.228483
	24.680000	0.340299
	24.685000	0.267948
	24.690000	0.215328
	24.695000	0.353454
	24.700000	0.448827
	24.705000	0.353454
	24.710000	0.277814
	24.715000	0.402785
	24.720000	0.491581
	24.725000	0.392919
	24.730000	0.320567
	24.735000	0.435672
	24.740000	0.521179
	24.745000	0.406074
	24.750000	0.333722
	24.755000	0.448827
	24.760000	0.531045
	24.765000	0.422518
	24.770000	0.340299
	24.775000	0.445539
	24.780000	0.524468
	24.785000	0.415940
	24.790000	0.333722
	24.795000	0.438961
	24.800000	0.517891
	24.805000	0.402785
	24.810000	0.323856
	24.815000	0.432384
	24.820000	0.521179
	24.825000	0.412651
	24.830000	0.343588
	24.835000	0.455405
	24.840000	0.547489
	24.845000	0.448827
	24.850000	0.373187
	24.855000	0.481715
	24.860000	0.563933
	24.865000	0.458694
	24.870000	0.373187
	24.875000	0.488292
	24.880000	0.573799
	24.885000	0.471848
	24.890000	0.386342
	24.895000	0.498158
	24.900000	0.580376
	24.905000	0.468560
	24.910000	0.383053
	24.915000	0.488292
	24.920000	0.570510
	24.925000	0.458694
	24.930000	0.369898
	24.935000	0.475137
	24.940000	0.547489
	24.945000	0.432384
	24.950000	0.350166
	24.955000	0.448827
	24.960000	0.527757
	24.965000	0.409363
	24.970000	0.320567
	24.975000	0.432384
	24.980000	0.508024
	24.985000	0.396208
	24.990000	0.313990
	24.995000	0.419229
	25.000000	0.494869
	25.005000	0.386342
	25.010000	0.307412
	25.015000	0.406074
	25.020000	0.478426
	25.025000	0.383053
	25.030000	0.294257
	25.035000	0.396208
	25.040000	0.478426
	25.045000	0.373187
	25.050000	0.290969
	25.055000	0.389630
	25.060000	0.471848
	25.065000	0.369898
	25.070000	0.284391
	25.075000	0.389630
	25.080000	0.471848
	25.085000	0.366609
	25.090000	0.287680
	25.095000	0.383053
	25.100000	0.465271
	25.105000	0.360032
	25.110000	0.284391
	25.115000	0.373187
	25.120000	0.461982
	25.125000	0.366609
	25.130000	0.277814
	25.135000	0.376475
	25.140000	0.461982
	25.145000	0.363321
	25.150000	0.274525
	25.155000	0.369898
	25.160000	0.458694
	25.165000	0.356743
	25.170000	0.271236
	25.175000	0.369898
	25.180000	0.455405
	25.185000	0.356743
	25.190000	0.274525
	25.195000	0.366609
	25.200000	0.448827
	25.205000	0.350166
	25.210000	0.261370
	25.215000	0.366609
	25.220000	0.448827
	25.225000	0.346877
	25.230000	0.261370
	25.235000	0.360032
	25.240000	0.442250
	25.245000	0.340299
	25.250000	0.258081
	25.255000	0.350166
	25.260000	0.435672
	25.265000	0.333722
	25.270000	0.248215
	25.275000	0.350166
	25.280000	0.435672
	25.285000	0.330433
	25.290000	0.241638
	25.295000	0.340299
	25.300000	0.422518
	25.305000	0.327145
	25.310000	0.238349
	25.315000	0.333722
	25.320000	0.415940
	25.325000	0.320567
	25.330000	0.231772
	25.335000	0.323856
	25.340000	0.415940
	25.345000	0.320567
	25.350000	0.225194
	25.355000	0.323856
	25.360000	0.409363
	25.365000	0.310701
	25.370000	0.221905
	25.375000	0.317278
	25.380000	0.402785
	25.385000	0.304124
	25.390000	0.215328
	25.395000	0.310701
	25.400000	0.399496
	25.405000	0.304124
	25.410000	0.215328
	25.415000	0.307412
	25.420000	0.396208
	25.425000	0.297546
	25.430000	0.212039
	25.435000	0.307412
	25.440000	0.392919
	25.445000	0.294257
	25.450000	0.208751
	25.455000	0.300835
	25.460000	0.392919
	25.465000	0.287680
	25.470000	0.205462
	25.475000	0.290969
	25.480000	0.383053
	25.485000	0.284391
	25.490000	0.195596
	25.495000	0.287680
	25.500000	0.379764
	25.505000	0.284391
	25.510000	0.185730
	25.515000	0.284391
	25.520000	0.366609
	25.525000	0.277814
	25.530000	0.182441
	25.535000	0.281102
	25.540000	0.369898
	25.545000	0.274525
	25.550000	0.185730
	25.555000	0.274525
	25.560000	0.363321
	25.565000	0.274525
	25.570000	0.179152
	25.575000	0.274525
	25.580000	0.360032
	25.585000	0.267948
	25.590000	0.175863
	25.595000	0.271236
	25.600000	0.360032
	25.605000	0.264659
	25.610000	0.175863
	25.615000	0.274525
	25.620000	0.356743
	25.625000	0.261370
	25.630000	0.169286
	25.635000	0.267948
	25.640000	0.356743
	25.645000	0.264659
	25.650000	0.169286
	25.655000	0.261370
	25.660000	0.356743
	25.665000	0.264659
	25.670000	0.172575
	25.675000	0.261370
	25.680000	0.350166
	25.685000	0.258081
	25.690000	0.169286
	25.695000	0.261370
	25.700000	0.353454
	25.705000	0.258081
	25.710000	0.162708
	25.715000	0.258081
	25.720000	0.346877
	25.725000	0.261370
	25.730000	0.162708
	25.735000	0.251504
	25.740000	0.346877
	25.745000	0.258081
	25.750000	0.162708
	25.755000	0.248215
	25.760000	0.343588
	25.765000	0.251504
	25.770000	0.159420
	25.775000	0.254793
	25.780000	0.346877
	25.785000	0.254793
	25.790000	0.162708
	25.795000	0.258081
	25.800000	0.343588
	25.805000	0.258081
	25.810000	0.159420
	25.815000	0.248215
	25.820000	0.343588
	25.825000	0.254793
	25.830000	0.162708
	25.835000	0.248215
	25.840000	0.346877
	25.845000	0.254793
	25.850000	0.159420
	25.855000	0.251504
	25.860000	0.350166
	25.865000	0.258081
	25.870000	0.159420
	25.875000	0.251504
	25.880000	0.343588
	25.885000	0.254793
	25.890000	0.159420
	25.895000	0.248215
	25.900000	0.340299
	25.905000	0.254793
	25.910000	0.159420
	25.915000	0.244927
	25.920000	0.340299
	25.925000	0.254793
	25.930000	0.152842
	25.935000	0.235060
	25.940000	0.330433
	25.945000	0.248215
	25.950000	0.149554
	25.955000	0.238349
	25.960000	0.330433
	25.965000	0.241638
	25.970000	0.142976
	25.975000	0.238349
	25.980000	0.330433
	25.985000	0.241638
	25.990000	0.142976
	25.995000	0.225194
	26.000000	0.327145
	26.005000	0.238349
	26.010000	0.136399
	26.015000	0.221905
	26.020000	0.317278
	26.025000	0.228483
	26.030000	0.133110
	26.035000	0.215328
	26.040000	0.313990
	26.045000	0.228483
	26.050000	0.123244
	26.055000	0.205462
	26.060000	0.300835
	26.065000	0.208751
	26.070000	0.110089
	26.075000	0.192307
	26.080000	0.290969
	26.085000	0.202173
	26.090000	0.103511
	26.095000	0.185730
	26.100000	0.287680
	26.105000	0.202173
	26.110000	0.093645
	26.115000	0.179152
	26.120000	0.284391
	26.125000	0.195596
	26.130000	0.100223
	26.135000	0.182441
	26.140000	0.281102
	26.145000	0.195596
	26.150000	0.093645
	26.155000	0.175863
	26.160000	0.277814
	26.165000	0.192307
	26.170000	0.087068
	26.175000	0.169286
	26.180000	0.274525
	26.185000	0.185730
	26.190000	0.087068
	26.195000	0.165997
	26.200000	0.274525
	26.205000	0.182441
	26.210000	0.083779
	26.215000	0.165997
	26.220000	0.267948
	26.225000	0.179152
	26.230000	0.080490
	26.235000	0.159420
	26.240000	0.264659
	26.245000	0.182441
	26.250000	0.073913
	26.255000	0.156131
	26.260000	0.261370
	26.265000	0.175863
	26.270000	0.070624
	26.275000	0.149554
	26.280000	0.254793
	26.285000	0.172575
	26.290000	0.073913
	26.295000	0.146265
	26.300000	0.251504
	26.305000	0.169286
	26.310000	0.070624
	26.315000	0.149554
	26.320000	0.251504
	26.325000	0.172575
	26.330000	0.070624
	26.335000	0.142976
	26.340000	0.254793
	26.345000	0.172575
	26.350000	0.067335
	26.355000	0.146265
	26.360000	0.248215
	26.365000	0.169286
	26.370000	0.064047
	26.375000	0.146265
	26.380000	0.248215
	26.385000	0.162708
	26.390000	0.064047
	26.395000	0.139687
	26.400000	0.248215
	26.405000	0.159420
	26.410000	0.060758
	26.415000	0.136399
	26.420000	0.241638
	26.425000	0.165997
	26.430000	0.060758
	26.435000	0.136399
	26.440000	0.238349
	26.445000	0.162708
	26.450000	0.057469
	26.455000	0.133110
	26.460000	0.238349
	26.465000	0.162708
	26.470000	0.054181
	26.475000	0.133110
	26.480000	0.238349
	26.485000	0.162708
	26.490000	0.057469
	26.495000	0.129821
	26.500000	0.241638
	26.505000	0.162708
	26.510000	0.054181
	26.515000	0.129821
	26.520000	0.238349
	26.525000	0.162708
	26.530000	0.054181
	26.535000	0.129821
	26.540000	0.235060
	26.545000	0.159420
	26.550000	0.060758
	26.555000	0.129821
	26.560000	0.235060
	26.565000	0.156131
	26.570000	0.050892
	26.575000	0.126533
	26.580000	0.238349
	26.585000	0.159420
	26.590000	0.050892
	26.595000	0.126533
	26.600000	0.231772
	26.605000	0.156131
	26.610000	0.050892
	26.615000	0.126533
	26.620000	0.228483
	26.625000	0.159420
	26.630000	0.047603
	26.635000	0.123244
	26.640000	0.228483
	26.645000	0.159420
	26.650000	0.050892
	26.655000	0.119955
	26.660000	0.238349
	26.665000	0.162708
	26.670000	0.050892
	26.675000	0.133110
	26.680000	0.235060
	26.685000	0.159420
	26.690000	0.054181
	26.695000	0.123244
	26.700000	0.238349
	26.705000	0.165997
	26.710000	0.054181
	26.715000	0.126533
	26.720000	0.238349
	26.725000	0.165997
	26.730000	0.057469
	26.735000	0.129821
	26.740000	0.235060
	26.745000	0.165997
	26.750000	0.060758
	26.755000	0.126533
	26.760000	0.238349
	26.765000	0.165997
	26.770000	0.057469
	26.775000	0.126533
	26.780000	0.238349
	26.785000	0.172575
	26.790000	0.064047
	26.795000	0.126533
	26.800000	0.238349
	26.805000	0.175863
	26.810000	0.057469
	26.815000	0.129821
	26.820000	0.241638
	26.825000	0.172575
	26.830000	0.060758
	26.835000	0.129821
	26.840000	0.241638
	26.845000	0.175863
	26.850000	0.064047
	26.855000	0.133110
	26.860000	0.248215
	26.865000	0.175863
	26.870000	0.070624
	26.875000	0.136399
	26.880000	0.248215
	26.885000	0.182441
	26.890000	0.067335
	26.895000	0.136399
	26.900000	0.248215
	26.905000	0.185730
	26.910000	0.070624
	26.915000	0.139687
	26.920000	0.251504
	26.925000	0.189018
	26.930000	0.077202
	26.935000	0.136399
	26.940000	0.251504
	26.945000	0.189018
	26.950000	0.073913
	26.955000	0.139687
	26.960000	0.251504
	26.965000	0.189018
	26.970000	0.073913
	26.975000	0.146265
	26.980000	0.254793
	26.985000	0.189018
	26.990000	0.080490
	26.995000	0.146265
	27.000000	0.261370
	27.005000	0.195596
	27.010000	0.083779
	27.015000	0.152842
	27.020000	0.264659
	27.025000	0.202173
	27.030000	0.083779
	27.035000	0.149554
	27.040000	0.264659
	27.045000	0.198884
	27.050000	0.083779
	27.055000	0.156131
	27.060000	0.261370
	27.065000	0.202173
	27.070000	0.087068
	27.075000	0.152842
	27.080000	0.264659
	27.085000	0.202173
	27.090000	0.087068
	27.095000	0.149554
	27.100000	0.264659
	27.105000	0.202173
	27.110000	0.090357
	27.115000	0.152842
	27.120000	0.264659
	27.125000	0.202173
	27.130000	0.090357
	27.135000	0.146265
	27.140000	0.261370
	27.145000	0.195596
	27.150000	0.080490
	27.155000	0.142976
	27.160000	0.254793
	27.165000	0.189018
	27.170000	0.070624
	27.175000	0.129821
	27.180000	0.248215
	27.185000	0.182441
	27.190000	0.064047
	27.195000	0.123244
	27.200000	0.238349
	27.205000	0.165997
	27.210000	0.054181
	27.215000	0.106800
	27.220000	0.215328
	27.225000	0.152842
	27.230000	0.034448
	27.235000	0.090357
	27.240000	0.205462
	27.245000	0.142976
	27.250000	0.021293
	27.255000	0.083779
	27.260000	0.205462
	27.265000	0.149554
	27.270000	0.031160
	27.275000	0.096934
	27.280000	0.218617
	27.285000	0.142976
	27.290000	-0.001728
	27.295000	0.050892
	27.300000	0.159420
	27.305000	0.083779
	27.310000	-0.064213
	27.315000	-0.031326
	27.320000	0.093645
	27.325000	0.041026
	27.330000	-0.083946
	27.335000	-0.011594
	27.340000	0.116666
	27.345000	0.060758
	27.350000	-0.057636
	27.355000	0.004850
	27.360000	0.136399
	27.365000	0.080490
	27.370000	-0.037904
	27.375000	0.027871
	27.380000	0.156131
	27.385000	0.093645
	27.390000	-0.024749
	27.395000	0.044314
	27.400000	0.169286
	27.405000	0.113378
	27.410000	-0.011594
	27.415000	0.050892
	27.420000	0.179152
	27.425000	0.123244
	27.430000	0.001561
	27.435000	0.057469
	27.440000	0.195596
	27.445000	0.133110
	27.450000	0.008138
	27.455000	0.070624
	27.460000	0.205462
	27.465000	0.146265
	27.470000	0.018005
	27.475000	0.077202
	27.480000	0.215328
	27.485000	0.156131
	27.490000	0.024582
	27.495000	0.080490
	27.500000	0.218617
	27.505000	0.162708
	27.510000	0.027871
	27.515000	0.083779
	27.520000	0.221905
	27.525000	0.165997
	27.530000	0.027871
	27.535000	0.090357
	27.540000	0.228483
	27.545000	0.165997
	27.550000	0.034448
	27.555000	0.090357
	27.560000	0.231772
	27.565000	0.169286
	27.570000	0.037737
	27.575000	0.093645
	27.580000	0.225194
	27.585000	0.172575
	27.590000	0.037737
	27.595000	0.096934
	27.600000	0.235060
	27.605000	0.175863
	27.610000	0.041026
	27.615000	0.103511
	27.620000	0.235060
	27.625000	0.182441
	27.630000	0.047603
	27.635000	0.103511
	27.640000	0.238349
	27.645000	0.185730
	27.650000	0.050892
	27.655000	0.103511
	27.660000	0.241638
	27.665000	0.192307
	27.670000	0.057469
	27.675000	0.116666
	27.680000	0.261370
	27.685000	0.221905
	27.690000	0.100223
	27.695000	0.185730
	27.700000	0.363321
	27.705000	0.369898
	27.710000	0.320567
	27.715000	0.432384
	27.720000	0.600109
	27.725000	0.560644
	27.730000	0.425806
	27.735000	0.478426
	27.740000	0.603397
	27.745000	0.550778
	27.750000	0.415940
	27.755000	0.465271
	27.760000	0.590242
	27.765000	0.537623
	27.770000	0.399496
	27.775000	0.445539
	27.780000	0.570510
	27.785000	0.514602
	27.790000	0.383053
	27.795000	0.422518
	27.800000	0.550778
	27.805000	0.494869
	27.810000	0.360032
	27.815000	0.412651
	27.820000	0.540912
	27.825000	0.498158
	27.830000	0.366609
	27.835000	0.425806
	27.840000	0.560644
	27.845000	0.514602
	27.850000	0.389630
	27.855000	0.442250
	27.860000	0.577088
	27.865000	0.527757
	27.870000	0.399496
	27.875000	0.452116
	27.880000	0.580376
	27.885000	0.534334
	27.890000	0.406074
	27.895000	0.448827
	27.900000	0.583665
	27.905000	0.537623
	27.910000	0.406074
	27.915000	0.445539
	27.920000	0.577088
	27.925000	0.527757
	27.930000	0.392919
	27.935000	0.435672
	27.940000	0.560644
	27.945000	0.514602
	27.950000	0.386342
	27.955000	0.422518
	27.960000	0.550778
	27.965000	0.498158
	27.970000	0.369898
	27.975000	0.412651
	27.980000	0.537623
	27.985000	0.491581
	27.990000	0.356743
	27.995000	0.396208
	28.000000	0.521179
	28.005000	0.478426
	28.010000	0.343588
	28.015000	0.386342
	28.020000	0.511313
	28.025000	0.461982
	28.030000	0.330433
	28.035000	0.369898
	28.040000	0.494869
	28.045000	0.448827
	28.050000	0.317278
	28.055000	0.356743
	28.060000	0.485003
	28.065000	0.438961
	28.070000	0.307412
	28.075000	0.340299
	28.080000	0.471848
	28.085000	0.422518
	28.090000	0.290969
	28.095000	0.330433
	28.100000	0.452116
	28.105000	0.415940
	28.110000	0.284391
	28.115000	0.323856
	28.120000	0.455405
	28.125000	0.409363
	28.130000	0.274525
	28.135000	0.310701
	28.140000	0.442250
	28.145000	0.396208
	28.150000	0.261370
	28.155000	0.300835
	28.160000	0.425806
	28.165000	0.386342
	28.170000	0.254793
	28.175000	0.294257
	28.180000	0.422518
	28.185000	0.383053
	28.190000	0.254793
	28.195000	0.287680
	28.200000	0.419229
	28.205000	0.379764
	28.210000	0.248215
	28.215000	0.284391
	28.220000	0.412651
	28.225000	0.373187
	28.230000	0.244927
	28.235000	0.284391
	28.240000	0.415940
	28.245000	0.373187
	28.250000	0.244927
	28.255000	0.281102
	28.260000	0.409363
	28.265000	0.379764
	28.270000	0.248215
	28.275000	0.284391
	28.280000	0.406074
	28.285000	0.373187
	28.290000	0.238349
	28.295000	0.277814
	28.300000	0.409363
	28.305000	0.373187
	28.310000	0.241638
	28.315000	0.274525
	28.320000	0.402785
	28.325000	0.373187
	28.330000	0.235060
	28.335000	0.267948
	28.340000	0.399496
	28.345000	0.366609
	28.350000	0.235060
	28.355000	0.261370
	28.360000	0.392919
	28.365000	0.353454
	28.370000	0.221905
	28.375000	0.254793
	28.380000	0.386342
	28.385000	0.350166
	28.390000	0.221905
	28.395000	0.248215
	28.400000	0.379764
	28.405000	0.350166
	28.410000	0.212039
	28.415000	0.244927
	28.420000	0.373187
	28.425000	0.346877
	28.430000	0.208751
	28.435000	0.238349
	28.440000	0.373187
	28.445000	0.340299
	28.450000	0.205462
	28.455000	0.235060
	28.460000	0.366609
	28.465000	0.330433
	28.470000	0.195596
	28.475000	0.228483
	28.480000	0.360032
	28.485000	0.327145
	28.490000	0.195596
	28.495000	0.218617
	28.500000	0.360032
	28.505000	0.323856
	28.510000	0.192307
	28.515000	0.218617
	28.520000	0.353454
	28.525000	0.320567
	28.530000	0.182441
	28.535000	0.208751
	28.540000	0.340299
	28.545000	0.313990
	28.550000	0.179152
	28.555000	0.202173
	28.560000	0.333722
	28.565000	0.304124
	28.570000	0.172575
	28.575000	0.202173
	28.580000	0.327145
	28.585000	0.297546
	28.590000	0.169286
	28.595000	0.192307
	28.600000	0.327145
	28.605000	0.297546
	28.610000	0.159420
	28.615000	0.185730
	28.620000	0.323856
	28.625000	0.287680
	28.630000	0.156131
	28.635000	0.175863
	28.640000	0.313990
	28.645000	0.287680
	28.650000	0.146265
	28.655000	0.175863
	28.660000	0.307412
	28.665000	0.277814
	28.670000	0.146265
	28.675000	0.165997
	28.680000	0.300835
	28.685000	0.271236
	28.690000	0.136399
	28.695000	0.156131
	28.700000	0.290969
	28.705000	0.267948
	28.710000	0.129821
	28.715000	0.159420
	28.720000	0.290969
	28.725000	0.261370
	28.730000	0.136399
	28.735000	0.152842
	28.740000	0.284391
	28.745000	0.261370
	28.750000	0.129821
	28.755000	0.146265
	28.760000	0.284391
	28.765000	0.261370
	28.770000	0.126533
	28.775000	0.149554
	28.780000	0.281102
	28.785000	0.258081
	28.790000	0.119955
	28.795000	0.146265
	28.800000	0.281102
	28.805000	0.264659
	28.810000	0.123244
	28.815000	0.146265
	28.820000	0.284391
	28.825000	0.258081
	28.830000	0.123244
	28.835000	0.146265
	28.840000	0.281102
	28.845000	0.258081
	28.850000	0.119955
	28.855000	0.139687
	28.860000	0.281102
	28.865000	0.254793
	28.870000	0.119955
	28.875000	0.136399
	28.880000	0.277814
	28.885000	0.258081
	28.890000	0.123244
	28.895000	0.139687
	28.900000	0.274525
	28.905000	0.248215
	28.910000	0.116666
	28.915000	0.136399
	28.920000	0.271236
	28.925000	0.248215
	28.930000	0.119955
	28.935000	0.139687
	28.940000	0.271236
	28.945000	0.248215
	28.950000	0.113378
	28.955000	0.136399
	28.960000	0.264659
	28.965000	0.251504
	28.970000	0.113378
	28.975000	0.129821
	28.980000	0.271236
	28.985000	0.244927
	28.990000	0.106800
	28.995000	0.126533
	29.000000	0.261370
	29.005000	0.244927
	29.010000	0.106800
	29.015000	0.119955
	29.020000	0.258081
	29.025000	0.241638
	29.030000	0.106800
	29.035000	0.119955
	29.040000	0.254793
	29.045000	0.244927
	29.050000	0.103511
	29.055000	0.116666
	29.060000	0.258081
	29.065000	0.238349
	29.070000	0.103511
	29.075000	0.116666
	29.080000	0.251504
	29.085000	0.241638
	29.090000	0.100223
	29.095000	0.113378
	29.100000	0.248215
	29.105000	0.235060
	29.110000	0.100223
	29.115000	0.110089
	29.120000	0.241638
	29.125000	0.238349
	29.130000	0.096934
	29.135000	0.110089
	29.140000	0.244927
	29.145000	0.235060
	29.150000	0.096934
	29.155000	0.106800
	29.160000	0.238349
	29.165000	0.228483
	29.170000	0.093645
	29.175000	0.106800
	29.180000	0.241638
	29.185000	0.231772
	29.190000	0.093645
	29.195000	0.100223
	29.200000	0.235060
	29.205000	0.231772
	29.210000	0.093645
	29.215000	0.103511
	29.220000	0.238349
	29.225000	0.231772
	29.230000	0.090357
	29.235000	0.100223
	29.240000	0.238349
	29.245000	0.228483
	29.250000	0.090357
	29.255000	0.103511
	29.260000	0.238349
	29.265000	0.235060
	29.270000	0.090357
	29.275000	0.100223
	29.280000	0.238349
	29.285000	0.228483
	29.290000	0.096934
	29.295000	0.100223
	29.300000	0.238349
	29.305000	0.228483
	29.310000	0.090357
	29.315000	0.096934
	29.320000	0.238349
	29.325000	0.225194
	29.330000	0.093645
	29.335000	0.100223
	29.340000	0.228483
	29.345000	0.225194
	29.350000	0.090357
	29.355000	0.096934
	29.360000	0.231772
	29.365000	0.221905
	29.370000	0.090357
	29.375000	0.090357
	29.380000	0.225194
	29.385000	0.225194
	29.390000	0.087068
	29.395000	0.090357
	29.400000	0.228483
	29.405000	0.218617
	29.410000	0.087068
	29.415000	0.087068
	29.420000	0.228483
	29.425000	0.225194
	29.430000	0.087068
	29.435000	0.087068
	29.440000	0.225194
	29.445000	0.218617
	29.450000	0.083779
	29.455000	0.087068
	29.460000	0.221905
	29.465000	0.218617
	29.470000	0.087068
	29.475000	0.087068
	29.480000	0.221905
	29.485000	0.221905
	29.490000	0.087068
	29.495000	0.087068
	29.500000	0.221905
	29.505000	0.218617
	29.510000	0.077202
	29.515000	0.083779
	29.520000	0.218617
	29.525000	0.221905
	29.530000	0.080490
	29.535000	0.083779
	29.540000	0.218617
	29.545000	0.221905
	29.550000	0.083779
	29.555000	0.080490
	29.560000	0.218617
	29.565000	0.225194
	29.570000	0.087068
	29.575000	0.080490
	29.580000	0.221905
	29.585000	0.221905
	29.590000	0.080490
	29.595000	0.080490
	29.600000	0.215328
	29.605000	0.221905
	29.610000	0.087068
	29.615000	0.077202
	29.620000	0.215328
	29.625000	0.221905
	29.630000	0.083779
	29.635000	0.080490
	29.640000	0.215328
	29.645000	0.221905
	29.650000	0.080490
	29.655000	0.077202
	29.660000	0.218617
	29.665000	0.218617
	29.670000	0.077202
	29.675000	0.080490
	29.680000	0.215328
	29.685000	0.218617
	29.690000	0.080490
	29.695000	0.073913
	29.700000	0.212039
	29.705000	0.215328
	29.710000	0.077202
	29.715000	0.077202
	29.720000	0.212039
	29.725000	0.215328
	29.730000	0.080490
	29.735000	0.073913
	29.740000	0.212039
	29.745000	0.212039
	29.750000	0.080490
	29.755000	0.070624
	29.760000	0.212039
	29.765000	0.215328
	29.770000	0.077202
	29.775000	0.067335
	29.780000	0.205462
	29.785000	0.208751
	29.790000	0.073913
	29.795000	0.064047
	29.800000	0.202173
	29.805000	0.215328
	29.810000	0.073913
	29.815000	0.067335
	29.820000	0.202173
	29.825000	0.208751
	29.830000	0.067335
	29.835000	0.064047
	29.840000	0.198884
	29.845000	0.208751
	29.850000	0.067335
	29.855000	0.064047
	29.860000	0.195596
	29.865000	0.208751
	29.870000	0.070624
	29.875000	0.060758
	29.880000	0.195596
	29.885000	0.205462
	29.890000	0.067335
	29.895000	0.057469
	29.900000	0.195596
	29.905000	0.208751
	29.910000	0.064047
	29.915000	0.057469
	29.920000	0.195596
	29.925000	0.208751
	29.930000	0.070624
	29.935000	0.050892
	29.940000	0.195596
	29.945000	0.202173
	29.950000	0.064047
	29.955000	0.057469
	29.960000	0.192307
	29.965000	0.202173
	29.970000	0.067335
	29.975000	0.054181
	29.980000	0.195596
	29.985000	0.208751
	29.990000	0.070624
	29.995000	0.054181
	30.000000	0.189018
	30.005000	0.208751
	30.010000	0.067335
	30.015000	0.050892
	30.020000	0.195596
	30.025000	0.202173
	30.030000	0.067335
	30.035000	0.050892
	30.040000	0.189018
	30.045000	0.205462
	30.050000	0.067335
	30.055000	0.047603
	30.060000	0.189018
	30.065000	0.202173
	30.070000	0.064047
	30.075000	0.050892
	30.080000	0.189018
	30.085000	0.205462
	30.090000	0.064047
	30.095000	0.050892
	30.100000	0.185730
	30.105000	0.205462
	30.110000	0.064047
	30.115000	0.050892
	30.120000	0.185730
	30.125000	0.205462
	30.130000	0.064047
	30.135000	0.047603
	30.140000	0.189018
	30.145000	0.208751
	30.150000	0.067335
	30.155000	0.047603
	30.160000	0.182441
	30.165000	0.202173
	30.170000	0.064047
	30.175000	0.044314
	30.180000	0.179152
	30.185000	0.195596
	30.190000	0.064047
	30.195000	0.044314
	30.200000	0.182441
	30.205000	0.198884
	30.210000	0.060758
	30.215000	0.037737
	30.220000	0.179152
	30.225000	0.195596
	30.230000	0.057469
	30.235000	0.041026
	30.240000	0.172575
	30.245000	0.195596
	30.250000	0.057469
	30.255000	0.037737
	30.260000	0.172575
	30.265000	0.189018
	30.270000	0.057469
	30.275000	0.031160
	30.280000	0.165997
	30.285000	0.185730
	30.290000	0.054181
	30.295000	0.027871
	30.300000	0.169286
	30.305000	0.189018
	30.310000	0.050892
	30.315000	0.024582
	30.320000	0.162708
	30.325000	0.182441
	30.330000	0.047603
	30.335000	0.021293
	30.340000	0.159420
	30.345000	0.175863
	30.350000	0.041026
	30.355000	0.021293
	30.360000	0.156131
	30.365000	0.182441
	30.370000	0.041026
	30.375000	0.018005
	30.380000	0.152842
	30.385000	0.175863
	30.390000	0.037737
	30.395000	0.018005
	30.400000	0.152842
	30.405000	0.172575
	30.410000	0.037737
	30.415000	0.011427
	30.420000	0.139687
	30.425000	0.175863
	30.430000	0.034448
	30.435000	0.014716
	30.440000	0.142976
	30.445000	0.172575
	30.450000	0.037737
	30.455000	0.011427
	30.460000	0.146265
	30.465000	0.172575
	30.470000	0.031160
	30.475000	0.004850
	30.480000	0.146265
	30.485000	0.169286
	30.490000	0.027871
	30.495000	-0.005016
	30.500000	0.129821
	30.505000	0.152842
	30.510000	0.008138
	30.515000	-0.018171
	30.520000	0.116666
	30.525000	0.149554
	30.530000	0.008138
	30.535000	-0.031326
	30.540000	0.113378
	30.545000	0.136399
	30.550000	-0.008305
	30.555000	-0.041192
	30.560000	0.096934
	30.565000	0.123244
	30.570000	-0.021460
	30.575000	-0.057636
	30.580000	0.077202
	30.585000	0.106800
	30.590000	-0.041192
	30.595000	-0.070791
	30.600000	0.064047
	30.605000	0.093645
	30.610000	-0.047770
	30.615000	-0.087234
	30.620000	0.047603
	30.625000	0.080490
	30.630000	-0.057636
	30.635000	-0.090523
	30.640000	0.044314
	30.645000	0.083779
	30.650000	-0.051059
	30.655000	-0.087234
	30.660000	0.050892
	30.665000	0.090357
	30.670000	-0.047770
	30.675000	-0.080657
	30.680000	0.064047
	30.685000	0.100223
	30.690000	-0.031326
	30.695000	-0.064213
	30.700000	0.073913
	30.705000	0.113378
	30.710000	-0.024749
	30.715000	-0.057636
	30.720000	0.083779
	30.725000	0.123244
	30.730000	-0.018171
	30.735000	-0.047770
	30.740000	0.100223
	30.745000	0.136399
	30.750000	0.001561
	30.755000	-0.037904
	30.760000	0.110089
	30.765000	0.152842
	30.770000	0.014716
	30.775000	-0.018171
	30.780000	0.123244
	30.785000	0.165997
	30.790000	0.027871
	30.795000	-0.005016
	30.800000	0.136399
	30.805000	0.175863
	30.810000	0.037737
	30.815000	-0.001728
	30.820000	0.142976
	30.825000	0.185730
	30.830000	0.047603
	30.835000	0.004850
	30.840000	0.149554
	30.845000	0.192307
	30.850000	0.047603
	30.855000	0.011427
	30.860000	0.152842
	30.865000	0.192307
	30.870000	0.057469
	30.875000	0.011427
	30.880000	0.156131
	30.885000	0.198884
	30.890000	0.054181
	30.895000	0.014716
	30.900000	0.152842
	30.905000	0.189018
	30.910000	0.050892
	30.915000	0.001561
	30.920000	0.142976
	30.925000	0.182441
	30.930000	0.041026
	30.935000	-0.001728
	30.940000	0.133110
	30.945000	0.169286
	30.950000	0.024582
	30.955000	-0.024749
	30.960000	0.113378
	30.965000	0.149554
	30.970000	0.004850
	30.975000	-0.044481
	30.980000	0.093645
	30.985000	0.136399
	30.990000	-0.005016
	30.995000	-0.051059
	31.000000	0.083779
	31.005000	0.136399
	31.010000	-0.005016
	31.015000	-0.041192
	31.020000	0.100223
	31.025000	0.149554
	31.030000	0.018005
	31.035000	-0.021460
	31.040000	0.133110
	31.045000	0.179152
	31.050000	0.044314
	31.055000	0.001561
	31.060000	0.142976
	31.065000	0.195596
	31.070000	0.057469
	31.075000	0.011427
	31.080000	0.152842
	31.085000	0.202173
	31.090000	0.060758
	31.095000	0.014716
	31.100000	0.152842
	31.105000	0.198884
	31.110000	0.060758
	31.115000	0.011427
	31.120000	0.149554
	31.125000	0.195596
	31.130000	0.047603
	31.135000	0.004850
	31.140000	0.139687
	31.145000	0.185730
	31.150000	0.044314
	31.155000	-0.008305
	31.160000	0.129821
	31.165000	0.179152
	31.170000	0.037737
	31.175000	-0.014883
	31.180000	0.119955
	31.185000	0.172575
	31.190000	0.027871
	31.195000	-0.018171
	31.200000	0.110089
	31.205000	0.162708
	31.210000	0.018005
	31.215000	-0.028037
	31.220000	0.106800
	31.225000	0.159420
	31.230000	0.018005
	31.235000	-0.037904
	31.240000	0.100223
	31.245000	0.149554
	31.250000	0.018005
	31.255000	-0.037904
	31.260000	0.096934
	31.265000	0.149554
	31.270000	0.008138
	31.275000	-0.041192
	31.280000	0.093645
	31.285000	0.149554
	31.290000	0.011427
	31.295000	-0.044481
	31.300000	0.096934
	31.305000	0.149554
	31.310000	0.008138
	31.315000	-0.044481
	31.320000	0.090357
	31.325000	0.146265
	31.330000	0.008138
	31.335000	-0.044481
	31.340000	0.090357
	31.345000	0.142976
	31.350000	0.008138
	31.355000	-0.051059
	31.360000	0.083779
	31.365000	0.142976
	31.370000	0.008138
	31.375000	-0.044481
	31.380000	0.090357
	31.385000	0.142976
	31.390000	0.011427
	31.395000	-0.044481
	31.400000	0.090357
	31.405000	0.142976
	31.410000	0.004850
	31.415000	-0.044481
	31.420000	0.087068
	31.425000	0.146265
	31.430000	0.008138
	31.435000	-0.047770
	31.440000	0.083779
	31.445000	0.146265
	31.450000	0.011427
	31.455000	-0.044481
	31.460000	0.090357
	31.465000	0.149554
	31.470000	0.011427
	31.475000	-0.041192
	31.480000	0.093645
	31.485000	0.149554
	31.490000	0.014716
	31.495000	-0.041192
	31.500000	0.090357
	31.505000	0.152842
	31.510000	0.018005
	31.515000	-0.037904
	31.520000	0.090357
	31.525000	0.156131
	31.530000	0.027871
	31.535000	-0.034615
	31.540000	0.093645
	31.545000	0.152842
	31.550000	0.014716
	31.555000	-0.047770
	31.560000	0.080490
	31.565000	0.139687
	31.570000	0.001561
	31.575000	-0.057636
	31.580000	0.073913
	31.585000	0.129821
	31.590000	-0.001728
	31.595000	-0.064213
	31.600000	0.067335
	31.605000	0.129821
	31.610000	-0.005016
	31.615000	-0.060925
	31.620000	0.064047
	31.625000	0.129821
	31.630000	-0.001728
	31.635000	-0.060925
	31.640000	0.067335
	31.645000	0.129821
	31.650000	-0.001728
	31.655000	-0.060925
	31.660000	0.064047
	31.665000	0.126533
	31.670000	-0.001728
	31.675000	-0.064213
	31.680000	0.070624
	31.685000	0.129821
	31.690000	0.001561
	31.695000	-0.064213
	31.700000	0.067335
	31.705000	0.129821
	31.710000	-0.001728
	31.715000	-0.060925
	31.720000	0.070624
	31.725000	0.129821
	31.730000	0.001561
	31.735000	-0.064213
	31.740000	0.070624
	31.745000	0.126533
	31.750000	0.001561
	31.755000	-0.060925
	31.760000	0.064047
	31.765000	0.129821
	31.770000	-0.005016
	31.775000	-0.070791
	31.780000	0.064047
	31.785000	0.129821
	31.790000	-0.008305
	31.795000	-0.067502
	31.800000	0.054181
	31.805000	0.126533
	31.810000	-0.001728
	31.815000	-0.070791
	31.820000	0.057469
	31.825000	0.123244
	31.830000	-0.008305
	31.835000	-0.070791
	31.840000	0.064047
	31.845000	0.126533
	31.850000	-0.001728
	31.855000	-0.067502
	31.860000	0.060758
	31.865000	0.126533
	31.870000	-0.005016
	31.875000	-0.070791
	31.880000	0.057469
	31.885000	0.123244
	31.890000	-0.005016
	31.895000	-0.064213
	31.900000	0.057469
	31.905000	0.119955
	31.910000	-0.005016
	31.915000	-0.067502
	31.920000	0.057469
	31.925000	0.123244
	31.930000	-0.008305
	31.935000	-0.070791
	31.940000	0.050892
	31.945000	0.119955
	31.950000	-0.001728
	31.955000	-0.070791
	31.960000	0.054181
	31.965000	0.119955
	31.970000	-0.001728
	31.975000	-0.070791
	31.980000	0.054181
	31.985000	0.123244
	31.990000	-0.001728
	31.995000	-0.070791
	32.000000	0.054181
	32.005000	0.123244
	32.010000	-0.005016
	32.015000	-0.067502
	32.020000	0.054181
	32.025000	0.119955
	32.030000	-0.001728
	32.035000	-0.074080
	32.040000	0.050892
	32.045000	0.119955
	32.050000	-0.008305
	32.055000	-0.074080
	32.060000	0.054181
	32.065000	0.119955
	32.070000	-0.001728
	32.075000	-0.074080
	32.080000	0.044314
	32.085000	0.119955
	32.090000	-0.008305
	32.095000	-0.077368
	32.100000	0.050892
	32.105000	0.123244
	32.110000	-0.005016
	32.115000	-0.080657
	32.120000	0.047603
	32.125000	0.119955
	32.130000	-0.005016
	32.135000	-0.080657
	32.140000	0.044314
	32.145000	0.116666
	32.150000	-0.001728
	32.155000	-0.077368
	32.160000	0.047603
	32.165000	0.119955
	32.170000	-0.005016
	32.175000	-0.077368
	32.180000	0.044314
	32.185000	0.116666
	32.190000	-0.005016
	32.195000	-0.077368
	32.200000	0.041026
	32.205000	0.110089
	32.210000	-0.005016
	32.215000	-0.077368
	32.220000	0.037737
	32.225000	0.116666
	32.230000	-0.008305
	32.235000	-0.080657
	32.240000	0.041026
	32.245000	0.119955
	32.250000	-0.005016
	32.255000	-0.080657
	32.260000	0.041026
	32.265000	0.116666
	32.270000	-0.005016
	32.275000	-0.080657
	32.280000	0.037737
	32.285000	0.113378
	32.290000	-0.005016
	32.295000	-0.080657
	32.300000	0.044314
	32.305000	0.116666
	32.310000	-0.001728
	32.315000	-0.080657
	32.320000	0.034448
	32.325000	0.116666
	32.330000	-0.011594
	32.335000	-0.083946
	32.340000	0.034448
	32.345000	0.110089
	32.350000	-0.008305
	32.355000	-0.083946
	32.360000	0.037737
	32.365000	0.113378
	32.370000	-0.005016
	32.375000	-0.087234
	32.380000	0.037737
	32.385000	0.106800
	32.390000	-0.008305
	32.395000	-0.080657
	32.400000	0.037737
	32.405000	0.106800
	32.410000	-0.005016
	32.415000	-0.087234
	32.420000	0.034448
	32.425000	0.113378
	32.430000	-0.008305
	32.435000	-0.087234
	32.440000	0.034448
	32.445000	0.113378
	32.450000	-0.008305
	32.455000	-0.080657
	32.460000	0.031160
	32.465000	0.113378
	32.470000	-0.008305
	32.475000	-0.090523
	32.480000	0.034448
	32.485000	0.110089
	32.490000	-0.001728
	32.495000	-0.083946
	32.500000	0.031160
	32.505000	0.113378
	32.510000	-0.005016
	32.515000	-0.083946
	32.520000	0.031160
	32.525000	0.116666
	32.530000	-0.005016
	32.535000	-0.087234
	32.540000	0.034448
	32.545000	0.113378
	32.550000	-0.005016
	32.555000	-0.080657
	32.560000	0.037737
	32.565000	0.110089
	32.570000	-0.001728
	32.575000	-0.077368
	32.580000	0.034448
	32.585000	0.113378
	32.590000	0.001561
	32.595000	-0.080657
	32.600000	0.031160
	32.605000	0.116666
	32.610000	-0.001728
	32.615000	-0.083946
	32.620000	0.031160
	32.625000	0.113378
	32.630000	-0.001728
	32.635000	-0.083946
	32.640000	0.031160
	32.645000	0.110089
	32.650000	-0.001728
	32.655000	-0.083946
	32.660000	0.027871
	32.665000	0.110089
	32.670000	-0.001728
	32.675000	-0.083946
	32.680000	0.024582
	32.685000	0.116666
	32.690000	-0.001728
	32.695000	-0.087234
	32.700000	0.027871
	32.705000	0.113378
	32.710000	-0.005016
	32.715000	-0.087234
	32.720000	0.031160
	32.725000	0.116666
	32.730000	-0.001728
	32.735000	-0.083946
	32.740000	0.027871
	32.745000	0.110089
	32.750000	-0.001728
	32.755000	-0.087234
	32.760000	0.027871
	32.765000	0.116666
	32.770000	0.001561
	32.775000	-0.083946
	32.780000	0.024582
	32.785000	0.119955
	32.790000	0.001561
	32.795000	-0.087234
	32.800000	0.027871
	32.805000	0.113378
	32.810000	0.004850
	32.815000	-0.080657
	32.820000	0.027871
	32.825000	0.116666
	32.830000	0.004850
	32.835000	-0.080657
	32.840000	0.027871
	32.845000	0.113378
	32.850000	0.001561
	32.855000	-0.083946
	32.860000	0.027871
	32.865000	0.119955
	32.870000	0.001561
	32.875000	-0.083946
	32.880000	0.031160
	32.885000	0.110089
	32.890000	0.008138
	32.895000	-0.077368
	32.900000	0.031160
	32.905000	0.116666
	32.910000	0.001561
	32.915000	-0.083946
	32.920000	0.027871
	32.925000	0.116666
	32.930000	0.001561
	32.935000	-0.087234
	32.940000	0.024582
	32.945000	0.113378
	32.950000	0.004850
	32.955000	-0.080657
	32.960000	0.031160
	32.965000	0.116666
	32.970000	0.011427
	32.975000	-0.083946
	32.980000	0.024582
	32.985000	0.116666
	32.990000	0.004850
	32.995000	-0.083946
	33.000000	0.024582
	33.005000	0.113378
	33.010000	0.011427
	33.015000	-0.080657
	33.020000	0.024582
	33.025000	0.113378
	33.030000	0.008138
	33.035000	-0.087234
	33.040000	0.027871
	33.045000	0.113378
	33.050000	0.004850
	33.055000	-0.087234
	33.060000	0.018005
	33.065000	0.110089
	33.070000	0.004850
	33.075000	-0.083946
	33.080000	0.018005
	33.085000	0.113378
	33.090000	0.011427
	33.095000	-0.090523
	33.100000	0.018005
	33.105000	0.110089
	33.110000	0.004850
	33.115000	-0.090523
	33.120000	0.021293
	33.125000	0.110089
	33.130000	0.004850
	33.135000	-0.090523
	33.140000	0.014716
	33.145000	0.110089
	33.150000	0.004850
	33.155000	-0.090523
	33.160000	0.011427
	33.165000	0.103511
	33.170000	-0.001728
	33.175000	-0.100389
	33.180000	0.011427
	33.185000	0.103511
	33.190000	-0.005016
	33.195000	-0.100389
	33.200000	0.011427
	33.205000	0.100223
	33.210000	-0.001728
	33.215000	-0.103678
	33.220000	0.004850
	33.225000	0.100223
	33.230000	-0.005016
	33.235000	-0.106967
	33.240000	0.001561
	33.245000	0.093645
	33.250000	-0.005016
	33.255000	-0.100389
	33.260000	0.001561
	33.265000	0.100223
	33.270000	-0.008305
	33.275000	-0.103678
	33.280000	-0.005016
	33.285000	0.090357
	33.290000	-0.011594
	33.295000	-0.110256
	33.300000	-0.001728
	33.305000	0.090357
	33.310000	-0.011594
	33.315000	-0.110256
	33.320000	-0.008305
	33.325000	0.087068
	33.330000	-0.018171
	33.335000	-0.116833
	33.340000	-0.011594
	33.345000	0.077202
	33.350000	-0.018171
	33.355000	-0.116833
	33.360000	-0.014883
	33.365000	0.083779
	33.370000	-0.028037
	33.375000	-0.123410
	33.380000	-0.018171
	33.385000	0.080490
	33.390000	-0.024749
	33.395000	-0.123410
	33.400000	-0.028037
	33.405000	0.067335
	33.410000	-0.034615
	33.415000	-0.136565
	33.420000	-0.034615
	33.425000	0.067335
	33.430000	-0.041192
	33.435000	-0.139854
	33.440000	-0.041192
	33.445000	0.060758
	33.450000	-0.044481
	33.455000	-0.139854
	33.460000	-0.044481
	33.465000	0.054181
	33.470000	-0.047770
	33.475000	-0.153009
	33.480000	-0.054347
	33.485000	0.047603
	33.490000	-0.054347
	33.495000	-0.159586
	33.500000	-0.057636
	33.505000	0.044314
	33.510000	-0.057636
	33.515000	-0.169453
	33.520000	-0.060925
	33.525000	0.037737
	33.530000	-0.064213
	33.535000	-0.166164
	33.540000	-0.067502
	33.545000	0.031160
	33.550000	-0.067502
	33.555000	-0.179319
	33.560000	-0.077368
	33.565000	0.031160
	33.570000	-0.077368
	33.575000	-0.179319
	33.580000	-0.080657
	33.585000	0.027871
	33.590000	-0.074080
	33.595000	-0.179319
	33.600000	-0.080657
	33.605000	0.024582
	33.610000	-0.077368
	33.615000	-0.182607
	33.620000	-0.083946
	33.625000	0.021293
	33.630000	-0.077368
	33.635000	-0.192474
	33.640000	-0.087234
	33.645000	0.018005
	33.650000	-0.087234
	33.655000	-0.192474
	33.660000	-0.093812
	33.665000	0.011427
	33.670000	-0.087234
	33.675000	-0.199051
	33.680000	-0.093812
	33.685000	0.014716
	33.690000	-0.087234
	33.695000	-0.202340
	33.700000	-0.097101
	33.705000	0.008138
	33.710000	-0.097101
	33.715000	-0.205628
	33.720000	-0.103678
	33.725000	0.004850
	33.730000	-0.097101
	33.735000	-0.218783
	33.740000	-0.120122
	33.745000	-0.005016
	33.750000	-0.113544
	33.755000	-0.231938
	33.760000	-0.133277
	33.765000	-0.024749
	33.770000	-0.133277
	33.775000	-0.248382
	33.780000	-0.153009
	33.785000	-0.037904
	33.790000	-0.143143
	33.795000	-0.261537
	33.800000	-0.162875
	33.805000	-0.044481
	33.810000	-0.153009
	33.815000	-0.271403
	33.820000	-0.169453
	33.825000	-0.060925
	33.830000	-0.159586
	33.835000	-0.277980
	33.840000	-0.179319
	33.845000	-0.060925
	33.850000	-0.159586
	33.855000	-0.284558
	33.860000	-0.176030
	33.865000	-0.054347
	33.870000	-0.156298
	33.875000	-0.277980
	33.880000	-0.176030
	33.885000	-0.051059
	33.890000	-0.149720
	33.895000	-0.274692
	33.900000	-0.172741
	33.905000	-0.044481
	33.910000	-0.146431
	33.915000	-0.268114
	33.920000	-0.162875
	33.925000	-0.037904
	33.930000	-0.136565
	33.935000	-0.261537
	33.940000	-0.153009
	33.945000	-0.031326
	33.950000	-0.129988
	33.955000	-0.251671
	33.960000	-0.146431
	33.965000	-0.021460
	33.970000	-0.120122
	33.975000	-0.245093
	33.980000	-0.146431
	33.985000	-0.011594
	33.990000	-0.113544
	33.995000	-0.238516
	34.000000	-0.133277
	34.005000	-0.005016
	34.010000	-0.103678
	34.015000	-0.225361
	34.020000	-0.126699
	34.025000	0.011427
	34.030000	-0.087234
	34.035000	-0.218783
	34.040000	-0.116833
	34.045000	0.024582
	34.050000	-0.077368
	34.055000	-0.205628
	34.060000	-0.103678
	34.065000	0.037737
	34.070000	-0.067502
	34.075000	-0.199051
	34.080000	-0.100389
	34.085000	0.041026
	34.090000	-0.054347
	34.095000	-0.189185
	34.100000	-0.087234
	34.105000	0.047603
	34.110000	-0.051059
	34.115000	-0.179319
	34.120000	-0.083946
	34.125000	0.060758
	34.130000	-0.037904
	34.135000	-0.176030
	34.140000	-0.077368
	34.145000	0.067335
	34.150000	-0.024749
	34.155000	-0.166164
	34.160000	-0.067502
	34.165000	0.073913
	34.170000	-0.021460
	34.175000	-0.156298
	34.180000	-0.054347
	34.185000	0.083779
	34.190000	-0.008305
	34.195000	-0.143143
	34.200000	-0.044481
	34.205000	0.093645
	34.210000	0.004850
	34.215000	-0.139854
	34.220000	-0.041192
	34.225000	0.103511
	34.230000	0.011427
	34.235000	-0.123410
	34.240000	-0.028037
	34.245000	0.110089
	34.250000	0.021293
	34.255000	-0.116833
	34.260000	-0.018171
	34.265000	0.123244
	34.270000	0.031160
	34.275000	-0.106967
	34.280000	-0.014883
	34.285000	0.126533
	34.290000	0.041026
	34.295000	-0.100389
	34.300000	-0.008305
	34.305000	0.136399
	34.310000	0.047603
	34.315000	-0.093812
	34.320000	-0.001728
	34.325000	0.139687
	34.330000	0.050892
	34.335000	-0.087234
	34.340000	0.004850
	34.345000	0.149554
	34.350000	0.064047
	34.355000	-0.077368
	34.360000	0.014716
	34.365000	0.159420
	34.370000	0.070624
	34.375000	-0.064213
	34.380000	0.024582
	34.385000	0.165997
	34.390000	0.077202
	34.395000	-0.060925
	34.400000	0.031160
	34.405000	0.175863
	34.410000	0.087068
	34.415000	-0.051059
	34.420000	0.034448
	34.425000	0.175863
	34.430000	0.087068
	34.435000	-0.047770
	34.440000	0.041026
	34.445000	0.182441
	34.450000	0.096934
	34.455000	-0.044481
	34.460000	0.047603
	34.465000	0.182441
	34.470000	0.103511
	34.475000	-0.037904
	34.480000	0.047603
	34.485000	0.195596
	34.490000	0.106800
	34.495000	-0.031326
	34.500000	0.050892
	34.505000	0.198884
	34.510000	0.113378
	34.515000	-0.024749
	34.520000	0.057469
	34.525000	0.202173
	34.530000	0.119955
	34.535000	-0.021460
	34.540000	0.064047
	34.545000	0.202173
	34.550000	0.123244
	34.555000	-0.018171
	34.560000	0.064047
	34.565000	0.208751
	34.570000	0.133110
	34.575000	-0.008305
	34.580000	0.067335
	34.585000	0.218617
	34.590000	0.139687
	34.595000	-0.008305
	34.600000	0.077202
	34.605000	0.218617
	34.610000	0.136399
	34.615000	-0.005016
	34.620000	0.080490
	34.625000	0.225194
	34.630000	0.142976
	34.635000	0.001561
	34.640000	0.080490
	34.645000	0.228483
	34.650000	0.146265
	34.655000	0.001561
	34.660000	0.083779
	34.665000	0.228483
	34.670000	0.152842
	34.675000	0.008138
	34.680000	0.090357
	34.685000	0.231772
	34.690000	0.152842
	34.695000	0.011427
	34.700000	0.087068
	34.705000	0.235060
	34.710000	0.156131
	34.715000	0.011427
	34.720000	0.093645
	34.725000	0.238349
	34.730000	0.165997
	34.735000	0.014716
	34.740000	0.093645
	34.745000	0.241638
	34.750000	0.169286
	34.755000	0.021293
	34.760000	0.100223
	34.765000	0.248215
	34.770000	0.169286
	34.775000	0.021293
	34.780000	0.103511
	34.785000	0.248215
	34.790000	0.172575
	34.795000	0.024582
	34.800000	0.106800
	34.805000	0.251504
	34.810000	0.182441
	34.815000	0.027871
	34.820000	0.106800
	34.825000	0.251504
	34.830000	0.185730
	34.835000	0.041026
	34.840000	0.113378
	34.845000	0.258081
	34.850000	0.185730
	34.855000	0.034448
	34.860000	0.113378
	34.865000	0.264659
	34.870000	0.189018
	34.875000	0.041026
	34.880000	0.119955
	34.885000	0.267948
	34.890000	0.192307
	34.895000	0.044314
	34.900000	0.116666
	34.905000	0.264659
	34.910000	0.198884
	34.915000	0.050892
	34.920000	0.116666
	34.925000	0.267948
	34.930000	0.198884
	34.935000	0.044314
	34.940000	0.123244
	34.945000	0.271236
	34.950000	0.198884
	34.955000	0.054181
	34.960000	0.126533
	34.965000	0.274525
	34.970000	0.202173
	34.975000	0.057469
	34.980000	0.123244
	34.985000	0.274525
	34.990000	0.208751
	34.995000	0.054181
	35.000000	0.129821
	35.005000	0.277814
	35.010000	0.208751
	35.015000	0.064047
	35.020000	0.129821
	35.025000	0.277814
	35.030000	0.212039
	35.035000	0.067335
	35.040000	0.136399
	35.045000	0.284391
	35.050000	0.215328
	35.055000	0.067335
	35.060000	0.136399
	35.065000	0.284391
	35.070000	0.218617
	35.075000	0.070624
	35.080000	0.139687
	35.085000	0.290969
	35.090000	0.225194
	35.095000	0.077202
	35.100000	0.139687
	35.105000	0.290969
	35.110000	0.225194
	35.115000	0.070624
	35.120000	0.139687
	35.125000	0.294257
	35.130000	0.221905
	35.135000	0.077202
	35.140000	0.146265
	35.145000	0.297546
	35.150000	0.231772
	35.155000	0.080490
	35.160000	0.149554
	35.165000	0.294257
	35.170000	0.225194
	35.175000	0.087068
	35.180000	0.149554
	35.185000	0.297546
	35.190000	0.238349
	35.195000	0.083779
	35.200000	0.149554
	35.205000	0.300835
	35.210000	0.238349
	35.215000	0.090357
