2024/7/11 	 20:28:14 
 This file comes from Vt only measurement 	 1.000000E-1 
 Voltage Sensitivity 	 0.000000E+0 
 Sampling rate 	 200 
 Number of samples per channel 	 -1 
 No filter from Labview 	 	 	 
 	 
 ***End_of_Header*** 
 	 Time 	  Voltage 	 Filtered Voltage 	 
	0.000000	-1.147265
	0.005000	-1.185945
	0.010000	-1.095691
	0.015000	-1.050564
	0.020000	-1.147265
	0.025000	-1.182722
	0.030000	-1.082798
	0.035000	-1.050564
	0.040000	-1.150488
	0.045000	-1.182722
	0.050000	-1.082798
	0.055000	-1.044118
	0.060000	-1.140818
	0.065000	-1.182722
	0.070000	-1.082798
	0.075000	-1.047341
	0.080000	-1.137595
	0.085000	-1.182722
	0.090000	-1.073128
	0.095000	-1.040894
	0.100000	-1.140818
	0.105000	-1.169829
	0.110000	-1.073128
	0.115000	-1.040894
	0.120000	-1.140818
	0.125000	-1.173052
	0.130000	-1.073128
	0.135000	-1.040894
	0.140000	-1.137595
	0.145000	-1.169829
	0.150000	-1.073128
	0.155000	-1.028001
	0.160000	-1.131148
	0.165000	-1.173052
	0.170000	-1.069904
	0.175000	-1.037671
	0.180000	-1.131148
	0.185000	-1.166605
	0.190000	-1.066681
	0.195000	-1.024777
	0.200000	-1.127925
	0.205000	-1.153712
	0.210000	-1.066681
	0.215000	-1.024777
	0.220000	-1.127925
	0.225000	-1.160158
	0.230000	-1.063458
	0.235000	-1.028001
	0.240000	-1.127925
	0.245000	-1.153712
	0.250000	-1.053788
	0.255000	-1.021554
	0.260000	-1.121478
	0.265000	-1.156935
	0.270000	-1.057011
	0.275000	-1.028001
	0.280000	-1.121478
	0.285000	-1.150488
	0.290000	-1.047341
	0.295000	-1.021554
	0.300000	-1.121478
	0.305000	-1.150488
	0.310000	-1.053788
	0.315000	-1.018331
	0.320000	-1.121478
	0.325000	-1.150488
	0.330000	-1.050564
	0.335000	-1.011884
	0.340000	-1.118255
	0.345000	-1.140818
	0.350000	-1.044118
	0.355000	-1.011884
	0.360000	-1.118255
	0.365000	-1.140818
	0.370000	-1.050564
	0.375000	-1.011884
	0.380000	-1.118255
	0.385000	-1.144042
	0.390000	-1.050564
	0.395000	-1.011884
	0.400000	-1.115031
	0.405000	-1.144042
	0.410000	-1.044118
	0.415000	-1.011884
	0.420000	-1.111808
	0.425000	-1.134372
	0.430000	-1.034447
	0.435000	-1.008661
	0.440000	-1.108585
	0.445000	-1.134372
	0.450000	-1.037671
	0.455000	-0.998991
	0.460000	-1.108585
	0.465000	-1.131148
	0.470000	-1.031224
	0.475000	-1.002214
	0.480000	-1.102138
	0.485000	-1.134372
	0.490000	-1.031224
	0.495000	-1.002214
	0.500000	-1.102138
	0.505000	-1.134372
	0.510000	-1.031224
	0.515000	-0.998991
	0.520000	-1.102138
	0.525000	-1.124702
	0.530000	-1.024777
	0.535000	-0.998991
	0.540000	-1.095691
	0.545000	-1.127925
	0.550000	-1.018331
	0.555000	-0.998991
	0.560000	-1.095691
	0.565000	-1.127925
	0.570000	-1.018331
	0.575000	-0.989320
	0.580000	-1.095691
	0.585000	-1.124702
	0.590000	-1.024777
	0.595000	-0.992544
	0.600000	-1.092468
	0.605000	-1.121478
	0.610000	-1.018331
	0.615000	-0.992544
	0.620000	-1.095691
	0.625000	-1.121478
	0.630000	-1.015107
	0.635000	-0.989320
	0.640000	-1.089245
	0.645000	-1.115031
	0.650000	-1.015107
	0.655000	-0.986097
	0.660000	-1.095691
	0.665000	-1.111808
	0.670000	-1.002214
	0.675000	-0.982874
	0.680000	-1.092468
	0.685000	-1.115031
	0.690000	-1.005437
	0.695000	-0.982874
	0.700000	-1.086021
	0.705000	-1.108585
	0.710000	-1.008661
	0.715000	-0.976427
	0.720000	-1.086021
	0.725000	-1.108585
	0.730000	-1.008661
	0.735000	-0.989320
	0.740000	-1.089245
	0.745000	-1.111808
	0.750000	-1.005437
	0.755000	-0.979650
	0.760000	-1.089245
	0.765000	-1.111808
	0.770000	-1.008661
	0.775000	-0.982874
	0.780000	-1.086021
	0.785000	-1.102138
	0.790000	-0.995767
	0.795000	-0.982874
	0.800000	-1.082798
	0.805000	-1.102138
	0.810000	-0.998991
	0.815000	-0.973204
	0.820000	-1.079574
	0.825000	-1.102138
	0.830000	-0.998991
	0.835000	-0.976427
	0.840000	-1.076351
	0.845000	-1.095691
	0.850000	-0.992544
	0.855000	-0.976427
	0.860000	-1.079574
	0.865000	-1.095691
	0.870000	-0.986097
	0.875000	-0.966757
	0.880000	-1.069904
	0.885000	-1.092468
	0.890000	-0.986097
	0.895000	-0.969980
	0.900000	-1.066681
	0.905000	-1.095691
	0.910000	-0.989320
	0.915000	-0.973204
	0.920000	-1.073128
	0.925000	-1.089245
	0.930000	-0.982874
	0.935000	-0.966757
	0.940000	-1.069904
	0.945000	-1.086021
	0.950000	-0.976427
	0.955000	-0.963534
	0.960000	-1.063458
	0.965000	-1.089245
	0.970000	-0.982874
	0.975000	-0.966757
	0.980000	-1.066681
	0.985000	-1.086021
	0.990000	-0.976427
	0.995000	-0.966757
	1.000000	-1.063458
	1.005000	-1.079574
	1.010000	-0.979650
	1.015000	-0.957087
	1.020000	-1.053788
	1.025000	-1.073128
	1.030000	-0.963534
	1.035000	-0.944193
	1.040000	-1.047341
	1.045000	-1.060234
	1.050000	-0.957087
	1.055000	-0.940970
	1.060000	-1.040894
	1.065000	-1.057011
	1.070000	-0.957087
	1.075000	-0.937747
	1.080000	-1.037671
	1.085000	-1.047341
	1.090000	-0.940970
	1.095000	-0.934523
	1.100000	-1.031224
	1.105000	-1.044118
	1.110000	-0.944193
	1.115000	-0.931300
	1.120000	-1.034447
	1.125000	-1.040894
	1.130000	-0.940970
	1.135000	-0.928077
	1.140000	-1.028001
	1.145000	-1.044118
	1.150000	-0.934523
	1.155000	-0.915183
	1.160000	-1.024777
	1.165000	-1.037671
	1.170000	-0.934523
	1.175000	-0.924853
	1.180000	-1.024777
	1.185000	-1.034447
	1.190000	-0.928077
	1.195000	-0.915183
	1.200000	-1.018331
	1.205000	-1.034447
	1.210000	-0.928077
	1.215000	-0.915183
	1.220000	-1.024777
	1.225000	-1.031224
	1.230000	-0.931300
	1.235000	-0.924853
	1.240000	-1.021554
	1.245000	-1.028001
	1.250000	-0.924853
	1.255000	-0.918407
	1.260000	-1.024777
	1.265000	-1.034447
	1.270000	-0.937747
	1.275000	-0.921630
	1.280000	-1.021554
	1.285000	-1.031224
	1.290000	-0.931300
	1.295000	-0.918407
	1.300000	-1.028001
	1.305000	-1.031224
	1.310000	-0.934523
	1.315000	-0.921630
	1.320000	-1.028001
	1.325000	-1.037671
	1.330000	-0.928077
	1.335000	-0.921630
	1.340000	-1.024777
	1.345000	-1.034447
	1.350000	-0.937747
	1.355000	-0.928077
	1.360000	-1.028001
	1.365000	-1.034447
	1.370000	-0.934523
	1.375000	-0.928077
	1.380000	-1.031224
	1.385000	-1.037671
	1.390000	-0.937747
	1.395000	-0.931300
	1.400000	-1.028001
	1.405000	-1.034447
	1.410000	-0.934523
	1.415000	-0.931300
	1.420000	-1.031224
	1.425000	-1.037671
	1.430000	-0.931300
	1.435000	-0.924853
	1.440000	-1.040894
	1.445000	-1.034447
	1.450000	-0.934523
	1.455000	-0.931300
	1.460000	-1.031224
	1.465000	-1.037671
	1.470000	-0.931300
	1.475000	-0.931300
	1.480000	-1.028001
	1.485000	-1.040894
	1.490000	-0.934523
	1.495000	-0.928077
	1.500000	-1.040894
	1.505000	-1.034447
	1.510000	-0.934523
	1.515000	-0.924853
	1.520000	-1.037671
	1.525000	-1.034447
	1.530000	-0.931300
	1.535000	-0.934523
	1.540000	-1.044118
	1.545000	-1.040894
	1.550000	-0.937747
	1.555000	-0.931300
	1.560000	-1.040894
	1.565000	-1.034447
	1.570000	-0.931300
	1.575000	-0.937747
	1.580000	-1.037671
	1.585000	-1.040894
	1.590000	-0.937747
	1.595000	-0.931300
	1.600000	-1.037671
	1.605000	-1.044118
	1.610000	-0.940970
	1.615000	-0.934523
	1.620000	-1.040894
	1.625000	-1.037671
	1.630000	-0.937747
	1.635000	-0.940970
	1.640000	-1.037671
	1.645000	-1.040894
	1.650000	-0.937747
	1.655000	-0.937747
	1.660000	-1.047341
	1.665000	-1.044118
	1.670000	-0.934523
	1.675000	-0.940970
	1.680000	-1.044118
	1.685000	-1.047341
	1.690000	-0.940970
	1.695000	-0.944193
	1.700000	-1.050564
	1.705000	-1.047341
	1.710000	-0.947417
	1.715000	-0.944193
	1.720000	-1.040894
	1.725000	-1.044118
	1.730000	-0.947417
	1.735000	-0.940970
	1.740000	-1.050564
	1.745000	-1.040894
	1.750000	-0.940970
	1.755000	-0.931300
	1.760000	-1.050564
	1.765000	-1.044118
	1.770000	-0.937747
	1.775000	-0.937747
	1.780000	-1.040894
	1.785000	-1.031224
	1.790000	-0.934523
	1.795000	-0.940970
	1.800000	-1.044118
	1.805000	-1.037671
	1.810000	-0.934523
	1.815000	-0.934523
	1.820000	-1.044118
	1.825000	-1.037671
	1.830000	-0.934523
	1.835000	-0.934523
	1.840000	-1.040894
	1.845000	-1.034447
	1.850000	-0.931300
	1.855000	-0.931300
	1.860000	-1.040894
	1.865000	-1.031224
	1.870000	-0.934523
	1.875000	-0.934523
	1.880000	-1.037671
	1.885000	-1.031224
	1.890000	-0.928077
	1.895000	-0.931300
	1.900000	-1.034447
	1.905000	-1.028001
	1.910000	-0.924853
	1.915000	-0.928077
	1.920000	-1.034447
	1.925000	-1.024777
	1.930000	-0.915183
	1.935000	-0.931300
	1.940000	-1.037671
	1.945000	-1.024777
	1.950000	-0.921630
	1.955000	-0.928077
	1.960000	-1.031224
	1.965000	-1.028001
	1.970000	-0.918407
	1.975000	-0.928077
	1.980000	-1.028001
	1.985000	-1.028001
	1.990000	-0.924853
	1.995000	-0.921630
	2.000000	-1.031224
	2.005000	-1.018331
	2.010000	-0.918407
	2.015000	-0.924853
	2.020000	-1.031224
	2.025000	-1.021554
	2.030000	-0.915183
	2.035000	-0.924853
	2.040000	-1.028001
	2.045000	-1.018331
	2.050000	-0.911960
	2.055000	-0.921630
	2.060000	-1.028001
	2.065000	-1.011884
	2.070000	-0.908736
	2.075000	-0.921630
	2.080000	-1.031224
	2.085000	-1.018331
	2.090000	-0.908736
	2.095000	-0.918407
	2.100000	-1.024777
	2.105000	-1.015107
	2.110000	-0.911960
	2.115000	-0.918407
	2.120000	-1.021554
	2.125000	-1.011884
	2.130000	-0.908736
	2.135000	-0.915183
	2.140000	-1.024777
	2.145000	-1.008661
	2.150000	-0.905513
	2.155000	-0.908736
	2.160000	-1.024777
	2.165000	-1.005437
	2.170000	-0.902290
	2.175000	-0.911960
	2.180000	-1.021554
	2.185000	-1.005437
	2.190000	-0.908736
	2.195000	-0.908736
	2.200000	-1.018331
	2.205000	-0.998991
	2.210000	-0.902290
	2.215000	-0.911960
	2.220000	-1.015107
	2.225000	-0.995767
	2.230000	-0.902290
	2.235000	-0.908736
	2.240000	-1.024777
	2.245000	-0.998991
	2.250000	-0.892620
	2.255000	-0.905513
	2.260000	-1.018331
	2.265000	-1.005437
	2.270000	-0.892620
	2.275000	-0.905513
	2.280000	-1.011884
	2.285000	-0.989320
	2.290000	-0.889396
	2.295000	-0.902290
	2.300000	-1.011884
	2.305000	-0.989320
	2.310000	-0.892620
	2.315000	-0.905513
	2.320000	-1.008661
	2.325000	-0.995767
	2.330000	-0.882950
	2.335000	-0.905513
	2.340000	-1.011884
	2.345000	-1.002214
	2.350000	-0.886173
	2.355000	-0.902290
	2.360000	-1.005437
	2.365000	-0.986097
	2.370000	-0.886173
	2.375000	-0.899066
	2.380000	-1.002214
	2.385000	-0.989320
	2.390000	-0.882950
	2.395000	-0.905513
	2.400000	-1.005437
	2.405000	-0.986097
	2.410000	-0.879726
	2.415000	-0.895843
	2.420000	-1.005437
	2.425000	-0.989320
	2.430000	-0.882950
	2.435000	-0.902290
	2.440000	-1.002214
	2.445000	-0.982874
	2.450000	-0.889396
	2.455000	-0.902290
	2.460000	-1.002214
	2.465000	-0.979650
	2.470000	-0.879726
	2.475000	-0.902290
	2.480000	-1.002214
	2.485000	-0.979650
	2.490000	-0.879726
	2.495000	-0.889396
	2.500000	-1.002214
	2.505000	-0.976427
	2.510000	-0.876503
	2.515000	-0.895843
	2.520000	-0.995767
	2.525000	-0.976427
	2.530000	-0.879726
	2.535000	-0.895843
	2.540000	-0.998991
	2.545000	-0.973204
	2.550000	-0.873280
	2.555000	-0.892620
	2.560000	-1.002214
	2.565000	-0.976427
	2.570000	-0.876503
	2.575000	-0.889396
	2.580000	-0.998991
	2.585000	-0.973204
	2.590000	-0.876503
	2.595000	-0.889396
	2.600000	-0.989320
	2.605000	-0.969980
	2.610000	-0.870056
	2.615000	-0.889396
	2.620000	-0.992544
	2.625000	-0.973204
	2.630000	-0.866833
	2.635000	-0.895843
	2.640000	-0.989320
	2.645000	-0.969980
	2.650000	-0.866833
	2.655000	-0.892620
	2.660000	-0.992544
	2.665000	-0.973204
	2.670000	-0.866833
	2.675000	-0.882950
	2.680000	-0.989320
	2.685000	-0.966757
	2.690000	-0.863609
	2.695000	-0.889396
	2.700000	-0.986097
	2.705000	-0.966757
	2.710000	-0.863609
	2.715000	-0.882950
	2.720000	-0.989320
	2.725000	-0.966757
	2.730000	-0.857163
	2.735000	-0.876503
	2.740000	-0.986097
	2.745000	-0.969980
	2.750000	-0.863609
	2.755000	-0.889396
	2.760000	-0.986097
	2.765000	-0.957087
	2.770000	-0.857163
	2.775000	-0.886173
	2.780000	-0.992544
	2.785000	-0.960310
	2.790000	-0.863609
	2.795000	-0.879726
	2.800000	-0.986097
	2.805000	-0.957087
	2.810000	-0.857163
	2.815000	-0.879726
	2.820000	-0.986097
	2.825000	-0.960310
	2.830000	-0.847493
	2.835000	-0.879726
	2.840000	-0.979650
	2.845000	-0.960310
	2.850000	-0.857163
	2.855000	-0.882950
	2.860000	-0.986097
	2.865000	-0.960310
	2.870000	-0.853939
	2.875000	-0.882950
	2.880000	-0.982874
	2.885000	-0.950640
	2.890000	-0.847493
	2.895000	-0.876503
	2.900000	-0.969980
	2.905000	-0.953863
	2.910000	-0.850716
	2.915000	-0.876503
	2.920000	-0.973204
	2.925000	-0.947417
	2.930000	-0.841046
	2.935000	-0.866833
	2.940000	-0.966757
	2.945000	-0.944193
	2.950000	-0.847493
	2.955000	-0.866833
	2.960000	-0.966757
	2.965000	-0.940970
	2.970000	-0.837823
	2.975000	-0.870056
	2.980000	-0.966757
	2.985000	-0.934523
	2.990000	-0.834599
	2.995000	-0.863609
	3.000000	-0.973204
	3.005000	-0.931300
	3.010000	-0.841046
	3.015000	-0.866833
	3.020000	-0.969980
	3.025000	-0.934523
	3.030000	-0.834599
	3.035000	-0.866833
	3.040000	-0.966757
	3.045000	-0.931300
	3.050000	-0.837823
	3.055000	-0.863609
	3.060000	-0.963534
	3.065000	-0.928077
	3.070000	-0.831376
	3.075000	-0.863609
	3.080000	-0.966757
	3.085000	-0.934523
	3.090000	-0.824929
	3.095000	-0.863609
	3.100000	-0.963534
	3.105000	-0.931300
	3.110000	-0.824929
	3.115000	-0.863609
	3.120000	-0.957087
	3.125000	-0.931300
	3.130000	-0.828152
	3.135000	-0.863609
	3.140000	-0.963534
	3.145000	-0.924853
	3.150000	-0.828152
	3.155000	-0.863609
	3.160000	-0.963534
	3.165000	-0.928077
	3.170000	-0.831376
	3.175000	-0.857163
	3.180000	-0.957087
	3.185000	-0.924853
	3.190000	-0.831376
	3.195000	-0.863609
	3.200000	-0.953863
	3.205000	-0.921630
	3.210000	-0.824929
	3.215000	-0.853939
	3.220000	-0.953863
	3.225000	-0.915183
	3.230000	-0.821706
	3.235000	-0.847493
	3.240000	-0.950640
	3.245000	-0.918407
	3.250000	-0.815259
	3.255000	-0.844269
	3.260000	-0.937747
	3.265000	-0.911960
	3.270000	-0.805589
	3.275000	-0.841046
	3.280000	-0.937747
	3.285000	-0.905513
	3.290000	-0.805589
	3.295000	-0.831376
	3.300000	-0.937747
	3.305000	-0.895843
	3.310000	-0.802366
	3.315000	-0.841046
	3.320000	-0.934523
	3.325000	-0.895843
	3.330000	-0.799142
	3.335000	-0.831376
	3.340000	-0.931300
	3.345000	-0.892620
	3.350000	-0.799142
	3.355000	-0.831376
	3.360000	-0.934523
	3.365000	-0.892620
	3.370000	-0.799142
	3.375000	-0.828152
	3.380000	-0.934523
	3.385000	-0.892620
	3.390000	-0.795919
	3.395000	-0.837823
	3.400000	-0.931300
	3.405000	-0.895843
	3.410000	-0.799142
	3.415000	-0.824929
	3.420000	-0.921630
	3.425000	-0.889396
	3.430000	-0.792696
	3.435000	-0.834599
	3.440000	-0.921630
	3.445000	-0.886173
	3.450000	-0.795919
	3.455000	-0.831376
	3.460000	-0.921630
	3.465000	-0.889396
	3.470000	-0.799142
	3.475000	-0.831376
	3.480000	-0.928077
	3.485000	-0.889396
	3.490000	-0.792696
	3.495000	-0.837823
	3.500000	-0.931300
	3.505000	-0.886173
	3.510000	-0.795919
	3.515000	-0.831376
	3.520000	-0.931300
	3.525000	-0.889396
	3.530000	-0.792696
	3.535000	-0.837823
	3.540000	-0.924853
	3.545000	-0.892620
	3.550000	-0.799142
	3.555000	-0.837823
	3.560000	-0.931300
	3.565000	-0.895843
	3.570000	-0.792696
	3.575000	-0.841046
	3.580000	-0.934523
	3.585000	-0.892620
	3.590000	-0.802366
	3.595000	-0.837823
	3.600000	-0.937747
	3.605000	-0.899066
	3.610000	-0.795919
	3.615000	-0.841046
	3.620000	-0.934523
	3.625000	-0.886173
	3.630000	-0.799142
	3.635000	-0.837823
	3.640000	-0.937747
	3.645000	-0.892620
	3.650000	-0.792696
	3.655000	-0.837823
	3.660000	-0.934523
	3.665000	-0.886173
	3.670000	-0.795919
	3.675000	-0.837823
	3.680000	-0.928077
	3.685000	-0.886173
	3.690000	-0.792696
	3.695000	-0.834599
	3.700000	-0.928077
	3.705000	-0.886173
	3.710000	-0.795919
	3.715000	-0.831376
	3.720000	-0.928077
	3.725000	-0.882950
	3.730000	-0.789472
	3.735000	-0.834599
	3.740000	-0.928077
	3.745000	-0.882950
	3.750000	-0.786249
	3.755000	-0.841046
	3.760000	-0.934523
	3.765000	-0.882950
	3.770000	-0.799142
	3.775000	-0.837823
	3.780000	-0.928077
	3.785000	-0.886173
	3.790000	-0.789472
	3.795000	-0.837823
	3.800000	-0.937747
	3.805000	-0.886173
	3.810000	-0.789472
	3.815000	-0.841046
	3.820000	-0.928077
	3.825000	-0.895843
	3.830000	-0.795919
	3.835000	-0.837823
	3.840000	-0.934523
	3.845000	-0.892620
	3.850000	-0.795919
	3.855000	-0.844269
	3.860000	-0.937747
	3.865000	-0.895843
	3.870000	-0.799142
	3.875000	-0.847493
	3.880000	-0.940970
	3.885000	-0.889396
	3.890000	-0.799142
	3.895000	-0.847493
	3.900000	-0.940970
	3.905000	-0.892620
	3.910000	-0.802366
	3.915000	-0.853939
	3.920000	-0.937747
	3.925000	-0.889396
	3.930000	-0.802366
	3.935000	-0.847493
	3.940000	-0.940970
	3.945000	-0.895843
	3.950000	-0.799142
	3.955000	-0.844269
	3.960000	-0.944193
	3.965000	-0.892620
	3.970000	-0.799142
	3.975000	-0.847493
	3.980000	-0.937747
	3.985000	-0.889396
	3.990000	-0.799142
	3.995000	-0.850716
	4.000000	-0.944193
	4.005000	-0.892620
	4.010000	-0.805589
	4.015000	-0.844269
	4.020000	-0.944193
	4.025000	-0.889396
	4.030000	-0.795919
	4.035000	-0.850716
	4.040000	-0.940970
	4.045000	-0.886173
	4.050000	-0.795919
	4.055000	-0.847493
	4.060000	-0.934523
	4.065000	-0.886173
	4.070000	-0.795919
	4.075000	-0.847493
	4.080000	-0.934523
	4.085000	-0.879726
	4.090000	-0.799142
	4.095000	-0.847493
	4.100000	-0.937747
	4.105000	-0.886173
	4.110000	-0.799142
	4.115000	-0.847493
	4.120000	-0.934523
	4.125000	-0.886173
	4.130000	-0.795919
	4.135000	-0.850716
	4.140000	-0.944193
	4.145000	-0.879726
	4.150000	-0.789472
	4.155000	-0.841046
	4.160000	-0.934523
	4.165000	-0.873280
	4.170000	-0.792696
	4.175000	-0.847493
	4.180000	-0.931300
	4.185000	-0.882950
	4.190000	-0.786249
	4.195000	-0.850716
	4.200000	-0.934523
	4.205000	-0.876503
	4.210000	-0.789472
	4.215000	-0.844269
	4.220000	-0.937747
	4.225000	-0.886173
	4.230000	-0.786249
	4.235000	-0.850716
	4.240000	-0.937747
	4.245000	-0.882950
	4.250000	-0.795919
	4.255000	-0.850716
	4.260000	-0.940970
	4.265000	-0.889396
	4.270000	-0.799142
	4.275000	-0.850716
	4.280000	-0.940970
	4.285000	-0.886173
	4.290000	-0.799142
	4.295000	-0.850716
	4.300000	-0.940970
	4.305000	-0.876503
	4.310000	-0.799142
	4.315000	-0.844269
	4.320000	-0.934523
	4.325000	-0.879726
	4.330000	-0.795919
	4.335000	-0.857163
	4.340000	-0.934523
	4.345000	-0.876503
	4.350000	-0.789472
	4.355000	-0.857163
	4.360000	-0.937747
	4.365000	-0.876503
	4.370000	-0.789472
	4.375000	-0.844269
	4.380000	-0.928077
	4.385000	-0.866833
	4.390000	-0.779802
	4.395000	-0.834599
	4.400000	-0.924853
	4.405000	-0.870056
	4.410000	-0.779802
	4.415000	-0.831376
	4.420000	-0.918407
	4.425000	-0.863609
	4.430000	-0.770132
	4.435000	-0.824929
	4.440000	-0.924853
	4.445000	-0.863609
	4.450000	-0.773355
	4.455000	-0.828152
	4.460000	-0.911960
	4.465000	-0.857163
	4.470000	-0.770132
	4.475000	-0.824929
	4.480000	-0.908736
	4.485000	-0.847493
	4.490000	-0.773355
	4.495000	-0.821706
	4.500000	-0.915183
	4.505000	-0.857163
	4.510000	-0.770132
	4.515000	-0.828152
	4.520000	-0.915183
	4.525000	-0.857163
	4.530000	-0.773355
	4.535000	-0.834599
	4.540000	-0.911960
	4.545000	-0.853939
	4.550000	-0.770132
	4.555000	-0.828152
	4.560000	-0.915183
	4.565000	-0.857163
	4.570000	-0.773355
	4.575000	-0.828152
	4.580000	-0.921630
	4.585000	-0.853939
	4.590000	-0.760462
	4.595000	-0.834599
	4.600000	-0.915183
	4.605000	-0.850716
	4.610000	-0.766909
	4.615000	-0.828152
	4.620000	-0.918407
	4.625000	-0.844269
	4.630000	-0.766909
	4.635000	-0.821706
	4.640000	-0.915183
	4.645000	-0.850716
	4.650000	-0.773355
	4.655000	-0.828152
	4.660000	-0.915183
	4.665000	-0.847493
	4.670000	-0.763685
	4.675000	-0.828152
	4.680000	-0.908736
	4.685000	-0.844269
	4.690000	-0.760462
	4.695000	-0.828152
	4.700000	-0.911960
	4.705000	-0.850716
	4.710000	-0.760462
	4.715000	-0.828152
	4.720000	-0.908736
	4.725000	-0.841046
	4.730000	-0.766909
	4.735000	-0.818482
	4.740000	-0.908736
	4.745000	-0.837823
	4.750000	-0.760462
	4.755000	-0.824929
	4.760000	-0.911960
	4.765000	-0.844269
	4.770000	-0.760462
	4.775000	-0.824929
	4.780000	-0.905513
	4.785000	-0.837823
	4.790000	-0.766909
	4.795000	-0.824929
	4.800000	-0.902290
	4.805000	-0.841046
	4.810000	-0.760462
	4.815000	-0.824929
	4.820000	-0.908736
	4.825000	-0.844269
	4.830000	-0.760462
	4.835000	-0.824929
	4.840000	-0.908736
	4.845000	-0.844269
	4.850000	-0.754015
	4.855000	-0.821706
	4.860000	-0.908736
	4.865000	-0.841046
	4.870000	-0.757239
	4.875000	-0.828152
	4.880000	-0.905513
	4.885000	-0.841046
	4.890000	-0.760462
	4.895000	-0.828152
	4.900000	-0.905513
	4.905000	-0.834599
	4.910000	-0.760462
	4.915000	-0.828152
	4.920000	-0.905513
	4.925000	-0.837823
	4.930000	-0.757239
	4.935000	-0.824929
	4.940000	-0.902290
	4.945000	-0.837823
	4.950000	-0.763685
	4.955000	-0.824929
	4.960000	-0.908736
	4.965000	-0.834599
	4.970000	-0.757239
	4.975000	-0.824929
	4.980000	-0.902290
	4.985000	-0.834599
	4.990000	-0.760462
	4.995000	-0.818482
	5.000000	-0.908736
	5.005000	-0.834599
	5.010000	-0.750792
	5.015000	-0.821706
	5.020000	-0.905513
	5.025000	-0.828152
	5.030000	-0.754015
	5.035000	-0.824929
	5.040000	-0.899066
	5.045000	-0.831376
	5.050000	-0.754015
	5.055000	-0.821706
	5.060000	-0.902290
	5.065000	-0.834599
	5.070000	-0.754015
	5.075000	-0.818482
	5.080000	-0.902290
	5.085000	-0.828152
	5.090000	-0.757239
	5.095000	-0.824929
	5.100000	-0.902290
	5.105000	-0.837823
	5.110000	-0.754015
	5.115000	-0.824929
	5.120000	-0.902290
	5.125000	-0.828152
	5.130000	-0.747569
	5.135000	-0.824929
	5.140000	-0.895843
	5.145000	-0.831376
	5.150000	-0.754015
	5.155000	-0.828152
	5.160000	-0.902290
	5.165000	-0.828152
	5.170000	-0.750792
	5.175000	-0.821706
	5.180000	-0.899066
	5.185000	-0.824929
	5.190000	-0.747569
	5.195000	-0.824929
	5.200000	-0.899066
	5.205000	-0.824929
	5.210000	-0.747569
	5.215000	-0.815259
	5.220000	-0.895843
	5.225000	-0.824929
	5.230000	-0.747569
	5.235000	-0.821706
	5.240000	-0.895843
	5.245000	-0.818482
	5.250000	-0.741122
	5.255000	-0.821706
	5.260000	-0.895843
	5.265000	-0.821706
	5.270000	-0.747569
	5.275000	-0.818482
	5.280000	-0.902290
	5.285000	-0.821706
	5.290000	-0.750792
	5.295000	-0.824929
	5.300000	-0.895843
	5.305000	-0.815259
	5.310000	-0.747569
	5.315000	-0.818482
	5.320000	-0.899066
	5.325000	-0.815259
	5.330000	-0.750792
	5.335000	-0.821706
	5.340000	-0.895843
	5.345000	-0.815259
	5.350000	-0.750792
	5.355000	-0.815259
	5.360000	-0.895843
	5.365000	-0.818482
	5.370000	-0.747569
	5.375000	-0.821706
	5.380000	-0.899066
	5.385000	-0.824929
	5.390000	-0.747569
	5.395000	-0.821706
	5.400000	-0.892620
	5.405000	-0.821706
	5.410000	-0.744345
	5.415000	-0.818482
	5.420000	-0.886173
	5.425000	-0.821706
	5.430000	-0.737898
	5.435000	-0.815259
	5.440000	-0.895843
	5.445000	-0.812036
	5.450000	-0.747569
	5.455000	-0.818482
	5.460000	-0.892620
	5.465000	-0.818482
	5.470000	-0.741122
	5.475000	-0.824929
	5.480000	-0.895843
	5.485000	-0.812036
	5.490000	-0.744345
	5.495000	-0.815259
	5.500000	-0.889396
	5.505000	-0.815259
	5.510000	-0.741122
	5.515000	-0.824929
	5.520000	-0.895843
	5.525000	-0.818482
	5.530000	-0.741122
	5.535000	-0.821706
	5.540000	-0.886173
	5.545000	-0.812036
	5.550000	-0.737898
	5.555000	-0.818482
	5.560000	-0.889396
	5.565000	-0.808812
	5.570000	-0.741122
	5.575000	-0.815259
	5.580000	-0.889396
	5.585000	-0.808812
	5.590000	-0.734675
	5.595000	-0.818482
	5.600000	-0.889396
	5.605000	-0.808812
	5.610000	-0.741122
	5.615000	-0.818482
	5.620000	-0.886173
	5.625000	-0.805589
	5.630000	-0.737898
	5.635000	-0.818482
	5.640000	-0.882950
	5.645000	-0.805589
	5.650000	-0.734675
	5.655000	-0.818482
	5.660000	-0.882950
	5.665000	-0.802366
	5.670000	-0.741122
	5.675000	-0.821706
	5.680000	-0.886173
	5.685000	-0.808812
	5.690000	-0.737898
	5.695000	-0.812036
	5.700000	-0.876503
	5.705000	-0.802366
	5.710000	-0.737898
	5.715000	-0.818482
	5.720000	-0.889396
	5.725000	-0.805589
	5.730000	-0.734675
	5.735000	-0.818482
	5.740000	-0.882950
	5.745000	-0.802366
	5.750000	-0.741122
	5.755000	-0.821706
	5.760000	-0.886173
	5.765000	-0.795919
	5.770000	-0.741122
	5.775000	-0.812036
	5.780000	-0.882950
	5.785000	-0.799142
	5.790000	-0.734675
	5.795000	-0.818482
	5.800000	-0.886173
	5.805000	-0.799142
	5.810000	-0.731452
	5.815000	-0.808812
	5.820000	-0.882950
	5.825000	-0.795919
	5.830000	-0.731452
	5.835000	-0.808812
	5.840000	-0.879726
	5.845000	-0.795919
	5.850000	-0.728228
	5.855000	-0.812036
	5.860000	-0.879726
	5.865000	-0.792696
	5.870000	-0.728228
	5.875000	-0.808812
	5.880000	-0.876503
	5.885000	-0.789472
	5.890000	-0.721782
	5.895000	-0.805589
	5.900000	-0.873280
	5.905000	-0.789472
	5.910000	-0.721782
	5.915000	-0.805589
	5.920000	-0.863609
	5.925000	-0.789472
	5.930000	-0.718558
	5.935000	-0.799142
	5.940000	-0.870056
	5.945000	-0.783025
	5.950000	-0.721782
	5.955000	-0.802366
	5.960000	-0.870056
	5.965000	-0.779802
	5.970000	-0.715335
	5.975000	-0.795919
	5.980000	-0.853939
	5.985000	-0.773355
	5.990000	-0.708888
	5.995000	-0.795919
	6.000000	-0.850716
	6.005000	-0.773355
	6.010000	-0.712112
	6.015000	-0.792696
	6.020000	-0.850716
	6.025000	-0.770132
	6.030000	-0.708888
	6.035000	-0.792696
	6.040000	-0.850716
	6.045000	-0.770132
	6.050000	-0.705665
	6.055000	-0.792696
	6.060000	-0.844269
	6.065000	-0.770132
	6.070000	-0.702441
	6.075000	-0.786249
	6.080000	-0.847493
	6.085000	-0.766909
	6.090000	-0.702441
	6.095000	-0.786249
	6.100000	-0.850716
	6.105000	-0.763685
	6.110000	-0.695995
	6.115000	-0.776579
	6.120000	-0.841046
	6.125000	-0.754015
	6.130000	-0.692771
	6.135000	-0.776579
	6.140000	-0.837823
	6.145000	-0.750792
	6.150000	-0.695995
	6.155000	-0.779802
	6.160000	-0.837823
	6.165000	-0.747569
	6.170000	-0.686325
	6.175000	-0.779802
	6.180000	-0.837823
	6.185000	-0.757239
	6.190000	-0.692771
	6.195000	-0.773355
	6.200000	-0.831376
	6.205000	-0.750792
	6.210000	-0.683101
	6.215000	-0.779802
	6.220000	-0.837823
	6.225000	-0.747569
	6.230000	-0.695995
	6.235000	-0.779802
	6.240000	-0.831376
	6.245000	-0.754015
	6.250000	-0.692771
	6.255000	-0.786249
	6.260000	-0.841046
	6.265000	-0.757239
	6.270000	-0.695995
	6.275000	-0.789472
	6.280000	-0.850716
	6.285000	-0.754015
	6.290000	-0.699218
	6.295000	-0.776579
	6.300000	-0.841046
	6.305000	-0.754015
	6.310000	-0.699218
	6.315000	-0.783025
	6.320000	-0.844269
	6.325000	-0.757239
	6.330000	-0.699218
	6.335000	-0.779802
	6.340000	-0.837823
	6.345000	-0.754015
	6.350000	-0.692771
	6.355000	-0.786249
	6.360000	-0.837823
	6.365000	-0.750792
	6.370000	-0.695995
	6.375000	-0.783025
	6.380000	-0.837823
	6.385000	-0.750792
	6.390000	-0.699218
	6.395000	-0.789472
	6.400000	-0.844269
	6.405000	-0.754015
	6.410000	-0.689548
	6.415000	-0.783025
	6.420000	-0.837823
	6.425000	-0.747569
	6.430000	-0.699218
	6.435000	-0.779802
	6.440000	-0.834599
	6.445000	-0.747569
	6.450000	-0.705665
	6.455000	-0.786249
	6.460000	-0.837823
	6.465000	-0.757239
	6.470000	-0.702441
	6.475000	-0.789472
	6.480000	-0.844269
	6.485000	-0.754015
	6.490000	-0.702441
	6.495000	-0.795919
	6.500000	-0.847493
	6.505000	-0.754015
	6.510000	-0.702441
	6.515000	-0.795919
	6.520000	-0.844269
	6.525000	-0.760462
	6.530000	-0.705665
	6.535000	-0.799142
	6.540000	-0.841046
	6.545000	-0.757239
	6.550000	-0.708888
	6.555000	-0.795919
	6.560000	-0.850716
	6.565000	-0.763685
	6.570000	-0.712112
	6.575000	-0.802366
	6.580000	-0.853939
	6.585000	-0.763685
	6.590000	-0.715335
	6.595000	-0.812036
	6.600000	-0.863609
	6.605000	-0.773355
	6.610000	-0.721782
	6.615000	-0.805589
	6.620000	-0.863609
	6.625000	-0.773355
	6.630000	-0.725005
	6.635000	-0.818482
	6.640000	-0.866833
	6.645000	-0.779802
	6.650000	-0.721782
	6.655000	-0.821706
	6.660000	-0.873280
	6.665000	-0.776579
	6.670000	-0.725005
	6.675000	-0.821706
	6.680000	-0.863609
	6.685000	-0.773355
	6.690000	-0.725005
	6.695000	-0.824929
	6.700000	-0.870056
	6.705000	-0.779802
	6.710000	-0.731452
	6.715000	-0.812036
	6.720000	-0.870056
	6.725000	-0.779802
	6.730000	-0.728228
	6.735000	-0.828152
	6.740000	-0.873280
	6.745000	-0.776579
	6.750000	-0.728228
	6.755000	-0.824929
	6.760000	-0.866833
	6.765000	-0.773355
	6.770000	-0.731452
	6.775000	-0.821706
	6.780000	-0.873280
	6.785000	-0.779802
	6.790000	-0.734675
	6.795000	-0.831376
	6.800000	-0.870056
	6.805000	-0.779802
	6.810000	-0.731452
	6.815000	-0.821706
	6.820000	-0.870056
	6.825000	-0.773355
	6.830000	-0.734675
	6.835000	-0.818482
	6.840000	-0.873280
	6.845000	-0.776579
	6.850000	-0.734675
	6.855000	-0.824929
	6.860000	-0.873280
	6.865000	-0.773355
	6.870000	-0.731452
	6.875000	-0.821706
	6.880000	-0.866833
	6.885000	-0.773355
	6.890000	-0.725005
	6.895000	-0.818482
	6.900000	-0.860386
	6.905000	-0.770132
	6.910000	-0.721782
	6.915000	-0.818482
	6.920000	-0.857163
	6.925000	-0.770132
	6.930000	-0.715335
	6.935000	-0.812036
	6.940000	-0.857163
	6.945000	-0.763685
	6.950000	-0.718558
	6.955000	-0.818482
	6.960000	-0.853939
	6.965000	-0.760462
	6.970000	-0.718558
	6.975000	-0.815259
	6.980000	-0.853939
	6.985000	-0.754015
	6.990000	-0.715335
	6.995000	-0.812036
	7.000000	-0.857163
	7.005000	-0.754015
	7.010000	-0.718558
	7.015000	-0.808812
	7.020000	-0.850716
	7.025000	-0.760462
	7.030000	-0.715335
	7.035000	-0.812036
	7.040000	-0.857163
	7.045000	-0.760462
	7.050000	-0.712112
	7.055000	-0.808812
	7.060000	-0.847493
	7.065000	-0.757239
	7.070000	-0.712112
	7.075000	-0.805589
	7.080000	-0.847493
	7.085000	-0.754015
	7.090000	-0.712112
	7.095000	-0.812036
	7.100000	-0.847493
	7.105000	-0.754015
	7.110000	-0.715335
	7.115000	-0.805589
	7.120000	-0.844269
	7.125000	-0.747569
	7.130000	-0.708888
	7.135000	-0.808812
	7.140000	-0.847493
	7.145000	-0.747569
	7.150000	-0.705665
	7.155000	-0.812036
	7.160000	-0.844269
	7.165000	-0.754015
	7.170000	-0.705665
	7.175000	-0.815259
	7.180000	-0.844269
	7.185000	-0.744345
	7.190000	-0.702441
	7.195000	-0.802366
	7.200000	-0.844269
	7.205000	-0.744345
	7.210000	-0.705665
	7.215000	-0.812036
	7.220000	-0.847493
	7.225000	-0.744345
	7.230000	-0.712112
	7.235000	-0.808812
	7.240000	-0.847493
	7.245000	-0.747569
	7.250000	-0.708888
	7.255000	-0.808812
	7.260000	-0.850716
	7.265000	-0.744345
	7.270000	-0.708888
	7.275000	-0.808812
	7.280000	-0.847493
	7.285000	-0.747569
	7.290000	-0.705665
	7.295000	-0.802366
	7.300000	-0.841046
	7.305000	-0.747569
	7.310000	-0.708888
	7.315000	-0.808812
	7.320000	-0.834599
	7.325000	-0.750792
	7.330000	-0.702441
	7.335000	-0.808812
	7.340000	-0.841046
	7.345000	-0.741122
	7.350000	-0.708888
	7.355000	-0.799142
	7.360000	-0.834599
	7.365000	-0.741122
	7.370000	-0.705665
	7.375000	-0.805589
	7.380000	-0.831376
	7.385000	-0.734675
	7.390000	-0.702441
	7.395000	-0.802366
	7.400000	-0.841046
	7.405000	-0.741122
	7.410000	-0.702441
	7.415000	-0.802366
	7.420000	-0.834599
	7.425000	-0.741122
	7.430000	-0.702441
	7.435000	-0.802366
	7.440000	-0.837823
	7.445000	-0.734675
	7.450000	-0.708888
	7.455000	-0.808812
	7.460000	-0.837823
	7.465000	-0.734675
	7.470000	-0.705665
	7.475000	-0.805589
	7.480000	-0.837823
	7.485000	-0.734675
	7.490000	-0.705665
	7.495000	-0.812036
	7.500000	-0.837823
	7.505000	-0.734675
	7.510000	-0.708888
	7.515000	-0.802366
	7.520000	-0.837823
	7.525000	-0.737898
	7.530000	-0.702441
	7.535000	-0.805589
	7.540000	-0.831376
	7.545000	-0.734675
	7.550000	-0.702441
	7.555000	-0.805589
	7.560000	-0.828152
	7.565000	-0.728228
	7.570000	-0.695995
	7.575000	-0.802366
	7.580000	-0.831376
	7.585000	-0.734675
	7.590000	-0.705665
	7.595000	-0.812036
	7.600000	-0.834599
	7.605000	-0.731452
	7.610000	-0.702441
	7.615000	-0.802366
	7.620000	-0.831376
	7.625000	-0.725005
	7.630000	-0.702441
	7.635000	-0.808812
	7.640000	-0.834599
	7.645000	-0.731452
	7.650000	-0.705665
	7.655000	-0.802366
	7.660000	-0.831376
	7.665000	-0.731452
	7.670000	-0.692771
	7.675000	-0.802366
	7.680000	-0.831376
	7.685000	-0.734675
	7.690000	-0.702441
	7.695000	-0.802366
	7.700000	-0.831376
	7.705000	-0.725005
	7.710000	-0.695995
	7.715000	-0.802366
	7.720000	-0.831376
	7.725000	-0.731452
	7.730000	-0.699218
	7.735000	-0.799142
	7.740000	-0.828152
	7.745000	-0.728228
	7.750000	-0.695995
	7.755000	-0.799142
	7.760000	-0.831376
	7.765000	-0.721782
	7.770000	-0.699218
	7.775000	-0.808812
	7.780000	-0.831376
	7.785000	-0.721782
	7.790000	-0.695995
	7.795000	-0.802366
	7.800000	-0.831376
	7.805000	-0.721782
	7.810000	-0.689548
	7.815000	-0.795919
	7.820000	-0.824929
	7.825000	-0.728228
	7.830000	-0.692771
	7.835000	-0.799142
	7.840000	-0.831376
	7.845000	-0.718558
	7.850000	-0.695995
	7.855000	-0.802366
	7.860000	-0.824929
	7.865000	-0.721782
	7.870000	-0.699218
	7.875000	-0.805589
	7.880000	-0.824929
	7.885000	-0.721782
	7.890000	-0.695995
	7.895000	-0.802366
	7.900000	-0.821706
	7.905000	-0.718558
	7.910000	-0.699218
	7.915000	-0.805589
	7.920000	-0.818482
	7.925000	-0.715335
	7.930000	-0.699218
	7.935000	-0.799142
	7.940000	-0.818482
	7.945000	-0.715335
	7.950000	-0.692771
	7.955000	-0.805589
	7.960000	-0.821706
	7.965000	-0.721782
	7.970000	-0.702441
	7.975000	-0.799142
	7.980000	-0.821706
	7.985000	-0.718558
	7.990000	-0.699218
	7.995000	-0.802366
	8.000000	-0.828152
	8.005000	-0.725005
	8.010000	-0.692771
	8.015000	-0.802366
	8.020000	-0.818482
	8.025000	-0.715335
	8.030000	-0.692771
	8.035000	-0.805589
	8.040000	-0.818482
	8.045000	-0.718558
	8.050000	-0.689548
	8.055000	-0.799142
	8.060000	-0.818482
	8.065000	-0.715335
	8.070000	-0.695995
	8.075000	-0.805589
	8.080000	-0.815259
	8.085000	-0.708888
	8.090000	-0.692771
	8.095000	-0.799142
	8.100000	-0.815259
	8.105000	-0.715335
	8.110000	-0.695995
	8.115000	-0.802366
	8.120000	-0.815259
	8.125000	-0.718558
	8.130000	-0.695995
	8.135000	-0.802366
	8.140000	-0.821706
	8.145000	-0.712112
	8.150000	-0.695995
	8.155000	-0.802366
	8.160000	-0.824929
	8.165000	-0.708888
	8.170000	-0.692771
	8.175000	-0.799142
	8.180000	-0.815259
	8.185000	-0.702441
	8.190000	-0.689548
	8.195000	-0.795919
	8.200000	-0.815259
	8.205000	-0.708888
	8.210000	-0.695995
	8.215000	-0.799142
	8.220000	-0.812036
	8.225000	-0.718558
	8.230000	-0.689548
	8.235000	-0.795919
	8.240000	-0.818482
	8.245000	-0.702441
	8.250000	-0.695995
	8.255000	-0.795919
	8.260000	-0.815259
	8.265000	-0.702441
	8.270000	-0.695995
	8.275000	-0.795919
	8.280000	-0.812036
	8.285000	-0.705665
	8.290000	-0.692771
	8.295000	-0.795919
	8.300000	-0.808812
	8.305000	-0.705665
	8.310000	-0.689548
	8.315000	-0.795919
	8.320000	-0.812036
	8.325000	-0.699218
	8.330000	-0.695995
	8.335000	-0.799142
	8.340000	-0.808812
	8.345000	-0.702441
	8.350000	-0.689548
	8.355000	-0.792696
	8.360000	-0.805589
	8.365000	-0.699218
	8.370000	-0.686325
	8.375000	-0.799142
	8.380000	-0.805589
	8.385000	-0.702441
	8.390000	-0.692771
	8.395000	-0.789472
	8.400000	-0.805589
	8.405000	-0.702441
	8.410000	-0.689548
	8.415000	-0.789472
	8.420000	-0.805589
	8.425000	-0.695995
	8.430000	-0.692771
	8.435000	-0.802366
	8.440000	-0.808812
	8.445000	-0.705665
	8.450000	-0.692771
	8.455000	-0.795919
	8.460000	-0.802366
	8.465000	-0.699218
	8.470000	-0.683101
	8.475000	-0.795919
	8.480000	-0.802366
	8.485000	-0.695995
	8.490000	-0.686325
	8.495000	-0.792696
	8.500000	-0.799142
	8.505000	-0.695995
	8.510000	-0.692771
	8.515000	-0.799142
	8.520000	-0.808812
	8.525000	-0.689548
	8.530000	-0.686325
	8.535000	-0.792696
	8.540000	-0.802366
	8.545000	-0.692771
	8.550000	-0.689548
	8.555000	-0.802366
	8.560000	-0.802366
	8.565000	-0.692771
	8.570000	-0.686325
	8.575000	-0.792696
	8.580000	-0.802366
	8.585000	-0.695995
	8.590000	-0.683101
	8.595000	-0.792696
	8.600000	-0.799142
	8.605000	-0.689548
	8.610000	-0.679878
	8.615000	-0.795919
	8.620000	-0.799142
	8.625000	-0.686325
	8.630000	-0.683101
	8.635000	-0.792696
	8.640000	-0.792696
	8.645000	-0.683101
	8.650000	-0.679878
	8.655000	-0.786249
	8.660000	-0.789472
	8.665000	-0.686325
	8.670000	-0.673431
	8.675000	-0.779802
	8.680000	-0.783025
	8.685000	-0.686325
	8.690000	-0.673431
	8.695000	-0.773355
	8.700000	-0.786249
	8.705000	-0.679878
	8.710000	-0.676655
	8.715000	-0.779802
	8.720000	-0.783025
	8.725000	-0.676655
	8.730000	-0.670208
	8.735000	-0.779802
	8.740000	-0.779802
	8.745000	-0.683101
	8.750000	-0.673431
	8.755000	-0.776579
	8.760000	-0.783025
	8.765000	-0.679878
	8.770000	-0.676655
	8.775000	-0.776579
	8.780000	-0.779802
	8.785000	-0.676655
	8.790000	-0.679878
	8.795000	-0.779802
	8.800000	-0.779802
	8.805000	-0.683101
	8.810000	-0.670208
	8.815000	-0.786249
	8.820000	-0.786249
	8.825000	-0.679878
	8.830000	-0.679878
	8.835000	-0.783025
	8.840000	-0.776579
	8.845000	-0.673431
	8.850000	-0.676655
	8.855000	-0.779802
	8.860000	-0.776579
	8.865000	-0.676655
	8.870000	-0.686325
	8.875000	-0.783025
	8.880000	-0.779802
	8.885000	-0.676655
	8.890000	-0.679878
	8.895000	-0.783025
	8.900000	-0.776579
	8.905000	-0.679878
	8.910000	-0.673431
	8.915000	-0.783025
	8.920000	-0.779802
	8.925000	-0.679878
	8.930000	-0.679878
	8.935000	-0.783025
	8.940000	-0.776579
	8.945000	-0.679878
	8.950000	-0.679878
	8.955000	-0.776579
	8.960000	-0.779802
	8.965000	-0.676655
	8.970000	-0.676655
	8.975000	-0.779802
	8.980000	-0.779802
	8.985000	-0.666985
	8.990000	-0.673431
	8.995000	-0.776579
	9.000000	-0.776579
	9.005000	-0.670208
	9.010000	-0.670208
	9.015000	-0.766909
	9.020000	-0.766909
	9.025000	-0.660538
	9.030000	-0.660538
	9.035000	-0.757239
	9.040000	-0.760462
	9.045000	-0.657314
	9.050000	-0.657314
	9.055000	-0.763685
	9.060000	-0.757239
	9.065000	-0.657314
	9.070000	-0.657314
	9.075000	-0.763685
	9.080000	-0.754015
	9.085000	-0.654091
	9.090000	-0.660538
	9.095000	-0.763685
	9.100000	-0.757239
	9.105000	-0.647644
	9.110000	-0.654091
	9.115000	-0.760462
	9.120000	-0.754015
	9.125000	-0.644421
	9.130000	-0.660538
	9.135000	-0.760462
	9.140000	-0.757239
	9.145000	-0.654091
	9.150000	-0.657314
	9.155000	-0.766909
	9.160000	-0.754015
	9.165000	-0.654091
	9.170000	-0.657314
	9.175000	-0.766909
	9.180000	-0.757239
	9.185000	-0.654091
	9.190000	-0.663761
	9.195000	-0.766909
	9.200000	-0.763685
	9.205000	-0.660538
	9.210000	-0.666985
	9.215000	-0.773355
	9.220000	-0.760462
	9.225000	-0.657314
	9.230000	-0.666985
	9.235000	-0.773355
	9.240000	-0.766909
	9.245000	-0.666985
	9.250000	-0.673431
	9.255000	-0.779802
	9.260000	-0.766909
	9.265000	-0.660538
	9.270000	-0.670208
	9.275000	-0.776579
	9.280000	-0.766909
	9.285000	-0.666985
	9.290000	-0.673431
	9.295000	-0.779802
	9.300000	-0.770132
	9.305000	-0.660538
	9.310000	-0.673431
	9.315000	-0.779802
	9.320000	-0.770132
	9.325000	-0.666985
	9.330000	-0.676655
	9.335000	-0.786249
	9.340000	-0.770132
	9.345000	-0.670208
	9.350000	-0.683101
	9.355000	-0.783025
	9.360000	-0.770132
	9.365000	-0.673431
	9.370000	-0.679878
	9.375000	-0.789472
	9.380000	-0.773355
	9.385000	-0.670208
	9.390000	-0.683101
	9.395000	-0.786249
	9.400000	-0.773355
	9.405000	-0.673431
	9.410000	-0.679878
	9.415000	-0.792696
	9.420000	-0.776579
	9.425000	-0.673431
	9.430000	-0.686325
	9.435000	-0.792696
	9.440000	-0.770132
	9.445000	-0.666985
	9.450000	-0.683101
	9.455000	-0.786249
	9.460000	-0.776579
	9.465000	-0.676655
	9.470000	-0.692771
	9.475000	-0.795919
	9.480000	-0.773355
	9.485000	-0.673431
	9.490000	-0.695995
	9.495000	-0.792696
	9.500000	-0.783025
	9.505000	-0.679878
	9.510000	-0.692771
	9.515000	-0.799142
	9.520000	-0.779802
	9.525000	-0.683101
	9.530000	-0.695995
	9.535000	-0.802366
	9.540000	-0.786249
	9.545000	-0.679878
	9.550000	-0.699218
	9.555000	-0.802366
	9.560000	-0.783025
	9.565000	-0.689548
	9.570000	-0.705665
	9.575000	-0.802366
	9.580000	-0.786249
	9.585000	-0.676655
	9.590000	-0.692771
	9.595000	-0.808812
	9.600000	-0.789472
	9.605000	-0.679878
	9.610000	-0.699218
	9.615000	-0.805589
	9.620000	-0.779802
	9.625000	-0.683101
	9.630000	-0.699218
	9.635000	-0.802366
	9.640000	-0.783025
	9.645000	-0.683101
	9.650000	-0.702441
	9.655000	-0.805589
	9.660000	-0.783025
	9.665000	-0.679878
	9.670000	-0.699218
	9.675000	-0.805589
	9.680000	-0.783025
	9.685000	-0.683101
	9.690000	-0.699218
	9.695000	-0.802366
	9.700000	-0.779802
	9.705000	-0.686325
	9.710000	-0.692771
	9.715000	-0.805589
	9.720000	-0.776579
	9.725000	-0.679878
	9.730000	-0.699218
	9.735000	-0.802366
	9.740000	-0.779802
	9.745000	-0.673431
	9.750000	-0.699218
	9.755000	-0.802366
	9.760000	-0.776579
	9.765000	-0.673431
	9.770000	-0.689548
	9.775000	-0.802366
	9.780000	-0.773355
	9.785000	-0.673431
	9.790000	-0.689548
	9.795000	-0.802366
	9.800000	-0.776579
	9.805000	-0.670208
	9.810000	-0.689548
	9.815000	-0.792696
	9.820000	-0.779802
	9.825000	-0.676655
	9.830000	-0.692771
	9.835000	-0.799142
	9.840000	-0.776579
	9.845000	-0.673431
	9.850000	-0.695995
	9.855000	-0.792696
	9.860000	-0.779802
	9.865000	-0.673431
	9.870000	-0.689548
	9.875000	-0.799142
	9.880000	-0.773355
	9.885000	-0.670208
	9.890000	-0.689548
	9.895000	-0.795919
	9.900000	-0.770132
	9.905000	-0.670208
	9.910000	-0.689548
	9.915000	-0.792696
	9.920000	-0.770132
	9.925000	-0.666985
	9.930000	-0.689548
	9.935000	-0.795919
	9.940000	-0.766909
	9.945000	-0.666985
	9.950000	-0.695995
	9.955000	-0.795919
	9.960000	-0.773355
	9.965000	-0.666985
	9.970000	-0.695995
	9.975000	-0.792696
	9.980000	-0.770132
	9.985000	-0.670208
	9.990000	-0.695995
	9.995000	-0.792696
	10.000000	-0.766909
	10.005000	-0.663761
	10.010000	-0.692771
	10.015000	-0.795919
	10.020000	-0.773355
	10.025000	-0.666985
	10.030000	-0.699218
	10.035000	-0.799142
	10.040000	-0.766909
	10.045000	-0.666985
	10.050000	-0.695995
	10.055000	-0.795919
	10.060000	-0.766909
	10.065000	-0.673431
	10.070000	-0.695995
	10.075000	-0.802366
	10.080000	-0.766909
	10.085000	-0.666985
	10.090000	-0.692771
	10.095000	-0.799142
	10.100000	-0.766909
	10.105000	-0.663761
	10.110000	-0.695995
	10.115000	-0.795919
	10.120000	-0.770132
	10.125000	-0.666985
	10.130000	-0.695995
	10.135000	-0.795919
	10.140000	-0.770132
	10.145000	-0.670208
	10.150000	-0.695995
	10.155000	-0.795919
	10.160000	-0.773355
	10.165000	-0.670208
	10.170000	-0.699218
	10.175000	-0.805589
	10.180000	-0.773355
	10.185000	-0.666985
	10.190000	-0.699218
	10.195000	-0.802366
	10.200000	-0.770132
	10.205000	-0.666985
	10.210000	-0.702441
	10.215000	-0.799142
	10.220000	-0.763685
	10.225000	-0.663761
	10.230000	-0.692771
	10.235000	-0.792696
	10.240000	-0.763685
	10.245000	-0.670208
	10.250000	-0.699218
	10.255000	-0.799142
	10.260000	-0.760462
	10.265000	-0.663761
	10.270000	-0.692771
	10.275000	-0.792696
	10.280000	-0.760462
	10.285000	-0.666985
	10.290000	-0.692771
	10.295000	-0.789472
	10.300000	-0.760462
	10.305000	-0.666985
	10.310000	-0.692771
	10.315000	-0.789472
	10.320000	-0.760462
	10.325000	-0.654091
	10.330000	-0.695995
	10.335000	-0.792696
	10.340000	-0.760462
	10.345000	-0.663761
	10.350000	-0.692771
	10.355000	-0.792696
	10.360000	-0.766909
	10.365000	-0.657314
	10.370000	-0.695995
	10.375000	-0.789472
	10.380000	-0.757239
	10.385000	-0.657314
	10.390000	-0.692771
	10.395000	-0.792696
	10.400000	-0.757239
	10.405000	-0.660538
	10.410000	-0.692771
	10.415000	-0.792696
	10.420000	-0.760462
	10.425000	-0.660538
	10.430000	-0.692771
	10.435000	-0.795919
	10.440000	-0.763685
	10.445000	-0.657314
	10.450000	-0.695995
	10.455000	-0.792696
	10.460000	-0.757239
	10.465000	-0.657314
	10.470000	-0.692771
	10.475000	-0.789472
	10.480000	-0.763685
	10.485000	-0.654091
	10.490000	-0.686325
	10.495000	-0.799142
	10.500000	-0.763685
	10.505000	-0.657314
	10.510000	-0.689548
	10.515000	-0.795919
	10.520000	-0.750792
	10.525000	-0.657314
	10.530000	-0.689548
	10.535000	-0.795919
	10.540000	-0.754015
	10.545000	-0.654091
	10.550000	-0.699218
	10.555000	-0.792696
	10.560000	-0.754015
	10.565000	-0.654091
	10.570000	-0.702441
	10.575000	-0.792696
	10.580000	-0.754015
	10.585000	-0.654091
	10.590000	-0.695995
	10.595000	-0.795919
	10.600000	-0.754015
	10.605000	-0.654091
	10.610000	-0.689548
	10.615000	-0.792696
	10.620000	-0.750792
	10.625000	-0.657314
	10.630000	-0.695995
	10.635000	-0.789472
	10.640000	-0.757239
	10.645000	-0.657314
	10.650000	-0.689548
	10.655000	-0.786249
	10.660000	-0.754015
	10.665000	-0.654091
	10.670000	-0.692771
	10.675000	-0.792696
	10.680000	-0.750792
	10.685000	-0.650868
	10.690000	-0.692771
	10.695000	-0.792696
	10.700000	-0.750792
	10.705000	-0.654091
	10.710000	-0.692771
	10.715000	-0.789472
	10.720000	-0.754015
	10.725000	-0.654091
	10.730000	-0.695995
	10.735000	-0.789472
	10.740000	-0.750792
	10.745000	-0.654091
	10.750000	-0.689548
	10.755000	-0.789472
	10.760000	-0.744345
	10.765000	-0.654091
	10.770000	-0.695995
	10.775000	-0.795919
	10.780000	-0.747569
	10.785000	-0.647644
	10.790000	-0.699218
	10.795000	-0.795919
	10.800000	-0.750792
	10.805000	-0.650868
	10.810000	-0.699218
	10.815000	-0.789472
	10.820000	-0.744345
	10.825000	-0.657314
	10.830000	-0.695995
	10.835000	-0.789472
	10.840000	-0.747569
	10.845000	-0.654091
	10.850000	-0.702441
	10.855000	-0.792696
	10.860000	-0.747569
	10.865000	-0.654091
	10.870000	-0.689548
	10.875000	-0.792696
	10.880000	-0.747569
	10.885000	-0.650868
	10.890000	-0.695995
	10.895000	-0.786249
	10.900000	-0.741122
	10.905000	-0.650868
	10.910000	-0.695995
	10.915000	-0.792696
	10.920000	-0.744345
	10.925000	-0.647644
	10.930000	-0.699218
	10.935000	-0.789472
	10.940000	-0.744345
	10.945000	-0.647644
	10.950000	-0.695995
	10.955000	-0.786249
	10.960000	-0.741122
	10.965000	-0.644421
	10.970000	-0.689548
	10.975000	-0.792696
	10.980000	-0.744345
	10.985000	-0.650868
	10.990000	-0.695995
	10.995000	-0.789472
	11.000000	-0.744345
	11.005000	-0.654091
	11.010000	-0.689548
	11.015000	-0.789472
	11.020000	-0.741122
	11.025000	-0.647644
	11.030000	-0.695995
	11.035000	-0.786249
	11.040000	-0.744345
	11.045000	-0.644421
	11.050000	-0.692771
	11.055000	-0.792696
	11.060000	-0.737898
	11.065000	-0.644421
	11.070000	-0.695995
	11.075000	-0.789472
	11.080000	-0.737898
	11.085000	-0.650868
	11.090000	-0.689548
	11.095000	-0.789472
	11.100000	-0.737898
	11.105000	-0.650868
	11.110000	-0.692771
	11.115000	-0.783025
	11.120000	-0.737898
	11.125000	-0.647644
	11.130000	-0.692771
	11.135000	-0.789472
	11.140000	-0.731452
	11.145000	-0.641198
	11.150000	-0.695995
	11.155000	-0.783025
	11.160000	-0.731452
	11.165000	-0.644421
	11.170000	-0.689548
	11.175000	-0.783025
	11.180000	-0.731452
	11.185000	-0.641198
	11.190000	-0.689548
	11.195000	-0.783025
	11.200000	-0.737898
	11.205000	-0.634751
	11.210000	-0.686325
	11.215000	-0.786249
	11.220000	-0.734675
	11.225000	-0.641198
	11.230000	-0.686325
	11.235000	-0.783025
	11.240000	-0.728228
	11.245000	-0.637974
	11.250000	-0.692771
	11.255000	-0.786249
	11.260000	-0.725005
	11.265000	-0.637974
	11.270000	-0.686325
	11.275000	-0.783025
	11.280000	-0.731452
	11.285000	-0.631528
	11.290000	-0.689548
	11.295000	-0.783025
	11.300000	-0.728228
	11.305000	-0.634751
	11.310000	-0.689548
	11.315000	-0.776579
	11.320000	-0.731452
	11.325000	-0.641198
	11.330000	-0.695995
	11.335000	-0.779802
	11.340000	-0.728228
	11.345000	-0.637974
	11.350000	-0.692771
	11.355000	-0.776579
	11.360000	-0.731452
	11.365000	-0.637974
	11.370000	-0.689548
	11.375000	-0.776579
	11.380000	-0.728228
	11.385000	-0.634751
	11.390000	-0.692771
	11.395000	-0.783025
	11.400000	-0.725005
	11.405000	-0.637974
	11.410000	-0.689548
	11.415000	-0.783025
	11.420000	-0.725005
	11.425000	-0.637974
	11.430000	-0.686325
	11.435000	-0.779802
	11.440000	-0.731452
	11.445000	-0.641198
	11.450000	-0.686325
	11.455000	-0.783025
	11.460000	-0.721782
	11.465000	-0.641198
	11.470000	-0.695995
	11.475000	-0.783025
	11.480000	-0.725005
	11.485000	-0.634751
	11.490000	-0.695995
	11.495000	-0.779802
	11.500000	-0.725005
	11.505000	-0.637974
	11.510000	-0.689548
	11.515000	-0.783025
	11.520000	-0.728228
	11.525000	-0.634751
	11.530000	-0.686325
	11.535000	-0.779802
	11.540000	-0.721782
	11.545000	-0.634751
	11.550000	-0.692771
	11.555000	-0.770132
	11.560000	-0.718558
	11.565000	-0.634751
	11.570000	-0.689548
	11.575000	-0.779802
	11.580000	-0.721782
	11.585000	-0.634751
	11.590000	-0.689548
	11.595000	-0.776579
	11.600000	-0.725005
	11.605000	-0.628304
	11.610000	-0.689548
	11.615000	-0.776579
	11.620000	-0.721782
	11.625000	-0.637974
	11.630000	-0.689548
	11.635000	-0.776579
	11.640000	-0.725005
	11.645000	-0.631528
	11.650000	-0.689548
	11.655000	-0.779802
	11.660000	-0.721782
	11.665000	-0.641198
	11.670000	-0.702441
	11.675000	-0.779802
	11.680000	-0.718558
	11.685000	-0.634751
	11.690000	-0.689548
	11.695000	-0.773355
	11.700000	-0.725005
	11.705000	-0.634751
	11.710000	-0.686325
	11.715000	-0.779802
	11.720000	-0.715335
	11.725000	-0.634751
	11.730000	-0.692771
	11.735000	-0.773355
	11.740000	-0.725005
	11.745000	-0.634751
	11.750000	-0.689548
	11.755000	-0.779802
	11.760000	-0.715335
	11.765000	-0.637974
	11.770000	-0.689548
	11.775000	-0.773355
	11.780000	-0.715335
	11.785000	-0.631528
	11.790000	-0.689548
	11.795000	-0.773355
	11.800000	-0.718558
	11.805000	-0.631528
	11.810000	-0.686325
	11.815000	-0.776579
	11.820000	-0.708888
	11.825000	-0.625081
	11.830000	-0.686325
	11.835000	-0.770132
	11.840000	-0.708888
	11.845000	-0.625081
	11.850000	-0.689548
	11.855000	-0.766909
	11.860000	-0.712112
	11.865000	-0.621858
	11.870000	-0.683101
	11.875000	-0.763685
	11.880000	-0.699218
	11.885000	-0.618634
	11.890000	-0.679878
	11.895000	-0.766909
	11.900000	-0.708888
	11.905000	-0.621858
	11.910000	-0.679878
	11.915000	-0.766909
	11.920000	-0.699218
	11.925000	-0.618634
	11.930000	-0.679878
	11.935000	-0.763685
	11.940000	-0.695995
	11.945000	-0.615411
	11.950000	-0.683101
	11.955000	-0.766909
	11.960000	-0.705665
	11.965000	-0.615411
	11.970000	-0.683101
	11.975000	-0.766909
	11.980000	-0.699218
	11.985000	-0.621858
	11.990000	-0.683101
	11.995000	-0.763685
	12.000000	-0.702441
	12.005000	-0.621858
	12.010000	-0.683101
	12.015000	-0.770132
	12.020000	-0.702441
	12.025000	-0.612187
	12.030000	-0.676655
	12.035000	-0.770132
	12.040000	-0.699218
	12.045000	-0.615411
	12.050000	-0.676655
	12.055000	-0.763685
	12.060000	-0.702441
	12.065000	-0.612187
	12.070000	-0.679878
	12.075000	-0.770132
	12.080000	-0.702441
	12.085000	-0.612187
	12.090000	-0.689548
	12.095000	-0.766909
	12.100000	-0.699218
	12.105000	-0.625081
	12.110000	-0.686325
	12.115000	-0.766909
	12.120000	-0.705665
	12.125000	-0.618634
	12.130000	-0.692771
	12.135000	-0.766909
	12.140000	-0.702441
	12.145000	-0.618634
	12.150000	-0.683101
	12.155000	-0.763685
	12.160000	-0.702441
	12.165000	-0.621858
	12.170000	-0.689548
	12.175000	-0.766909
	12.180000	-0.702441
	12.185000	-0.615411
	12.190000	-0.686325
	12.195000	-0.766909
	12.200000	-0.702441
	12.205000	-0.615411
	12.210000	-0.683101
	12.215000	-0.763685
	12.220000	-0.692771
	12.225000	-0.618634
	12.230000	-0.679878
	12.235000	-0.757239
	12.240000	-0.695995
	12.245000	-0.615411
	12.250000	-0.683101
	12.255000	-0.763685
	12.260000	-0.699218
	12.265000	-0.618634
	12.270000	-0.683101
	12.275000	-0.760462
	12.280000	-0.695995
	12.285000	-0.612187
	12.290000	-0.679878
	12.295000	-0.760462
	12.300000	-0.692771
	12.305000	-0.608964
	12.310000	-0.673431
	12.315000	-0.760462
	12.320000	-0.689548
	12.325000	-0.608964
	12.330000	-0.679878
	12.335000	-0.760462
	12.340000	-0.686325
	12.345000	-0.615411
	12.350000	-0.676655
	12.355000	-0.754015
	12.360000	-0.686325
	12.365000	-0.615411
	12.370000	-0.683101
	12.375000	-0.757239
	12.380000	-0.689548
	12.385000	-0.612187
	12.390000	-0.676655
	12.395000	-0.754015
	12.400000	-0.686325
	12.405000	-0.605741
	12.410000	-0.676655
	12.415000	-0.754015
	12.420000	-0.686325
	12.425000	-0.608964
	12.430000	-0.676655
	12.435000	-0.750792
	12.440000	-0.683101
	12.445000	-0.605741
	12.450000	-0.673431
	12.455000	-0.754015
	12.460000	-0.686325
	12.465000	-0.605741
	12.470000	-0.676655
	12.475000	-0.750792
	12.480000	-0.683101
	12.485000	-0.605741
	12.490000	-0.676655
	12.495000	-0.754015
	12.500000	-0.679878
	12.505000	-0.608964
	12.510000	-0.676655
	12.515000	-0.750792
	12.520000	-0.679878
	12.525000	-0.605741
	12.530000	-0.676655
	12.535000	-0.754015
	12.540000	-0.676655
	12.545000	-0.599294
	12.550000	-0.679878
	12.555000	-0.754015
	12.560000	-0.676655
	12.565000	-0.599294
	12.570000	-0.673431
	12.575000	-0.741122
	12.580000	-0.679878
	12.585000	-0.605741
	12.590000	-0.676655
	12.595000	-0.750792
	12.600000	-0.673431
	12.605000	-0.605741
	12.610000	-0.673431
	12.615000	-0.754015
	12.620000	-0.676655
	12.625000	-0.599294
	12.630000	-0.673431
	12.635000	-0.744345
	12.640000	-0.676655
	12.645000	-0.605741
	12.650000	-0.686325
	12.655000	-0.750792
	12.660000	-0.676655
	12.665000	-0.605741
	12.670000	-0.676655
	12.675000	-0.757239
	12.680000	-0.676655
	12.685000	-0.608964
	12.690000	-0.673431
	12.695000	-0.750792
	12.700000	-0.676655
	12.705000	-0.605741
	12.710000	-0.683101
	12.715000	-0.760462
	12.720000	-0.686325
	12.725000	-0.612187
	12.730000	-0.683101
	12.735000	-0.760462
	12.740000	-0.686325
	12.745000	-0.615411
	12.750000	-0.686325
	12.755000	-0.760462
	12.760000	-0.686325
	12.765000	-0.615411
	12.770000	-0.686325
	12.775000	-0.763685
	12.780000	-0.689548
	12.785000	-0.615411
	12.790000	-0.692771
	12.795000	-0.763685
	12.800000	-0.686325
	12.805000	-0.612187
	12.810000	-0.692771
	12.815000	-0.763685
	12.820000	-0.689548
	12.825000	-0.618634
	12.830000	-0.686325
	12.835000	-0.766909
	12.840000	-0.689548
	12.845000	-0.608964
	12.850000	-0.692771
	12.855000	-0.763685
	12.860000	-0.683101
	12.865000	-0.615411
	12.870000	-0.692771
	12.875000	-0.766909
	12.880000	-0.686325
	12.885000	-0.612187
	12.890000	-0.686325
	12.895000	-0.760462
	12.900000	-0.686325
	12.905000	-0.608964
	12.910000	-0.699218
	12.915000	-0.763685
	12.920000	-0.689548
	12.925000	-0.608964
	12.930000	-0.692771
	12.935000	-0.763685
	12.940000	-0.683101
	12.945000	-0.612187
	12.950000	-0.689548
	12.955000	-0.763685
	12.960000	-0.689548
	12.965000	-0.612187
	12.970000	-0.686325
	12.975000	-0.760462
	12.980000	-0.683101
	12.985000	-0.612187
	12.990000	-0.692771
	12.995000	-0.760462
	13.000000	-0.679878
	13.005000	-0.608964
	13.010000	-0.683101
	13.015000	-0.757239
	13.020000	-0.676655
	13.025000	-0.605741
	13.030000	-0.683101
	13.035000	-0.757239
	13.040000	-0.676655
	13.045000	-0.612187
	13.050000	-0.689548
	13.055000	-0.757239
	13.060000	-0.676655
	13.065000	-0.605741
	13.070000	-0.686325
	13.075000	-0.747569
	13.080000	-0.676655
	13.085000	-0.608964
	13.090000	-0.686325
	13.095000	-0.757239
	13.100000	-0.673431
	13.105000	-0.602517
	13.110000	-0.689548
	13.115000	-0.750792
	13.120000	-0.673431
	13.125000	-0.605741
	13.130000	-0.686325
	13.135000	-0.763685
	13.140000	-0.673431
	13.145000	-0.612187
	13.150000	-0.686325
	13.155000	-0.754015
	13.160000	-0.670208
	13.165000	-0.605741
	13.170000	-0.689548
	13.175000	-0.757239
	13.180000	-0.676655
	13.185000	-0.602517
	13.190000	-0.689548
	13.195000	-0.760462
	13.200000	-0.673431
	13.205000	-0.612187
	13.210000	-0.689548
	13.215000	-0.757239
	13.220000	-0.670208
	13.225000	-0.608964
	13.230000	-0.695995
	13.235000	-0.757239
	13.240000	-0.673431
	13.245000	-0.608964
	13.250000	-0.689548
	13.255000	-0.754015
	13.260000	-0.679878
	13.265000	-0.605741
	13.270000	-0.689548
	13.275000	-0.757239
	13.280000	-0.666985
	13.285000	-0.602517
	13.290000	-0.689548
	13.295000	-0.754015
	13.300000	-0.676655
	13.305000	-0.605741
	13.310000	-0.689548
	13.315000	-0.757239
	13.320000	-0.673431
	13.325000	-0.605741
	13.330000	-0.689548
	13.335000	-0.757239
	13.340000	-0.673431
	13.345000	-0.605741
	13.350000	-0.692771
	13.355000	-0.757239
	13.360000	-0.676655
	13.365000	-0.605741
	13.370000	-0.683101
	13.375000	-0.763685
	13.380000	-0.673431
	13.385000	-0.608964
	13.390000	-0.692771
	13.395000	-0.760462
	13.400000	-0.666985
	13.405000	-0.605741
	13.410000	-0.699218
	13.415000	-0.750792
	13.420000	-0.670208
	13.425000	-0.605741
	13.430000	-0.689548
	13.435000	-0.750792
	13.440000	-0.670208
	13.445000	-0.605741
	13.450000	-0.692771
	13.455000	-0.757239
	13.460000	-0.673431
	13.465000	-0.605741
	13.470000	-0.692771
	13.475000	-0.754015
	13.480000	-0.673431
	13.485000	-0.605741
	13.490000	-0.689548
	13.495000	-0.757239
	13.500000	-0.670208
	13.505000	-0.605741
	13.510000	-0.689548
	13.515000	-0.750792
	13.520000	-0.673431
	13.525000	-0.605741
	13.530000	-0.695995
	13.535000	-0.757239
	13.540000	-0.666985
	13.545000	-0.605741
	13.550000	-0.692771
	13.555000	-0.760462
	13.560000	-0.666985
	13.565000	-0.605741
	13.570000	-0.689548
	13.575000	-0.754015
	13.580000	-0.670208
	13.585000	-0.608964
	13.590000	-0.692771
	13.595000	-0.750792
	13.600000	-0.663761
	13.605000	-0.602517
	13.610000	-0.692771
	13.615000	-0.754015
	13.620000	-0.666985
	13.625000	-0.596071
	13.630000	-0.689548
	13.635000	-0.750792
	13.640000	-0.663761
	13.645000	-0.592847
	13.650000	-0.695995
	13.655000	-0.747569
	13.660000	-0.666985
	13.665000	-0.599294
	13.670000	-0.695995
	13.675000	-0.754015
	13.680000	-0.660538
	13.685000	-0.599294
	13.690000	-0.689548
	13.695000	-0.754015
	13.700000	-0.654091
	13.705000	-0.599294
	13.710000	-0.683101
	13.715000	-0.744345
	13.720000	-0.660538
	13.725000	-0.599294
	13.730000	-0.686325
	13.735000	-0.747569
	13.740000	-0.654091
	13.745000	-0.596071
	13.750000	-0.683101
	13.755000	-0.750792
	13.760000	-0.660538
	13.765000	-0.596071
	13.770000	-0.686325
	13.775000	-0.747569
	13.780000	-0.657314
	13.785000	-0.599294
	13.790000	-0.689548
	13.795000	-0.750792
	13.800000	-0.654091
	13.805000	-0.599294
	13.810000	-0.683101
	13.815000	-0.754015
	13.820000	-0.657314
	13.825000	-0.599294
	13.830000	-0.679878
	13.835000	-0.744345
	13.840000	-0.650868
	13.845000	-0.596071
	13.850000	-0.683101
	13.855000	-0.744345
	13.860000	-0.657314
	13.865000	-0.599294
	13.870000	-0.683101
	13.875000	-0.741122
	13.880000	-0.654091
	13.885000	-0.596071
	13.890000	-0.686325
	13.895000	-0.744345
	13.900000	-0.654091
	13.905000	-0.589624
	13.910000	-0.683101
	13.915000	-0.744345
	13.920000	-0.647644
	13.925000	-0.596071
	13.930000	-0.686325
	13.935000	-0.737898
	13.940000	-0.647644
	13.945000	-0.596071
	13.950000	-0.683101
	13.955000	-0.741122
	13.960000	-0.644421
	13.965000	-0.592847
	13.970000	-0.679878
	13.975000	-0.737898
	13.980000	-0.647644
	13.985000	-0.599294
	13.990000	-0.686325
	13.995000	-0.737898
	14.000000	-0.650868
	14.005000	-0.596071
	14.010000	-0.683101
	14.015000	-0.741122
	14.020000	-0.644421
	14.025000	-0.586401
	14.030000	-0.683101
	14.035000	-0.734675
	14.040000	-0.644421
	14.045000	-0.592847
	14.050000	-0.683101
	14.055000	-0.737898
	14.060000	-0.647644
	14.065000	-0.596071
	14.070000	-0.683101
	14.075000	-0.737898
	14.080000	-0.647644
	14.085000	-0.599294
	14.090000	-0.683101
	14.095000	-0.734675
	14.100000	-0.644421
	14.105000	-0.589624
	14.110000	-0.689548
	14.115000	-0.737898
	14.120000	-0.641198
	14.125000	-0.599294
	14.130000	-0.679878
	14.135000	-0.734675
	14.140000	-0.641198
	14.145000	-0.596071
	14.150000	-0.683101
	14.155000	-0.741122
	14.160000	-0.644421
	14.165000	-0.599294
	14.170000	-0.689548
	14.175000	-0.731452
	14.180000	-0.644421
	14.185000	-0.589624
	14.190000	-0.686325
	14.195000	-0.737898
	14.200000	-0.641198
	14.205000	-0.592847
	14.210000	-0.689548
	14.215000	-0.737898
	14.220000	-0.644421
	14.225000	-0.589624
	14.230000	-0.686325
	14.235000	-0.734675
	14.240000	-0.637974
	14.245000	-0.586401
	14.250000	-0.683101
	14.255000	-0.731452
	14.260000	-0.634751
	14.265000	-0.592847
	14.270000	-0.683101
	14.275000	-0.731452
	14.280000	-0.641198
	14.285000	-0.586401
	14.290000	-0.676655
	14.295000	-0.731452
	14.300000	-0.631528
	14.305000	-0.589624
	14.310000	-0.679878
	14.315000	-0.728228
	14.320000	-0.631528
	14.325000	-0.589624
	14.330000	-0.683101
	14.335000	-0.734675
	14.340000	-0.641198
	14.345000	-0.592847
	14.350000	-0.679878
	14.355000	-0.728228
	14.360000	-0.631528
	14.365000	-0.589624
	14.370000	-0.683101
	14.375000	-0.725005
	14.380000	-0.634751
	14.385000	-0.592847
	14.390000	-0.670208
	14.395000	-0.731452
	14.400000	-0.628304
	14.405000	-0.592847
	14.410000	-0.679878
	14.415000	-0.725005
	14.420000	-0.631528
	14.425000	-0.589624
	14.430000	-0.683101
	14.435000	-0.725005
	14.440000	-0.631528
	14.445000	-0.586401
	14.450000	-0.676655
	14.455000	-0.728228
	14.460000	-0.634751
	14.465000	-0.586401
	14.470000	-0.683101
	14.475000	-0.728228
	14.480000	-0.625081
	14.485000	-0.586401
	14.490000	-0.683101
	14.495000	-0.728228
	14.500000	-0.625081
	14.505000	-0.579954
	14.510000	-0.683101
	14.515000	-0.718558
	14.520000	-0.631528
	14.525000	-0.586401
	14.530000	-0.676655
	14.535000	-0.721782
	14.540000	-0.625081
	14.545000	-0.576730
	14.550000	-0.676655
	14.555000	-0.721782
	14.560000	-0.628304
	14.565000	-0.579954
	14.570000	-0.673431
	14.575000	-0.718558
	14.580000	-0.625081
	14.585000	-0.586401
	14.590000	-0.683101
	14.595000	-0.721782
	14.600000	-0.628304
	14.605000	-0.586401
	14.610000	-0.679878
	14.615000	-0.725005
	14.620000	-0.621858
	14.625000	-0.583177
	14.630000	-0.686325
	14.635000	-0.718558
	14.640000	-0.628304
	14.645000	-0.586401
	14.650000	-0.683101
	14.655000	-0.725005
	14.660000	-0.621858
	14.665000	-0.583177
	14.670000	-0.689548
	14.675000	-0.725005
	14.680000	-0.621858
	14.685000	-0.589624
	14.690000	-0.683101
	14.695000	-0.721782
	14.700000	-0.625081
	14.705000	-0.589624
	14.710000	-0.676655
	14.715000	-0.721782
	14.720000	-0.631528
	14.725000	-0.589624
	14.730000	-0.683101
	14.735000	-0.721782
	14.740000	-0.621858
	14.745000	-0.576730
	14.750000	-0.689548
	14.755000	-0.718558
	14.760000	-0.618634
	14.765000	-0.583177
	14.770000	-0.689548
	14.775000	-0.728228
	14.780000	-0.625081
	14.785000	-0.586401
	14.790000	-0.686325
	14.795000	-0.721782
	14.800000	-0.618634
	14.805000	-0.579954
	14.810000	-0.683101
	14.815000	-0.712112
	14.820000	-0.618634
	14.825000	-0.589624
	14.830000	-0.689548
	14.835000	-0.718558
	14.840000	-0.618634
	14.845000	-0.579954
	14.850000	-0.679878
	14.855000	-0.721782
	14.860000	-0.615411
	14.865000	-0.583177
	14.870000	-0.683101
	14.875000	-0.718558
	14.880000	-0.625081
	14.885000	-0.579954
	14.890000	-0.683101
	14.895000	-0.718558
	14.900000	-0.621858
	14.905000	-0.583177
	14.910000	-0.683101
	14.915000	-0.708888
	14.920000	-0.612187
	14.925000	-0.583177
	14.930000	-0.679878
	14.935000	-0.715335
	14.940000	-0.615411
	14.945000	-0.579954
	14.950000	-0.676655
	14.955000	-0.718558
	14.960000	-0.618634
	14.965000	-0.579954
	14.970000	-0.686325
	14.975000	-0.715335
	14.980000	-0.615411
	14.985000	-0.583177
	14.990000	-0.686325
	14.995000	-0.718558
	15.000000	-0.615411
	15.005000	-0.586401
	15.010000	-0.686325
	15.015000	-0.712112
	15.020000	-0.618634
	15.025000	-0.586401
	15.030000	-0.679878
	15.035000	-0.718558
	15.040000	-0.612187
	15.045000	-0.583177
	15.050000	-0.679878
	15.055000	-0.721782
	15.060000	-0.608964
	15.065000	-0.576730
	15.070000	-0.689548
	15.075000	-0.715335
	15.080000	-0.608964
	15.085000	-0.576730
	15.090000	-0.679878
	15.095000	-0.712112
	15.100000	-0.605741
	15.105000	-0.573507
	15.110000	-0.673431
	15.115000	-0.705665
	15.120000	-0.599294
	15.125000	-0.570284
	15.130000	-0.673431
	15.135000	-0.699218
	15.140000	-0.592847
	15.145000	-0.560614
	15.150000	-0.657314
	15.155000	-0.686325
	15.160000	-0.579954
	15.165000	-0.563837
	15.170000	-0.654091
	15.175000	-0.683101
	15.180000	-0.579954
	15.185000	-0.547720
	15.190000	-0.650868
	15.195000	-0.683101
	15.200000	-0.583177
	15.205000	-0.547720
	15.210000	-0.654091
	15.215000	-0.679878
	15.220000	-0.579954
	15.225000	-0.554167
	15.230000	-0.650868
	15.235000	-0.686325
	15.240000	-0.579954
	15.245000	-0.550944
	15.250000	-0.654091
	15.255000	-0.686325
	15.260000	-0.583177
	15.265000	-0.557390
	15.270000	-0.660538
	15.275000	-0.699218
	15.280000	-0.586401
	15.285000	-0.563837
	15.290000	-0.673431
	15.295000	-0.692771
	15.300000	-0.599294
	15.305000	-0.570284
	15.310000	-0.673431
	15.315000	-0.702441
	15.320000	-0.605741
	15.325000	-0.573507
	15.330000	-0.686325
	15.335000	-0.702441
	15.340000	-0.605741
	15.345000	-0.579954
	15.350000	-0.679878
	15.355000	-0.708888
	15.360000	-0.605741
	15.365000	-0.573507
	15.370000	-0.689548
	15.375000	-0.708888
	15.380000	-0.596071
	15.385000	-0.579954
	15.390000	-0.689548
	15.395000	-0.708888
	15.400000	-0.596071
	15.405000	-0.576730
	15.410000	-0.676655
	15.415000	-0.702441
	15.420000	-0.596071
	15.425000	-0.576730
	15.430000	-0.676655
	15.435000	-0.695995
	15.440000	-0.592847
	15.445000	-0.570284
	15.450000	-0.676655
	15.455000	-0.692771
	15.460000	-0.589624
	15.465000	-0.570284
	15.470000	-0.670208
	15.475000	-0.695995
	15.480000	-0.592847
	15.485000	-0.567060
	15.490000	-0.673431
	15.495000	-0.692771
	15.500000	-0.592847
	15.505000	-0.570284
	15.510000	-0.673431
	15.515000	-0.689548
	15.520000	-0.589624
	15.525000	-0.567060
	15.530000	-0.676655
	15.535000	-0.689548
	15.540000	-0.589624
	15.545000	-0.576730
	15.550000	-0.673431
	15.555000	-0.692771
	15.560000	-0.589624
	15.565000	-0.570284
	15.570000	-0.679878
	15.575000	-0.692771
	15.580000	-0.592847
	15.585000	-0.570284
	15.590000	-0.673431
	15.595000	-0.699218
	15.600000	-0.596071
	15.605000	-0.576730
	15.610000	-0.673431
	15.615000	-0.692771
	15.620000	-0.592847
	15.625000	-0.570284
	15.630000	-0.679878
	15.635000	-0.705665
	15.640000	-0.589624
	15.645000	-0.567060
	15.650000	-0.683101
	15.655000	-0.699218
	15.660000	-0.592847
	15.665000	-0.573507
	15.670000	-0.683101
	15.675000	-0.702441
	15.680000	-0.599294
	15.685000	-0.573507
	15.690000	-0.686325
	15.695000	-0.702441
	15.700000	-0.596071
	15.705000	-0.576730
	15.710000	-0.679878
	15.715000	-0.695995
	15.720000	-0.592847
	15.725000	-0.573507
	15.730000	-0.689548
	15.735000	-0.695995
	15.740000	-0.596071
	15.745000	-0.579954
	15.750000	-0.683101
	15.755000	-0.699218
	15.760000	-0.589624
	15.765000	-0.579954
	15.770000	-0.683101
	15.775000	-0.702441
	15.780000	-0.596071
	15.785000	-0.573507
	15.790000	-0.686325
	15.795000	-0.689548
	15.800000	-0.596071
	15.805000	-0.573507
	15.810000	-0.683101
	15.815000	-0.695995
	15.820000	-0.589624
	15.825000	-0.579954
	15.830000	-0.686325
	15.835000	-0.699218
	15.840000	-0.589624
	15.845000	-0.576730
	15.850000	-0.686325
	15.855000	-0.699218
	15.860000	-0.596071
	15.865000	-0.579954
	15.870000	-0.683101
	15.875000	-0.699218
	15.880000	-0.599294
	15.885000	-0.579954
	15.890000	-0.692771
	15.895000	-0.705665
	15.900000	-0.599294
	15.905000	-0.579954
	15.910000	-0.692771
	15.915000	-0.708888
	15.920000	-0.605741
	15.925000	-0.586401
	15.930000	-0.702441
	15.935000	-0.708888
	15.940000	-0.602517
	15.945000	-0.596071
	15.950000	-0.695995
	15.955000	-0.702441
	15.960000	-0.599294
	15.965000	-0.592847
	15.970000	-0.702441
	15.975000	-0.705665
	15.980000	-0.599294
	15.985000	-0.592847
	15.990000	-0.695995
	15.995000	-0.702441
	16.000000	-0.596071
	16.005000	-0.586401
	16.010000	-0.702441
	16.015000	-0.708888
	16.020000	-0.602517
	16.025000	-0.592847
	16.030000	-0.705665
	16.035000	-0.705665
	16.040000	-0.605741
	16.045000	-0.589624
	16.050000	-0.699218
	16.055000	-0.705665
	16.060000	-0.599294
	16.065000	-0.592847
	16.070000	-0.699218
	16.075000	-0.702441
	16.080000	-0.599294
	16.085000	-0.592847
	16.090000	-0.695995
	16.095000	-0.708888
	16.100000	-0.602517
	16.105000	-0.592847
	16.110000	-0.702441
	16.115000	-0.708888
	16.120000	-0.589624
	16.125000	-0.579954
	16.130000	-0.695995
	16.135000	-0.705665
	16.140000	-0.596071
	16.145000	-0.589624
	16.150000	-0.695995
	16.155000	-0.705665
	16.160000	-0.592847
	16.165000	-0.592847
	16.170000	-0.699218
	16.175000	-0.699218
	16.180000	-0.596071
	16.185000	-0.592847
	16.190000	-0.695995
	16.195000	-0.705665
	16.200000	-0.592847
	16.205000	-0.586401
	16.210000	-0.705665
	16.215000	-0.702441
	16.220000	-0.589624
	16.225000	-0.589624
	16.230000	-0.699218
	16.235000	-0.699218
	16.240000	-0.602517
	16.245000	-0.592847
	16.250000	-0.699218
	16.255000	-0.708888
	16.260000	-0.596071
	16.265000	-0.589624
	16.270000	-0.708888
	16.275000	-0.702441
	16.280000	-0.592847
	16.285000	-0.592847
	16.290000	-0.705665
	16.295000	-0.699218
	16.300000	-0.596071
	16.305000	-0.599294
	16.310000	-0.702441
	16.315000	-0.702441
	16.320000	-0.599294
	16.325000	-0.592847
	16.330000	-0.708888
	16.335000	-0.702441
	16.340000	-0.599294
	16.345000	-0.592847
	16.350000	-0.702441
	16.355000	-0.699218
	16.360000	-0.592847
	16.365000	-0.602517
	16.370000	-0.705665
	16.375000	-0.702441
	16.380000	-0.602517
	16.385000	-0.596071
	16.390000	-0.702441
	16.395000	-0.702441
	16.400000	-0.596071
	16.405000	-0.599294
	16.410000	-0.699218
	16.415000	-0.692771
	16.420000	-0.596071
	16.425000	-0.596071
	16.430000	-0.705665
	16.435000	-0.702441
	16.440000	-0.592847
	16.445000	-0.599294
	16.450000	-0.705665
	16.455000	-0.702441
	16.460000	-0.596071
	16.465000	-0.592847
	16.470000	-0.708888
	16.475000	-0.702441
	16.480000	-0.599294
	16.485000	-0.602517
	16.490000	-0.712112
	16.495000	-0.699218
	16.500000	-0.599294
	16.505000	-0.592847
	16.510000	-0.705665
	16.515000	-0.699218
	16.520000	-0.602517
	16.525000	-0.599294
	16.530000	-0.705665
	16.535000	-0.705665
	16.540000	-0.596071
	16.545000	-0.596071
	16.550000	-0.712112
	16.555000	-0.695995
	16.560000	-0.592847
	16.565000	-0.605741
	16.570000	-0.705665
	16.575000	-0.699218
	16.580000	-0.592847
	16.585000	-0.592847
	16.590000	-0.708888
	16.595000	-0.699218
	16.600000	-0.596071
	16.605000	-0.599294
	16.610000	-0.705665
	16.615000	-0.702441
	16.620000	-0.596071
	16.625000	-0.592847
	16.630000	-0.702441
	16.635000	-0.702441
	16.640000	-0.596071
	16.645000	-0.596071
	16.650000	-0.712112
	16.655000	-0.695995
	16.660000	-0.596071
	16.665000	-0.599294
	16.670000	-0.708888
	16.675000	-0.705665
	16.680000	-0.589624
	16.685000	-0.599294
	16.690000	-0.712112
	16.695000	-0.705665
	16.700000	-0.589624
	16.705000	-0.602517
	16.710000	-0.712112
	16.715000	-0.702441
	16.720000	-0.589624
	16.725000	-0.596071
	16.730000	-0.712112
	16.735000	-0.699218
	16.740000	-0.592847
	16.745000	-0.602517
	16.750000	-0.708888
	16.755000	-0.695995
	16.760000	-0.592847
	16.765000	-0.599294
	16.770000	-0.708888
	16.775000	-0.692771
	16.780000	-0.599294
	16.785000	-0.602517
	16.790000	-0.702441
	16.795000	-0.705665
	16.800000	-0.589624
	16.805000	-0.602517
	16.810000	-0.708888
	16.815000	-0.692771
	16.820000	-0.592847
	16.825000	-0.605741
	16.830000	-0.705665
	16.835000	-0.692771
	16.840000	-0.589624
	16.845000	-0.599294
	16.850000	-0.705665
	16.855000	-0.695995
	16.860000	-0.583177
	16.865000	-0.602517
	16.870000	-0.708888
	16.875000	-0.695995
	16.880000	-0.592847
	16.885000	-0.602517
	16.890000	-0.708888
	16.895000	-0.702441
	16.900000	-0.592847
	16.905000	-0.602517
	16.910000	-0.715335
	16.915000	-0.692771
	16.920000	-0.596071
	16.925000	-0.605741
	16.930000	-0.708888
	16.935000	-0.695995
	16.940000	-0.583177
	16.945000	-0.599294
	16.950000	-0.708888
	16.955000	-0.689548
	16.960000	-0.589624
	16.965000	-0.602517
	16.970000	-0.705665
	16.975000	-0.692771
	16.980000	-0.589624
	16.985000	-0.599294
	16.990000	-0.708888
	16.995000	-0.689548
	17.000000	-0.586401
	17.005000	-0.605741
	17.010000	-0.708888
	17.015000	-0.692771
	17.020000	-0.586401
	17.025000	-0.605741
	17.030000	-0.705665
	17.035000	-0.692771
	17.040000	-0.583177
	17.045000	-0.596071
	17.050000	-0.712112
	17.055000	-0.689548
	17.060000	-0.583177
	17.065000	-0.605741
	17.070000	-0.715335
	17.075000	-0.683101
	17.080000	-0.586401
	17.085000	-0.599294
	17.090000	-0.712112
	17.095000	-0.683101
	17.100000	-0.586401
	17.105000	-0.605741
	17.110000	-0.705665
	17.115000	-0.679878
	17.120000	-0.579954
	17.125000	-0.602517
	17.130000	-0.712112
	17.135000	-0.689548
	17.140000	-0.583177
	17.145000	-0.596071
	17.150000	-0.705665
	17.155000	-0.692771
	17.160000	-0.586401
	17.165000	-0.605741
	17.170000	-0.705665
	17.175000	-0.689548
	17.180000	-0.579954
	17.185000	-0.608964
	17.190000	-0.705665
	17.195000	-0.689548
	17.200000	-0.586401
	17.205000	-0.599294
	17.210000	-0.705665
	17.215000	-0.686325
	17.220000	-0.583177
	17.225000	-0.602517
	17.230000	-0.705665
	17.235000	-0.686325
	17.240000	-0.579954
	17.245000	-0.602517
	17.250000	-0.708888
	17.255000	-0.686325
	17.260000	-0.579954
	17.265000	-0.602517
	17.270000	-0.705665
	17.275000	-0.683101
	17.280000	-0.579954
	17.285000	-0.602517
	17.290000	-0.705665
	17.295000	-0.683101
	17.300000	-0.579954
	17.305000	-0.605741
	17.310000	-0.708888
	17.315000	-0.686325
	17.320000	-0.579954
	17.325000	-0.596071
	17.330000	-0.708888
	17.335000	-0.683101
	17.340000	-0.570284
	17.345000	-0.612187
	17.350000	-0.702441
	17.355000	-0.676655
	17.360000	-0.579954
	17.365000	-0.605741
	17.370000	-0.708888
	17.375000	-0.686325
	17.380000	-0.579954
	17.385000	-0.605741
	17.390000	-0.708888
	17.395000	-0.686325
	17.400000	-0.579954
	17.405000	-0.602517
	17.410000	-0.705665
	17.415000	-0.679878
	17.420000	-0.573507
	17.425000	-0.599294
	17.430000	-0.705665
	17.435000	-0.679878
	17.440000	-0.583177
	17.445000	-0.599294
	17.450000	-0.702441
	17.455000	-0.676655
	17.460000	-0.573507
	17.465000	-0.605741
	17.470000	-0.705665
	17.475000	-0.686325
	17.480000	-0.573507
	17.485000	-0.599294
	17.490000	-0.708888
	17.495000	-0.676655
	17.500000	-0.573507
	17.505000	-0.602517
	17.510000	-0.702441
	17.515000	-0.683101
	17.520000	-0.576730
	17.525000	-0.608964
	17.530000	-0.712112
	17.535000	-0.683101
	17.540000	-0.576730
	17.545000	-0.602517
	17.550000	-0.702441
	17.555000	-0.679878
	17.560000	-0.567060
	17.565000	-0.602517
	17.570000	-0.702441
	17.575000	-0.679878
	17.580000	-0.570284
	17.585000	-0.605741
	17.590000	-0.705665
	17.595000	-0.676655
	17.600000	-0.570284
	17.605000	-0.608964
	17.610000	-0.705665
	17.615000	-0.676655
	17.620000	-0.576730
	17.625000	-0.602517
	17.630000	-0.708888
	17.635000	-0.673431
	17.640000	-0.573507
	17.645000	-0.605741
	17.650000	-0.702441
	17.655000	-0.676655
	17.660000	-0.570284
	17.665000	-0.608964
	17.670000	-0.708888
	17.675000	-0.673431
	17.680000	-0.567060
	17.685000	-0.612187
	17.690000	-0.712112
	17.695000	-0.676655
	17.700000	-0.573507
	17.705000	-0.605741
	17.710000	-0.705665
	17.715000	-0.670208
	17.720000	-0.576730
	17.725000	-0.608964
	17.730000	-0.708888
	17.735000	-0.679878
	17.740000	-0.576730
	17.745000	-0.605741
	17.750000	-0.705665
	17.755000	-0.676655
	17.760000	-0.570284
	17.765000	-0.605741
	17.770000	-0.708888
	17.775000	-0.676655
	17.780000	-0.579954
	17.785000	-0.592847
	17.790000	-0.705665
	17.795000	-0.679878
	17.800000	-0.573507
	17.805000	-0.605741
	17.810000	-0.702441
	17.815000	-0.676655
	17.820000	-0.570284
	17.825000	-0.605741
	17.830000	-0.705665
	17.835000	-0.670208
	17.840000	-0.573507
	17.845000	-0.602517
	17.850000	-0.708888
	17.855000	-0.673431
	17.860000	-0.567060
	17.865000	-0.599294
	17.870000	-0.705665
	17.875000	-0.666985
	17.880000	-0.567060
	17.885000	-0.602517
	17.890000	-0.705665
	17.895000	-0.676655
	17.900000	-0.573507
	17.905000	-0.605741
	17.910000	-0.702441
	17.915000	-0.666985
	17.920000	-0.570284
	17.925000	-0.608964
	17.930000	-0.705665
	17.935000	-0.673431
	17.940000	-0.570284
	17.945000	-0.602517
	17.950000	-0.699218
	17.955000	-0.673431
	17.960000	-0.567060
	17.965000	-0.599294
	17.970000	-0.705665
	17.975000	-0.670208
	17.980000	-0.570284
	17.985000	-0.612187
	17.990000	-0.695995
	17.995000	-0.666985
	18.000000	-0.567060
	18.005000	-0.605741
	18.010000	-0.705665
	18.015000	-0.666985
	18.020000	-0.563837
	18.025000	-0.612187
	18.030000	-0.702441
	18.035000	-0.670208
	18.040000	-0.570284
	18.045000	-0.602517
	18.050000	-0.708888
	18.055000	-0.666985
	18.060000	-0.570284
	18.065000	-0.605741
	18.070000	-0.705665
	18.075000	-0.666985
	18.080000	-0.570284
	18.085000	-0.612187
	18.090000	-0.702441
	18.095000	-0.663761
	18.100000	-0.570284
	18.105000	-0.605741
	18.110000	-0.702441
	18.115000	-0.666985
	18.120000	-0.563837
	18.125000	-0.602517
	18.130000	-0.692771
	18.135000	-0.660538
	18.140000	-0.560614
	18.145000	-0.605741
	18.150000	-0.702441
	18.155000	-0.663761
	18.160000	-0.560614
	18.165000	-0.605741
	18.170000	-0.702441
	18.175000	-0.660538
	18.180000	-0.557390
	18.185000	-0.602517
	18.190000	-0.695995
	18.195000	-0.650868
	18.200000	-0.557390
	18.205000	-0.599294
	18.210000	-0.699218
	18.215000	-0.654091
	18.220000	-0.550944
	18.225000	-0.596071
	18.230000	-0.692771
	18.235000	-0.654091
	18.240000	-0.544497
	18.245000	-0.596071
	18.250000	-0.702441
	18.255000	-0.650868
	18.260000	-0.554167
	18.265000	-0.592847
	18.270000	-0.683101
	18.275000	-0.647644
	18.280000	-0.550944
	18.285000	-0.596071
	18.290000	-0.689548
	18.295000	-0.647644
	18.300000	-0.550944
	18.305000	-0.583177
	18.310000	-0.689548
	18.315000	-0.644421
	18.320000	-0.541274
	18.325000	-0.583177
	18.330000	-0.679878
	18.335000	-0.641198
	18.340000	-0.547720
	18.345000	-0.592847
	18.350000	-0.679878
	18.355000	-0.637974
	18.360000	-0.538050
	18.365000	-0.589624
	18.370000	-0.676655
	18.375000	-0.641198
	18.380000	-0.538050
	18.385000	-0.586401
	18.390000	-0.679878
	18.395000	-0.631528
	18.400000	-0.541274
	18.405000	-0.586401
	18.410000	-0.679878
	18.415000	-0.637974
	18.420000	-0.541274
	18.425000	-0.589624
	18.430000	-0.686325
	18.435000	-0.641198
	18.440000	-0.544497
	18.445000	-0.589624
	18.450000	-0.679878
	18.455000	-0.634751
	18.460000	-0.541274
	18.465000	-0.592847
	18.470000	-0.683101
	18.475000	-0.631528
	18.480000	-0.538050
	18.485000	-0.586401
	18.490000	-0.673431
	18.495000	-0.631528
	18.500000	-0.538050
	18.505000	-0.583177
	18.510000	-0.679878
	18.515000	-0.628304
	18.520000	-0.541274
	18.525000	-0.589624
	18.530000	-0.683101
	18.535000	-0.631528
	18.540000	-0.534827
	18.545000	-0.583177
	18.550000	-0.679878
	18.555000	-0.628304
	18.560000	-0.538050
	18.565000	-0.586401
	18.570000	-0.679878
	18.575000	-0.637974
	18.580000	-0.541274
	18.585000	-0.589624
	18.590000	-0.676655
	18.595000	-0.628304
	18.600000	-0.534827
	18.605000	-0.586401
	18.610000	-0.686325
	18.615000	-0.628304
	18.620000	-0.541274
	18.625000	-0.583177
	18.630000	-0.679878
	18.635000	-0.621858
	18.640000	-0.538050
	18.645000	-0.586401
	18.650000	-0.673431
	18.655000	-0.625081
	18.660000	-0.531603
	18.665000	-0.579954
	18.670000	-0.673431
	18.675000	-0.621858
	18.680000	-0.534827
	18.685000	-0.573507
	18.690000	-0.673431
	18.695000	-0.618634
	18.700000	-0.528380
	18.705000	-0.579954
	18.710000	-0.666985
	18.715000	-0.615411
	18.720000	-0.531603
	18.725000	-0.576730
	18.730000	-0.666985
	18.735000	-0.618634
	18.740000	-0.534827
	18.745000	-0.583177
	18.750000	-0.676655
	18.755000	-0.621858
	18.760000	-0.531603
	18.765000	-0.583177
	18.770000	-0.676655
	18.775000	-0.618634
	18.780000	-0.534827
	18.785000	-0.586401
	18.790000	-0.676655
	18.795000	-0.628304
	18.800000	-0.534827
	18.805000	-0.586401
	18.810000	-0.683101
	18.815000	-0.621858
	18.820000	-0.541274
	18.825000	-0.592847
	18.830000	-0.686325
	18.835000	-0.631528
	18.840000	-0.544497
	18.845000	-0.596071
	18.850000	-0.689548
	18.855000	-0.631528
	18.860000	-0.541274
	18.865000	-0.592847
	18.870000	-0.689548
	18.875000	-0.637974
	18.880000	-0.541274
	18.885000	-0.596071
	18.890000	-0.686325
	18.895000	-0.631528
	18.900000	-0.554167
	18.905000	-0.599294
	18.910000	-0.689548
	18.915000	-0.641198
	18.920000	-0.550944
	18.925000	-0.608964
	18.930000	-0.695995
	18.935000	-0.641198
	18.940000	-0.550944
	18.945000	-0.605741
	18.950000	-0.699218
	18.955000	-0.641198
	18.960000	-0.547720
	18.965000	-0.605741
	18.970000	-0.702441
	18.975000	-0.644421
	18.980000	-0.557390
	18.985000	-0.608964
	18.990000	-0.695995
	18.995000	-0.641198
	19.000000	-0.557390
	19.005000	-0.608964
	19.010000	-0.699218
	19.015000	-0.641198
	19.020000	-0.550944
	19.025000	-0.605741
	19.030000	-0.702441
	19.035000	-0.644421
	19.040000	-0.557390
	19.045000	-0.608964
	19.050000	-0.705665
	19.055000	-0.641198
	19.060000	-0.554167
	19.065000	-0.618634
	19.070000	-0.708888
	19.075000	-0.641198
	19.080000	-0.550944
	19.085000	-0.615411
	19.090000	-0.705665
	19.095000	-0.644421
	19.100000	-0.554167
	19.105000	-0.618634
	19.110000	-0.705665
	19.115000	-0.647644
	19.120000	-0.560614
	19.125000	-0.618634
	19.130000	-0.712112
	19.135000	-0.641198
	19.140000	-0.560614
	19.145000	-0.618634
	19.150000	-0.708888
	19.155000	-0.641198
	19.160000	-0.554167
	19.165000	-0.615411
	19.170000	-0.705665
	19.175000	-0.644421
	19.180000	-0.554167
	19.185000	-0.618634
	19.190000	-0.702441
	19.195000	-0.647644
	19.200000	-0.554167
	19.205000	-0.615411
	19.210000	-0.705665
	19.215000	-0.647644
	19.220000	-0.557390
	19.225000	-0.618634
	19.230000	-0.705665
	19.235000	-0.644421
	19.240000	-0.560614
	19.245000	-0.612187
	19.250000	-0.702441
	19.255000	-0.644421
	19.260000	-0.554167
	19.265000	-0.618634
	19.270000	-0.705665
	19.275000	-0.641198
	19.280000	-0.550944
	19.285000	-0.618634
	19.290000	-0.702441
	19.295000	-0.641198
	19.300000	-0.547720
	19.305000	-0.615411
	19.310000	-0.699218
	19.315000	-0.637974
	19.320000	-0.554167
	19.325000	-0.618634
	19.330000	-0.702441
	19.335000	-0.634751
	19.340000	-0.554167
	19.345000	-0.615411
	19.350000	-0.702441
	19.355000	-0.637974
	19.360000	-0.554167
	19.365000	-0.618634
	19.370000	-0.702441
	19.375000	-0.637974
	19.380000	-0.554167
	19.385000	-0.621858
	19.390000	-0.705665
	19.395000	-0.628304
	19.400000	-0.554167
	19.405000	-0.615411
	19.410000	-0.705665
	19.415000	-0.637974
	19.420000	-0.550944
	19.425000	-0.618634
	19.430000	-0.708888
	19.435000	-0.634751
	19.440000	-0.554167
	19.445000	-0.612187
	19.450000	-0.699218
	19.455000	-0.634751
	19.460000	-0.554167
	19.465000	-0.618634
	19.470000	-0.699218
	19.475000	-0.634751
	19.480000	-0.554167
	19.485000	-0.618634
	19.490000	-0.702441
	19.495000	-0.631528
	19.500000	-0.547720
	19.505000	-0.615411
	19.510000	-0.695995
	19.515000	-0.631528
	19.520000	-0.550944
	19.525000	-0.618634
	19.530000	-0.702441
	19.535000	-0.628304
	19.540000	-0.550944
	19.545000	-0.618634
	19.550000	-0.699218
	19.555000	-0.634751
	19.560000	-0.547720
	19.565000	-0.618634
	19.570000	-0.708888
	19.575000	-0.631528
	19.580000	-0.538050
	19.585000	-0.615411
	19.590000	-0.705665
	19.595000	-0.631528
	19.600000	-0.550944
	19.605000	-0.615411
	19.610000	-0.699218
	19.615000	-0.621858
	19.620000	-0.544497
	19.625000	-0.608964
	19.630000	-0.702441
	19.635000	-0.628304
	19.640000	-0.550944
	19.645000	-0.618634
	19.650000	-0.695995
	19.655000	-0.625081
	19.660000	-0.544497
	19.665000	-0.621858
	19.670000	-0.699218
	19.675000	-0.631528
	19.680000	-0.541274
	19.685000	-0.618634
	19.690000	-0.695995
	19.695000	-0.631528
	19.700000	-0.544497
	19.705000	-0.608964
	19.710000	-0.699218
	19.715000	-0.625081
	19.720000	-0.547720
	19.725000	-0.618634
	19.730000	-0.695995
	19.735000	-0.621858
	19.740000	-0.544497
	19.745000	-0.615411
	19.750000	-0.695995
	19.755000	-0.615411
	19.760000	-0.544497
	19.765000	-0.612187
	19.770000	-0.702441
	19.775000	-0.621858
	19.780000	-0.550944
	19.785000	-0.615411
	19.790000	-0.699218
	19.795000	-0.621858
	19.800000	-0.547720
	19.805000	-0.618634
	19.810000	-0.692771
	19.815000	-0.625081
	19.820000	-0.541274
	19.825000	-0.618634
	19.830000	-0.692771
	19.835000	-0.618634
	19.840000	-0.544497
	19.845000	-0.618634
	19.850000	-0.695995
	19.855000	-0.618634
	19.860000	-0.544497
	19.865000	-0.612187
	19.870000	-0.695995
	19.875000	-0.621858
	19.880000	-0.538050
	19.885000	-0.621858
	19.890000	-0.695995
	19.895000	-0.615411
	19.900000	-0.538050
	19.905000	-0.618634
	19.910000	-0.692771
	19.915000	-0.615411
	19.920000	-0.538050
	19.925000	-0.618634
	19.930000	-0.689548
	19.935000	-0.618634
	19.940000	-0.538050
	19.945000	-0.612187
	19.950000	-0.695995
	19.955000	-0.615411
	19.960000	-0.544497
	19.965000	-0.612187
	19.970000	-0.695995
	19.975000	-0.612187
	19.980000	-0.544497
	19.985000	-0.612187
	19.990000	-0.689548
	19.995000	-0.618634
	20.000000	-0.534827
	20.005000	-0.615411
	20.010000	-0.692771
	20.015000	-0.612187
	20.020000	-0.544497
	20.025000	-0.615411
	20.030000	-0.692771
	20.035000	-0.621858
	20.040000	-0.541274
	20.045000	-0.615411
	20.050000	-0.686325
	20.055000	-0.615411
	20.060000	-0.544497
	20.065000	-0.621858
	20.070000	-0.689548
	20.075000	-0.615411
	20.080000	-0.541274
	20.085000	-0.615411
	20.090000	-0.692771
	20.095000	-0.621858
	20.100000	-0.538050
	20.105000	-0.615411
	20.110000	-0.686325
	20.115000	-0.621858
	20.120000	-0.541274
	20.125000	-0.621858
	20.130000	-0.689548
	20.135000	-0.612187
	20.140000	-0.547720
	20.145000	-0.612187
	20.150000	-0.689548
	20.155000	-0.608964
	20.160000	-0.538050
	20.165000	-0.615411
	20.170000	-0.695995
	20.175000	-0.605741
	20.180000	-0.544497
	20.185000	-0.621858
	20.190000	-0.689548
	20.195000	-0.618634
	20.200000	-0.541274
	20.205000	-0.618634
	20.210000	-0.692771
	20.215000	-0.608964
	20.220000	-0.541274
	20.225000	-0.621858
	20.230000	-0.695995
	20.235000	-0.612187
	20.240000	-0.538050
	20.245000	-0.612187
	20.250000	-0.692771
	20.255000	-0.608964
	20.260000	-0.531603
	20.265000	-0.615411
	20.270000	-0.689548
	20.275000	-0.612187
	20.280000	-0.541274
	20.285000	-0.618634
	20.290000	-0.692771
	20.295000	-0.608964
	20.300000	-0.541274
	20.305000	-0.615411
	20.310000	-0.692771
	20.315000	-0.602517
	20.320000	-0.538050
	20.325000	-0.612187
	20.330000	-0.692771
	20.335000	-0.605741
	20.340000	-0.531603
	20.345000	-0.621858
	20.350000	-0.683101
	20.355000	-0.602517
	20.360000	-0.541274
	20.365000	-0.612187
	20.370000	-0.686325
	20.375000	-0.596071
	20.380000	-0.531603
	20.385000	-0.615411
	20.390000	-0.686325
	20.395000	-0.602517
	20.400000	-0.531603
	20.405000	-0.618634
	20.410000	-0.676655
	20.415000	-0.605741
	20.420000	-0.528380
	20.425000	-0.615411
	20.430000	-0.686325
	20.435000	-0.602517
	20.440000	-0.531603
	20.445000	-0.618634
	20.450000	-0.683101
	20.455000	-0.602517
	20.460000	-0.531603
	20.465000	-0.615411
	20.470000	-0.673431
	20.475000	-0.596071
	20.480000	-0.528380
	20.485000	-0.615411
	20.490000	-0.679878
	20.495000	-0.599294
	20.500000	-0.531603
	20.505000	-0.618634
	20.510000	-0.679878
	20.515000	-0.599294
	20.520000	-0.531603
	20.525000	-0.612187
	20.530000	-0.679878
	20.535000	-0.596071
	20.540000	-0.531603
	20.545000	-0.612187
	20.550000	-0.689548
	20.555000	-0.599294
	20.560000	-0.531603
	20.565000	-0.618634
	20.570000	-0.676655
	20.575000	-0.599294
	20.580000	-0.528380
	20.585000	-0.618634
	20.590000	-0.676655
	20.595000	-0.596071
	20.600000	-0.528380
	20.605000	-0.612187
	20.610000	-0.676655
	20.615000	-0.596071
	20.620000	-0.531603
	20.625000	-0.615411
	20.630000	-0.683101
	20.635000	-0.599294
	20.640000	-0.538050
	20.645000	-0.615411
	20.650000	-0.679878
	20.655000	-0.599294
	20.660000	-0.528380
	20.665000	-0.615411
	20.670000	-0.689548
	20.675000	-0.592847
	20.680000	-0.528380
	20.685000	-0.612187
	20.690000	-0.679878
	20.695000	-0.589624
	20.700000	-0.528380
	20.705000	-0.612187
	20.710000	-0.676655
	20.715000	-0.589624
	20.720000	-0.528380
	20.725000	-0.618634
	20.730000	-0.676655
	20.735000	-0.592847
	20.740000	-0.531603
	20.745000	-0.618634
	20.750000	-0.673431
	20.755000	-0.589624
	20.760000	-0.531603
	20.765000	-0.612187
	20.770000	-0.676655
	20.775000	-0.586401
	20.780000	-0.525157
	20.785000	-0.615411
	20.790000	-0.676655
	20.795000	-0.589624
	20.800000	-0.531603
	20.805000	-0.618634
	20.810000	-0.679878
	20.815000	-0.596071
	20.820000	-0.528380
	20.825000	-0.612187
	20.830000	-0.676655
	20.835000	-0.589624
	20.840000	-0.525157
	20.845000	-0.618634
	20.850000	-0.676655
	20.855000	-0.583177
	20.860000	-0.528380
	20.865000	-0.625081
	20.870000	-0.673431
	20.875000	-0.579954
	20.880000	-0.531603
	20.885000	-0.615411
	20.890000	-0.679878
	20.895000	-0.589624
	20.900000	-0.531603
	20.905000	-0.612187
	20.910000	-0.676655
	20.915000	-0.586401
	20.920000	-0.528380
	20.925000	-0.625081
	20.930000	-0.683101
	20.935000	-0.592847
	20.940000	-0.531603
	20.945000	-0.621858
	20.950000	-0.679878
	20.955000	-0.586401
	20.960000	-0.528380
	20.965000	-0.621858
	20.970000	-0.686325
	20.975000	-0.583177
	20.980000	-0.531603
	20.985000	-0.625081
	20.990000	-0.683101
	20.995000	-0.586401
	21.000000	-0.531603
	21.005000	-0.625081
	21.010000	-0.679878
	21.015000	-0.583177
	21.020000	-0.531603
	21.025000	-0.621858
	21.030000	-0.676655
	21.035000	-0.589624
	21.040000	-0.531603
	21.045000	-0.618634
	21.050000	-0.679878
	21.055000	-0.589624
	21.060000	-0.534827
	21.065000	-0.628304
	21.070000	-0.676655
	21.075000	-0.586401
	21.080000	-0.534827
	21.085000	-0.621858
	21.090000	-0.683101
	21.095000	-0.583177
	21.100000	-0.531603
	21.105000	-0.628304
	21.110000	-0.683101
	21.115000	-0.589624
	21.120000	-0.528380
	21.125000	-0.621858
	21.130000	-0.676655
	21.135000	-0.586401
	21.140000	-0.531603
	21.145000	-0.621858
	21.150000	-0.679878
	21.155000	-0.579954
	21.160000	-0.534827
	21.165000	-0.625081
	21.170000	-0.670208
	21.175000	-0.583177
	21.180000	-0.528380
	21.185000	-0.618634
	21.190000	-0.673431
	21.195000	-0.579954
	21.200000	-0.525157
	21.205000	-0.621858
	21.210000	-0.670208
	21.215000	-0.576730
	21.220000	-0.531603
	21.225000	-0.618634
	21.230000	-0.670208
	21.235000	-0.576730
	21.240000	-0.521933
	21.245000	-0.615411
	21.250000	-0.670208
	21.255000	-0.576730
	21.260000	-0.528380
	21.265000	-0.615411
	21.270000	-0.673431
	21.275000	-0.570284
	21.280000	-0.521933
	21.285000	-0.618634
	21.290000	-0.670208
	21.295000	-0.570284
	21.300000	-0.528380
	21.305000	-0.618634
	21.310000	-0.670208
	21.315000	-0.567060
	21.320000	-0.515487
	21.325000	-0.612187
	21.330000	-0.657314
	21.335000	-0.563837
	21.340000	-0.512263
	21.345000	-0.605741
	21.350000	-0.660538
	21.355000	-0.560614
	21.360000	-0.515487
	21.365000	-0.605741
	21.370000	-0.657314
	21.375000	-0.563837
	21.380000	-0.515487
	21.385000	-0.605741
	21.390000	-0.654091
	21.395000	-0.560614
	21.400000	-0.512263
	21.405000	-0.605741
	21.410000	-0.654091
	21.415000	-0.560614
	21.420000	-0.518710
	21.425000	-0.608964
	21.430000	-0.657314
	21.435000	-0.557390
	21.440000	-0.515487
	21.445000	-0.615411
	21.450000	-0.657314
	21.455000	-0.560614
	21.460000	-0.521933
	21.465000	-0.612187
	21.470000	-0.660538
	21.475000	-0.563837
	21.480000	-0.518710
	21.485000	-0.612187
	21.490000	-0.660538
	21.495000	-0.563837
	21.500000	-0.518710
	21.505000	-0.612187
	21.510000	-0.660538
	21.515000	-0.563837
	21.520000	-0.518710
	21.525000	-0.608964
	21.530000	-0.663761
	21.535000	-0.563837
	21.540000	-0.521933
	21.545000	-0.612187
	21.550000	-0.660538
	21.555000	-0.560614
	21.560000	-0.515487
	21.565000	-0.618634
	21.570000	-0.657314
	21.575000	-0.557390
	21.580000	-0.512263
	21.585000	-0.618634
	21.590000	-0.650868
	21.595000	-0.560614
	21.600000	-0.518710
	21.605000	-0.615411
	21.610000	-0.650868
	21.615000	-0.560614
	21.620000	-0.515487
	21.625000	-0.612187
	21.630000	-0.660538
	21.635000	-0.557390
	21.640000	-0.521933
	21.645000	-0.608964
	21.650000	-0.647644
	21.655000	-0.554167
	21.660000	-0.505817
	21.665000	-0.612187
	21.670000	-0.650868
	21.675000	-0.557390
	21.680000	-0.509040
	21.685000	-0.602517
	21.690000	-0.650868
	21.695000	-0.557390
	21.700000	-0.512263
	21.705000	-0.605741
	21.710000	-0.650868
	21.715000	-0.554167
	21.720000	-0.512263
	21.725000	-0.605741
	21.730000	-0.654091
	21.735000	-0.544497
	21.740000	-0.509040
	21.745000	-0.612187
	21.750000	-0.644421
	21.755000	-0.550944
	21.760000	-0.515487
	21.765000	-0.612187
	21.770000	-0.650868
	21.775000	-0.550944
	21.780000	-0.515487
	21.785000	-0.615411
	21.790000	-0.654091
	21.795000	-0.557390
	21.800000	-0.515487
	21.805000	-0.612187
	21.810000	-0.650868
	21.815000	-0.554167
	21.820000	-0.518710
	21.825000	-0.608964
	21.830000	-0.650868
	21.835000	-0.550944
	21.840000	-0.518710
	21.845000	-0.612187
	21.850000	-0.657314
	21.855000	-0.557390
	21.860000	-0.515487
	21.865000	-0.615411
	21.870000	-0.650868
	21.875000	-0.554167
	21.880000	-0.518710
	21.885000	-0.618634
	21.890000	-0.654091
	21.895000	-0.550944
	21.900000	-0.515487
	21.905000	-0.621858
	21.910000	-0.650868
	21.915000	-0.554167
	21.920000	-0.518710
	21.925000	-0.608964
	21.930000	-0.647644
	21.935000	-0.554167
	21.940000	-0.518710
	21.945000	-0.612187
	21.950000	-0.650868
	21.955000	-0.550944
	21.960000	-0.518710
	21.965000	-0.615411
	21.970000	-0.654091
	21.975000	-0.550944
	21.980000	-0.515487
	21.985000	-0.612187
	21.990000	-0.657314
	21.995000	-0.557390
	22.000000	-0.521933
	22.005000	-0.615411
	22.010000	-0.654091
	22.015000	-0.554167
	22.020000	-0.518710
	22.025000	-0.608964
	22.030000	-0.647644
	22.035000	-0.557390
	22.040000	-0.518710
	22.045000	-0.618634
	22.050000	-0.654091
	22.055000	-0.557390
	22.060000	-0.521933
	22.065000	-0.625081
	22.070000	-0.657314
	22.075000	-0.554167
	22.080000	-0.515487
	22.085000	-0.618634
	22.090000	-0.657314
	22.095000	-0.557390
	22.100000	-0.525157
	22.105000	-0.628304
	22.110000	-0.654091
	22.115000	-0.547720
	22.120000	-0.518710
	22.125000	-0.628304
	22.130000	-0.654091
	22.135000	-0.550944
	22.140000	-0.525157
	22.145000	-0.631528
	22.150000	-0.654091
	22.155000	-0.560614
	22.160000	-0.521933
	22.165000	-0.625081
	22.170000	-0.663761
	22.175000	-0.554167
	22.180000	-0.518710
	22.185000	-0.625081
	22.190000	-0.657314
	22.195000	-0.563837
	22.200000	-0.518710
	22.205000	-0.621858
	22.210000	-0.654091
	22.215000	-0.557390
	22.220000	-0.521933
	22.225000	-0.625081
	22.230000	-0.660538
	22.235000	-0.560614
	22.240000	-0.518710
	22.245000	-0.628304
	22.250000	-0.660538
	22.255000	-0.554167
	22.260000	-0.518710
	22.265000	-0.621858
	22.270000	-0.657314
	22.275000	-0.557390
	22.280000	-0.521933
	22.285000	-0.625081
	22.290000	-0.647644
	22.295000	-0.554167
	22.300000	-0.518710
	22.305000	-0.621858
	22.310000	-0.650868
	22.315000	-0.550944
	22.320000	-0.515487
	22.325000	-0.621858
	22.330000	-0.650868
	22.335000	-0.554167
	22.340000	-0.525157
	22.345000	-0.625081
	22.350000	-0.657314
	22.355000	-0.550944
	22.360000	-0.518710
	22.365000	-0.621858
	22.370000	-0.654091
	22.375000	-0.550944
	22.380000	-0.521933
	22.385000	-0.625081
	22.390000	-0.650868
	22.395000	-0.547720
	22.400000	-0.521933
	22.405000	-0.625081
	22.410000	-0.647644
	22.415000	-0.550944
	22.420000	-0.518710
	22.425000	-0.621858
	22.430000	-0.647644
	22.435000	-0.550944
	22.440000	-0.525157
	22.445000	-0.625081
	22.450000	-0.647644
	22.455000	-0.547720
	22.460000	-0.521933
	22.465000	-0.625081
	22.470000	-0.654091
	22.475000	-0.547720
	22.480000	-0.518710
	22.485000	-0.634751
	22.490000	-0.644421
	22.495000	-0.547720
	22.500000	-0.521933
	22.505000	-0.628304
	22.510000	-0.647644
	22.515000	-0.554167
	22.520000	-0.518710
	22.525000	-0.618634
	22.530000	-0.657314
	22.535000	-0.544497
	22.540000	-0.525157
	22.545000	-0.618634
	22.550000	-0.650868
	22.555000	-0.547720
	22.560000	-0.515487
	22.565000	-0.628304
	22.570000	-0.650868
	22.575000	-0.541274
	22.580000	-0.521933
	22.585000	-0.621858
	22.590000	-0.654091
	22.595000	-0.544497
	22.600000	-0.518710
	22.605000	-0.628304
	22.610000	-0.647644
	22.615000	-0.544497
	22.620000	-0.525157
	22.625000	-0.628304
	22.630000	-0.650868
	22.635000	-0.547720
	22.640000	-0.521933
	22.645000	-0.631528
	22.650000	-0.641198
	22.655000	-0.541274
	22.660000	-0.521933
	22.665000	-0.621858
	22.670000	-0.654091
	22.675000	-0.541274
	22.680000	-0.528380
	22.685000	-0.628304
	22.690000	-0.647644
	22.695000	-0.547720
	22.700000	-0.521933
	22.705000	-0.625081
	22.710000	-0.650868
	22.715000	-0.544497
	22.720000	-0.528380
	22.725000	-0.628304
	22.730000	-0.644421
	22.735000	-0.541274
	22.740000	-0.518710
	22.745000	-0.628304
	22.750000	-0.650868
	22.755000	-0.544497
	22.760000	-0.521933
	22.765000	-0.625081
	22.770000	-0.650868
	22.775000	-0.541274
	22.780000	-0.525157
	22.785000	-0.628304
	22.790000	-0.647644
	22.795000	-0.544497
	22.800000	-0.528380
	22.805000	-0.628304
	22.810000	-0.647644
	22.815000	-0.538050
	22.820000	-0.525157
	22.825000	-0.631528
	22.830000	-0.647644
	22.835000	-0.541274
	22.840000	-0.525157
	22.845000	-0.634751
	22.850000	-0.641198
	22.855000	-0.547720
	22.860000	-0.525157
	22.865000	-0.634751
	22.870000	-0.647644
	22.875000	-0.534827
	22.880000	-0.518710
	22.885000	-0.631528
	22.890000	-0.647644
	22.895000	-0.534827
	22.900000	-0.518710
	22.905000	-0.634751
	22.910000	-0.641198
	22.915000	-0.541274
	22.920000	-0.525157
	22.925000	-0.631528
	22.930000	-0.641198
	22.935000	-0.541274
	22.940000	-0.521933
	22.945000	-0.634751
	22.950000	-0.644421
	22.955000	-0.534827
	22.960000	-0.521933
	22.965000	-0.631528
	22.970000	-0.641198
	22.975000	-0.538050
	22.980000	-0.515487
	22.985000	-0.631528
	22.990000	-0.647644
	22.995000	-0.541274
	23.000000	-0.521933
	23.005000	-0.631528
	23.010000	-0.641198
	23.015000	-0.538050
	23.020000	-0.525157
	23.025000	-0.631528
	23.030000	-0.637974
	23.035000	-0.538050
	23.040000	-0.521933
	23.045000	-0.631528
	23.050000	-0.644421
	23.055000	-0.534827
	23.060000	-0.521933
	23.065000	-0.634751
	23.070000	-0.637974
	23.075000	-0.534827
	23.080000	-0.531603
	23.085000	-0.631528
	23.090000	-0.637974
	23.095000	-0.531603
	23.100000	-0.521933
	23.105000	-0.634751
	23.110000	-0.644421
	23.115000	-0.531603
	23.120000	-0.518710
	23.125000	-0.631528
	23.130000	-0.637974
	23.135000	-0.534827
	23.140000	-0.518710
	23.145000	-0.631528
	23.150000	-0.644421
	23.155000	-0.538050
	23.160000	-0.528380
	23.165000	-0.625081
	23.170000	-0.641198
	23.175000	-0.531603
	23.180000	-0.521933
	23.185000	-0.628304
	23.190000	-0.637974
	23.195000	-0.531603
	23.200000	-0.525157
	23.205000	-0.631528
	23.210000	-0.644421
	23.215000	-0.531603
	23.220000	-0.521933
	23.225000	-0.631528
	23.230000	-0.631528
	23.235000	-0.534827
	23.240000	-0.521933
	23.245000	-0.628304
	23.250000	-0.641198
	23.255000	-0.534827
	23.260000	-0.521933
	23.265000	-0.631528
	23.270000	-0.641198
	23.275000	-0.525157
	23.280000	-0.528380
	23.285000	-0.628304
	23.290000	-0.641198
	23.295000	-0.538050
	23.300000	-0.521933
	23.305000	-0.631528
	23.310000	-0.634751
	23.315000	-0.528380
	23.320000	-0.521933
	23.325000	-0.631528
	23.330000	-0.631528
	23.335000	-0.531603
	23.340000	-0.525157
	23.345000	-0.631528
	23.350000	-0.634751
	23.355000	-0.531603
	23.360000	-0.518710
	23.365000	-0.628304
	23.370000	-0.631528
	23.375000	-0.528380
	23.380000	-0.521933
	23.385000	-0.634751
	23.390000	-0.637974
	23.395000	-0.531603
	23.400000	-0.528380
	23.405000	-0.628304
	23.410000	-0.634751
	23.415000	-0.531603
	23.420000	-0.528380
	23.425000	-0.634751
	23.430000	-0.637974
	23.435000	-0.525157
	23.440000	-0.525157
	23.445000	-0.631528
	23.450000	-0.637974
	23.455000	-0.531603
	23.460000	-0.528380
	23.465000	-0.631528
	23.470000	-0.631528
	23.475000	-0.528380
	23.480000	-0.518710
	23.485000	-0.628304
	23.490000	-0.637974
	23.495000	-0.525157
	23.500000	-0.521933
	23.505000	-0.625081
	23.510000	-0.634751
	23.515000	-0.528380
	23.520000	-0.521933
	23.525000	-0.634751
	23.530000	-0.641198
	23.535000	-0.525157
	23.540000	-0.518710
	23.545000	-0.628304
	23.550000	-0.628304
	23.555000	-0.528380
	23.560000	-0.521933
	23.565000	-0.637974
	23.570000	-0.631528
	23.575000	-0.525157
	23.580000	-0.521933
	23.585000	-0.637974
	23.590000	-0.631528
	23.595000	-0.521933
	23.600000	-0.518710
	23.605000	-0.637974
	23.610000	-0.631528
	23.615000	-0.521933
	23.620000	-0.518710
	23.625000	-0.637974
	23.630000	-0.631528
	23.635000	-0.521933
	23.640000	-0.518710
	23.645000	-0.637974
	23.650000	-0.631528
	23.655000	-0.521933
	23.660000	-0.521933
	23.665000	-0.631528
	23.670000	-0.628304
	23.675000	-0.525157
	23.680000	-0.518710
	23.685000	-0.631528
	23.690000	-0.631528
	23.695000	-0.521933
	23.700000	-0.525157
	23.705000	-0.631528
	23.710000	-0.637974
	23.715000	-0.521933
	23.720000	-0.515487
	23.725000	-0.634751
	23.730000	-0.621858
	23.735000	-0.515487
	23.740000	-0.521933
	23.745000	-0.628304
	23.750000	-0.628304
	23.755000	-0.515487
	23.760000	-0.515487
	23.765000	-0.628304
	23.770000	-0.625081
	23.775000	-0.515487
	23.780000	-0.518710
	23.785000	-0.625081
	23.790000	-0.621858
	23.795000	-0.509040
	23.800000	-0.518710
	23.805000	-0.621858
	23.810000	-0.618634
	23.815000	-0.512263
	23.820000	-0.509040
	23.825000	-0.621858
	23.830000	-0.608964
	23.835000	-0.499370
	23.840000	-0.505817
	23.845000	-0.612187
	23.850000	-0.599294
	23.855000	-0.496147
	23.860000	-0.505817
	23.865000	-0.605741
	23.870000	-0.599294
	23.875000	-0.496147
	23.880000	-0.499370
	23.885000	-0.608964
	23.890000	-0.599294
	23.895000	-0.496147
	23.900000	-0.499370
	23.905000	-0.602517
	23.910000	-0.599294
	23.915000	-0.489700
	23.920000	-0.492923
	23.925000	-0.602517
	23.930000	-0.589624
	23.935000	-0.486476
	23.940000	-0.492923
	23.945000	-0.599294
	23.950000	-0.589624
	23.955000	-0.486476
	23.960000	-0.489700
	23.965000	-0.599294
	23.970000	-0.592847
	23.975000	-0.480030
	23.980000	-0.489700
	23.985000	-0.596071
	23.990000	-0.583177
	23.995000	-0.480030
	24.000000	-0.489700
	24.005000	-0.592847
	24.010000	-0.592847
	24.015000	-0.476806
	24.020000	-0.483253
	24.025000	-0.596071
	24.030000	-0.589624
	24.035000	-0.483253
	24.040000	-0.486476
	24.045000	-0.599294
	24.050000	-0.583177
	24.055000	-0.476806
	24.060000	-0.483253
	24.065000	-0.599294
	24.070000	-0.586401
	24.075000	-0.483253
	24.080000	-0.486476
	24.085000	-0.596071
	24.090000	-0.586401
	24.095000	-0.473583
	24.100000	-0.486476
	24.105000	-0.592847
	24.110000	-0.579954
	24.115000	-0.476806
	24.120000	-0.489700
	24.125000	-0.599294
	24.130000	-0.586401
	24.135000	-0.483253
	24.140000	-0.486476
	24.145000	-0.599294
	24.150000	-0.592847
	24.155000	-0.480030
	24.160000	-0.489700
	24.165000	-0.596071
	24.170000	-0.586401
	24.175000	-0.486476
	24.180000	-0.496147
	24.185000	-0.608964
	24.190000	-0.589624
	24.195000	-0.483253
	24.200000	-0.492923
	24.205000	-0.602517
	24.210000	-0.583177
	24.215000	-0.483253
	24.220000	-0.496147
	24.225000	-0.602517
	24.230000	-0.586401
	24.235000	-0.480030
	24.240000	-0.489700
	24.245000	-0.599294
	24.250000	-0.583177
	24.255000	-0.476806
	24.260000	-0.496147
	24.265000	-0.602517
	24.270000	-0.583177
	24.275000	-0.483253
	24.280000	-0.492923
	24.285000	-0.605741
	24.290000	-0.583177
	24.295000	-0.473583
	24.300000	-0.492923
	24.305000	-0.599294
	24.310000	-0.583177
	24.315000	-0.486476
	24.320000	-0.496147
	24.325000	-0.602517
	24.330000	-0.589624
	24.335000	-0.483253
	24.340000	-0.502593
	24.345000	-0.599294
	24.350000	-0.586401
	24.355000	-0.483253
	24.360000	-0.499370
	24.365000	-0.608964
	24.370000	-0.589624
	24.375000	-0.476806
	24.380000	-0.496147
	24.385000	-0.602517
	24.390000	-0.592847
	24.395000	-0.483253
	24.400000	-0.492923
	24.405000	-0.602517
	24.410000	-0.579954
	24.415000	-0.483253
	24.420000	-0.492923
	24.425000	-0.605741
	24.430000	-0.583177
	24.435000	-0.483253
	24.440000	-0.499370
	24.445000	-0.605741
	24.450000	-0.583177
	24.455000	-0.480030
	24.460000	-0.499370
	24.465000	-0.605741
	24.470000	-0.583177
	24.475000	-0.480030
	24.480000	-0.499370
	24.485000	-0.602517
	24.490000	-0.579954
	24.495000	-0.480030
	24.500000	-0.496147
	24.505000	-0.596071
	24.510000	-0.579954
	24.515000	-0.480030
	24.520000	-0.492923
	24.525000	-0.602517
	24.530000	-0.583177
	24.535000	-0.470360
