2024/7/21 	 8:21:15 
 This file comes from Vt only measurement 	 1.000000E-1 
 Voltage Sensitivity 	 0.000000E+0 
 Sampling rate 	 200 
 Number of samples per channel 	 -1 
 No filter from Labview 	 	 	 
 	 
 ***End_of_Header*** 
 	 Time 	  Voltage 	 Filtered Voltage 	 
	0.000000	-0.606853
	0.005000	-0.445705
	0.010000	-0.442417
	0.015000	-0.600275
	0.020000	-0.600275
	0.025000	-0.448994
	0.030000	-0.445705
	0.035000	-0.600275
	0.040000	-0.603564
	0.045000	-0.448994
	0.050000	-0.445705
	0.055000	-0.600275
	0.060000	-0.606853
	0.065000	-0.448994
	0.070000	-0.442417
	0.075000	-0.596987
	0.080000	-0.603564
	0.085000	-0.448994
	0.090000	-0.442417
	0.095000	-0.600275
	0.100000	-0.603564
	0.105000	-0.448994
	0.110000	-0.442417
	0.115000	-0.600275
	0.120000	-0.596987
	0.125000	-0.442417
	0.130000	-0.439128
	0.135000	-0.593698
	0.140000	-0.600275
	0.145000	-0.445705
	0.150000	-0.442417
	0.155000	-0.600275
	0.160000	-0.600275
	0.165000	-0.445705
	0.170000	-0.442417
	0.175000	-0.596987
	0.180000	-0.596987
	0.185000	-0.442417
	0.190000	-0.442417
	0.195000	-0.596987
	0.200000	-0.600275
	0.205000	-0.445705
	0.210000	-0.435839
	0.215000	-0.596987
	0.220000	-0.600275
	0.225000	-0.448994
	0.230000	-0.439128
	0.235000	-0.596987
	0.240000	-0.603564
	0.245000	-0.445705
	0.250000	-0.442417
	0.255000	-0.596987
	0.260000	-0.596987
	0.265000	-0.439128
	0.270000	-0.439128
	0.275000	-0.596987
	0.280000	-0.600275
	0.285000	-0.442417
	0.290000	-0.439128
	0.295000	-0.593698
	0.300000	-0.600275
	0.305000	-0.442417
	0.310000	-0.435839
	0.315000	-0.593698
	0.320000	-0.600275
	0.325000	-0.435839
	0.330000	-0.439128
	0.335000	-0.600275
	0.340000	-0.596987
	0.345000	-0.442417
	0.350000	-0.435839
	0.355000	-0.596987
	0.360000	-0.596987
	0.365000	-0.442417
	0.370000	-0.439128
	0.375000	-0.596987
	0.380000	-0.593698
	0.385000	-0.439128
	0.390000	-0.439128
	0.395000	-0.593698
	0.400000	-0.596987
	0.405000	-0.439128
	0.410000	-0.439128
	0.415000	-0.593698
	0.420000	-0.596987
	0.425000	-0.439128
	0.430000	-0.439128
	0.435000	-0.596987
	0.440000	-0.593698
	0.445000	-0.439128
	0.450000	-0.432550
	0.455000	-0.590409
	0.460000	-0.593698
	0.465000	-0.442417
	0.470000	-0.435839
	0.475000	-0.593698
	0.480000	-0.593698
	0.485000	-0.442417
	0.490000	-0.439128
	0.495000	-0.593698
	0.500000	-0.593698
	0.505000	-0.435839
	0.510000	-0.435839
	0.515000	-0.593698
	0.520000	-0.593698
	0.525000	-0.435839
	0.530000	-0.439128
	0.535000	-0.590409
	0.540000	-0.593698
	0.545000	-0.432550
	0.550000	-0.435839
	0.555000	-0.596987
	0.560000	-0.590409
	0.565000	-0.439128
	0.570000	-0.435839
	0.575000	-0.590409
	0.580000	-0.593698
	0.585000	-0.435839
	0.590000	-0.439128
	0.595000	-0.590409
	0.600000	-0.590409
	0.605000	-0.432550
	0.610000	-0.432550
	0.615000	-0.593698
	0.620000	-0.590409
	0.625000	-0.435839
	0.630000	-0.432550
	0.635000	-0.590409
	0.640000	-0.593698
	0.645000	-0.435839
	0.650000	-0.435839
	0.655000	-0.593698
	0.660000	-0.593698
	0.665000	-0.435839
	0.670000	-0.432550
	0.675000	-0.590409
	0.680000	-0.590409
	0.685000	-0.432550
	0.690000	-0.432550
	0.695000	-0.590409
	0.700000	-0.587120
	0.705000	-0.439128
	0.710000	-0.435839
	0.715000	-0.590409
	0.720000	-0.593698
	0.725000	-0.432550
	0.730000	-0.435839
	0.735000	-0.590409
	0.740000	-0.593698
	0.745000	-0.435839
	0.750000	-0.432550
	0.755000	-0.587120
	0.760000	-0.590409
	0.765000	-0.432550
	0.770000	-0.432550
	0.775000	-0.587120
	0.780000	-0.590409
	0.785000	-0.432550
	0.790000	-0.432550
	0.795000	-0.590409
	0.800000	-0.587120
	0.805000	-0.432550
	0.810000	-0.435839
	0.815000	-0.593698
	0.820000	-0.587120
	0.825000	-0.435839
	0.830000	-0.429262
	0.835000	-0.590409
	0.840000	-0.590409
	0.845000	-0.429262
	0.850000	-0.432550
	0.855000	-0.590409
	0.860000	-0.587120
	0.865000	-0.432550
	0.870000	-0.432550
	0.875000	-0.590409
	0.880000	-0.587120
	0.885000	-0.429262
	0.890000	-0.429262
	0.895000	-0.587120
	0.900000	-0.590409
	0.905000	-0.432550
	0.910000	-0.429262
	0.915000	-0.590409
	0.920000	-0.590409
	0.925000	-0.429262
	0.930000	-0.429262
	0.935000	-0.587120
	0.940000	-0.587120
	0.945000	-0.429262
	0.950000	-0.432550
	0.955000	-0.590409
	0.960000	-0.587120
	0.965000	-0.429262
	0.970000	-0.432550
	0.975000	-0.590409
	0.980000	-0.587120
	0.985000	-0.432550
	0.990000	-0.432550
	0.995000	-0.590409
	1.000000	-0.590409
	1.005000	-0.432550
	1.010000	-0.432550
	1.015000	-0.593698
	1.020000	-0.590409
	1.025000	-0.432550
	1.030000	-0.432550
	1.035000	-0.590409
	1.040000	-0.590409
	1.045000	-0.432550
	1.050000	-0.432550
	1.055000	-0.587120
	1.060000	-0.590409
	1.065000	-0.432550
	1.070000	-0.432550
	1.075000	-0.590409
	1.080000	-0.590409
	1.085000	-0.432550
	1.090000	-0.432550
	1.095000	-0.590409
	1.100000	-0.590409
	1.105000	-0.435839
	1.110000	-0.432550
	1.115000	-0.590409
	1.120000	-0.587120
	1.125000	-0.429262
	1.130000	-0.432550
	1.135000	-0.590409
	1.140000	-0.590409
	1.145000	-0.435839
	1.150000	-0.432550
	1.155000	-0.590409
	1.160000	-0.587120
	1.165000	-0.429262
	1.170000	-0.432550
	1.175000	-0.593698
	1.180000	-0.587120
	1.185000	-0.429262
	1.190000	-0.432550
	1.195000	-0.587120
	1.200000	-0.587120
	1.205000	-0.429262
	1.210000	-0.435839
	1.215000	-0.590409
	1.220000	-0.590409
	1.225000	-0.432550
	1.230000	-0.435839
	1.235000	-0.590409
	1.240000	-0.583832
	1.245000	-0.435839
	1.250000	-0.432550
	1.255000	-0.593698
	1.260000	-0.587120
	1.265000	-0.435839
	1.270000	-0.435839
	1.275000	-0.590409
	1.280000	-0.593698
	1.285000	-0.435839
	1.290000	-0.435839
	1.295000	-0.600275
	1.300000	-0.596987
	1.305000	-0.435839
	1.310000	-0.442417
	1.315000	-0.590409
	1.320000	-0.593698
	1.325000	-0.432550
	1.330000	-0.432550
	1.335000	-0.587120
	1.340000	-0.590409
	1.345000	-0.425973
	1.350000	-0.432550
	1.355000	-0.583832
	1.360000	-0.577254
	1.365000	-0.422684
	1.370000	-0.425973
	1.375000	-0.583832
	1.380000	-0.580543
	1.385000	-0.422684
	1.390000	-0.422684
	1.395000	-0.580543
	1.400000	-0.577254
	1.405000	-0.422684
	1.410000	-0.425973
	1.415000	-0.583832
	1.420000	-0.580543
	1.425000	-0.422684
	1.430000	-0.425973
	1.435000	-0.583832
	1.440000	-0.583832
	1.445000	-0.419395
	1.450000	-0.425973
	1.455000	-0.580543
	1.460000	-0.573965
	1.465000	-0.419395
	1.470000	-0.422684
	1.475000	-0.577254
	1.480000	-0.573965
	1.485000	-0.416107
	1.490000	-0.419395
	1.495000	-0.577254
	1.500000	-0.573965
	1.505000	-0.409529
	1.510000	-0.416107
	1.515000	-0.567388
	1.520000	-0.567388
	1.525000	-0.412818
	1.530000	-0.412818
	1.535000	-0.570677
	1.540000	-0.560811
	1.545000	-0.402952
	1.550000	-0.409529
	1.555000	-0.564099
	1.560000	-0.564099
	1.565000	-0.406241
	1.570000	-0.409529
	1.575000	-0.570677
	1.580000	-0.570677
	1.585000	-0.412818
	1.590000	-0.419395
	1.595000	-0.580543
	1.600000	-0.577254
	1.605000	-0.419395
	1.610000	-0.429262
	1.615000	-0.587120
	1.620000	-0.580543
	1.625000	-0.425973
	1.630000	-0.429262
	1.635000	-0.590409
	1.640000	-0.583832
	1.645000	-0.425973
	1.650000	-0.425973
	1.655000	-0.587120
	1.660000	-0.577254
	1.665000	-0.422684
	1.670000	-0.425973
	1.675000	-0.583832
	1.680000	-0.580543
	1.685000	-0.425973
	1.690000	-0.432550
	1.695000	-0.587120
	1.700000	-0.587120
	1.705000	-0.432550
	1.710000	-0.435839
	1.715000	-0.600275
	1.720000	-0.596987
	1.725000	-0.448994
	1.730000	-0.452283
	1.735000	-0.606853
	1.740000	-0.610141
	1.745000	-0.458860
	1.750000	-0.455571
	1.755000	-0.616719
	1.760000	-0.613430
	1.765000	-0.455571
	1.770000	-0.458860
	1.775000	-0.613430
	1.780000	-0.606853
	1.785000	-0.452283
	1.790000	-0.448994
	1.795000	-0.606853
	1.800000	-0.603564
	1.805000	-0.445705
	1.810000	-0.448994
	1.815000	-0.610141
	1.820000	-0.603564
	1.825000	-0.452283
	1.830000	-0.452283
	1.835000	-0.610141
	1.840000	-0.606853
	1.845000	-0.448994
	1.850000	-0.458860
	1.855000	-0.613430
	1.860000	-0.610141
	1.865000	-0.458860
	1.870000	-0.462149
	1.875000	-0.623296
	1.880000	-0.616719
	1.885000	-0.462149
	1.890000	-0.462149
	1.895000	-0.620008
	1.900000	-0.610141
	1.905000	-0.452283
	1.910000	-0.448994
	1.915000	-0.606853
	1.920000	-0.603564
	1.925000	-0.435839
	1.930000	-0.445705
	1.935000	-0.596987
	1.940000	-0.590409
	1.945000	-0.435839
	1.950000	-0.439128
	1.955000	-0.596987
	1.960000	-0.590409
	1.965000	-0.432550
	1.970000	-0.442417
	1.975000	-0.596987
	1.980000	-0.590409
	1.985000	-0.432550
	1.990000	-0.442417
	1.995000	-0.596987
	2.000000	-0.590409
	2.005000	-0.432550
	2.010000	-0.439128
	2.015000	-0.593698
	2.020000	-0.590409
	2.025000	-0.435839
	2.030000	-0.442417
	2.035000	-0.593698
	2.040000	-0.587120
	2.045000	-0.435839
	2.050000	-0.435839
	2.055000	-0.593698
	2.060000	-0.587120
	2.065000	-0.432550
	2.070000	-0.435839
	2.075000	-0.593698
	2.080000	-0.587120
	2.085000	-0.432550
	2.090000	-0.439128
	2.095000	-0.593698
	2.100000	-0.587120
	2.105000	-0.432550
	2.110000	-0.435839
	2.115000	-0.590409
	2.120000	-0.587120
	2.125000	-0.435839
	2.130000	-0.435839
	2.135000	-0.590409
	2.140000	-0.587120
	2.145000	-0.432550
	2.150000	-0.435839
	2.155000	-0.590409
	2.160000	-0.580543
	2.165000	-0.429262
	2.170000	-0.432550
	2.175000	-0.590409
	2.180000	-0.587120
	2.185000	-0.429262
	2.190000	-0.432550
	2.195000	-0.590409
	2.200000	-0.587120
	2.205000	-0.432550
	2.210000	-0.435839
	2.215000	-0.593698
	2.220000	-0.583832
	2.225000	-0.429262
	2.230000	-0.435839
	2.235000	-0.593698
	2.240000	-0.590409
	2.245000	-0.432550
	2.250000	-0.435839
	2.255000	-0.593698
	2.260000	-0.590409
	2.265000	-0.429262
	2.270000	-0.432550
	2.275000	-0.596987
	2.280000	-0.587120
	2.285000	-0.425973
	2.290000	-0.435839
	2.295000	-0.590409
	2.300000	-0.587120
	2.305000	-0.432550
	2.310000	-0.435839
	2.315000	-0.587120
	2.320000	-0.580543
	2.325000	-0.422684
	2.330000	-0.435839
	2.335000	-0.590409
	2.340000	-0.580543
	2.345000	-0.429262
	2.350000	-0.432550
	2.355000	-0.587120
	2.360000	-0.583832
	2.365000	-0.429262
	2.370000	-0.432550
	2.375000	-0.587120
	2.380000	-0.580543
	2.385000	-0.429262
	2.390000	-0.432550
	2.395000	-0.587120
	2.400000	-0.580543
	2.405000	-0.422684
	2.410000	-0.432550
	2.415000	-0.587120
	2.420000	-0.580543
	2.425000	-0.429262
	2.430000	-0.432550
	2.435000	-0.587120
	2.440000	-0.580543
	2.445000	-0.429262
	2.450000	-0.429262
	2.455000	-0.590409
	2.460000	-0.580543
	2.465000	-0.429262
	2.470000	-0.429262
	2.475000	-0.587120
	2.480000	-0.580543
	2.485000	-0.422684
	2.490000	-0.429262
	2.495000	-0.587120
	2.500000	-0.583832
	2.505000	-0.422684
	2.510000	-0.429262
	2.515000	-0.590409
	2.520000	-0.583832
	2.525000	-0.425973
	2.530000	-0.432550
	2.535000	-0.587120
	2.540000	-0.583832
	2.545000	-0.425973
	2.550000	-0.432550
	2.555000	-0.590409
	2.560000	-0.577254
	2.565000	-0.425973
	2.570000	-0.432550
	2.575000	-0.590409
	2.580000	-0.583832
	2.585000	-0.432550
	2.590000	-0.439128
	2.595000	-0.590409
	2.600000	-0.583832
	2.605000	-0.429262
	2.610000	-0.439128
	2.615000	-0.593698
	2.620000	-0.583832
	2.625000	-0.425973
	2.630000	-0.429262
	2.635000	-0.587120
	2.640000	-0.573965
	2.645000	-0.422684
	2.650000	-0.425973
	2.655000	-0.580543
	2.660000	-0.577254
	2.665000	-0.416107
	2.670000	-0.429262
	2.675000	-0.583832
	2.680000	-0.573965
	2.685000	-0.416107
	2.690000	-0.425973
	2.695000	-0.583832
	2.700000	-0.573965
	2.705000	-0.416107
	2.710000	-0.425973
	2.715000	-0.580543
	2.720000	-0.570677
	2.725000	-0.419395
	2.730000	-0.429262
	2.735000	-0.580543
	2.740000	-0.573965
	2.745000	-0.412818
	2.750000	-0.422684
	2.755000	-0.580543
	2.760000	-0.570677
	2.765000	-0.412818
	2.770000	-0.416107
	2.775000	-0.580543
	2.780000	-0.570677
	2.785000	-0.412818
	2.790000	-0.422684
	2.795000	-0.583832
	2.800000	-0.567388
	2.805000	-0.419395
	2.810000	-0.429262
	2.815000	-0.583832
	2.820000	-0.577254
	2.825000	-0.419395
	2.830000	-0.425973
	2.835000	-0.590409
	2.840000	-0.580543
	2.845000	-0.422684
	2.850000	-0.432550
	2.855000	-0.587120
	2.860000	-0.580543
	2.865000	-0.419395
	2.870000	-0.425973
	2.875000	-0.587120
	2.880000	-0.570677
	2.885000	-0.409529
	2.890000	-0.422684
	2.895000	-0.577254
	2.900000	-0.570677
	2.905000	-0.409529
	2.910000	-0.422684
	2.915000	-0.580543
	2.920000	-0.567388
	2.925000	-0.416107
	2.930000	-0.422684
	2.935000	-0.583832
	2.940000	-0.573965
	2.945000	-0.416107
	2.950000	-0.429262
	2.955000	-0.587120
	2.960000	-0.570677
	2.965000	-0.419395
	2.970000	-0.425973
	2.975000	-0.583832
	2.980000	-0.573965
	2.985000	-0.419395
	2.990000	-0.422684
	2.995000	-0.580543
	3.000000	-0.570677
	3.005000	-0.416107
	3.010000	-0.422684
	3.015000	-0.580543
	3.020000	-0.577254
	3.025000	-0.419395
	3.030000	-0.422684
	3.035000	-0.580543
	3.040000	-0.573965
	3.045000	-0.425973
	3.050000	-0.439128
	3.055000	-0.590409
	3.060000	-0.590409
	3.065000	-0.439128
	3.070000	-0.448994
	3.075000	-0.606853
	3.080000	-0.603564
	3.085000	-0.448994
	3.090000	-0.462149
	3.095000	-0.620008
	3.100000	-0.616719
	3.105000	-0.462149
	3.110000	-0.468726
	3.115000	-0.626585
	3.120000	-0.613430
	3.125000	-0.455571
	3.130000	-0.462149
	3.135000	-0.613430
	3.140000	-0.600275
	3.145000	-0.442417
	3.150000	-0.445705
	3.155000	-0.600275
	3.160000	-0.587120
	3.165000	-0.432550
	3.170000	-0.435839
	3.175000	-0.590409
	3.180000	-0.583832
	3.185000	-0.432550
	3.190000	-0.439128
	3.195000	-0.596987
	3.200000	-0.593698
	3.205000	-0.439128
	3.210000	-0.452283
	3.215000	-0.613430
	3.220000	-0.603564
	3.225000	-0.452283
	3.230000	-0.462149
	3.235000	-0.620008
	3.240000	-0.606853
	3.245000	-0.452283
	3.250000	-0.458860
	3.255000	-0.610141
	3.260000	-0.596987
	3.265000	-0.439128
	3.270000	-0.445705
	3.275000	-0.600275
	3.280000	-0.587120
	3.285000	-0.429262
	3.290000	-0.432550
	3.295000	-0.580543
	3.300000	-0.573965
	3.305000	-0.416107
	3.310000	-0.422684
	3.315000	-0.577254
	3.320000	-0.567388
	3.325000	-0.416107
	3.330000	-0.425973
	3.335000	-0.583832
	3.340000	-0.573965
	3.345000	-0.425973
	3.350000	-0.432550
	3.355000	-0.587120
	3.360000	-0.577254
	3.365000	-0.425973
	3.370000	-0.432550
	3.375000	-0.593698
	3.380000	-0.583832
	3.385000	-0.432550
	3.390000	-0.445705
	3.395000	-0.600275
	3.400000	-0.590409
	3.405000	-0.435839
	3.410000	-0.445705
	3.415000	-0.600275
	3.420000	-0.587120
	3.425000	-0.435839
	3.430000	-0.442417
	3.435000	-0.590409
	3.440000	-0.587120
	3.445000	-0.429262
	3.450000	-0.439128
	3.455000	-0.593698
	3.460000	-0.583832
	3.465000	-0.429262
	3.470000	-0.439128
	3.475000	-0.593698
	3.480000	-0.580543
	3.485000	-0.429262
	3.490000	-0.439128
	3.495000	-0.596987
	3.500000	-0.590409
	3.505000	-0.435839
	3.510000	-0.445705
	3.515000	-0.600275
	3.520000	-0.587120
	3.525000	-0.432550
	3.530000	-0.442417
	3.535000	-0.600275
	3.540000	-0.587120
	3.545000	-0.432550
	3.550000	-0.442417
	3.555000	-0.596987
	3.560000	-0.587120
	3.565000	-0.432550
	3.570000	-0.435839
	3.575000	-0.596987
	3.580000	-0.587120
	3.585000	-0.425973
	3.590000	-0.435839
	3.595000	-0.590409
	3.600000	-0.583832
	3.605000	-0.425973
	3.610000	-0.435839
	3.615000	-0.593698
	3.620000	-0.587120
	3.625000	-0.425973
	3.630000	-0.442417
	3.635000	-0.600275
	3.640000	-0.587120
	3.645000	-0.429262
	3.650000	-0.442417
	3.655000	-0.600275
	3.660000	-0.587120
	3.665000	-0.435839
	3.670000	-0.445705
	3.675000	-0.600275
	3.680000	-0.593698
	3.685000	-0.435839
	3.690000	-0.442417
	3.695000	-0.600275
	3.700000	-0.587120
	3.705000	-0.432550
	3.710000	-0.442417
	3.715000	-0.593698
	3.720000	-0.580543
	3.725000	-0.425973
	3.730000	-0.435839
	3.735000	-0.590409
	3.740000	-0.577254
	3.745000	-0.416107
	3.750000	-0.429262
	3.755000	-0.587120
	3.760000	-0.573965
	3.765000	-0.419395
	3.770000	-0.429262
	3.775000	-0.583832
	3.780000	-0.573965
	3.785000	-0.422684
	3.790000	-0.435839
	3.795000	-0.590409
	3.800000	-0.580543
	3.805000	-0.425973
	3.810000	-0.432550
	3.815000	-0.590409
	3.820000	-0.577254
	3.825000	-0.429262
	3.830000	-0.442417
	3.835000	-0.593698
	3.840000	-0.577254
	3.845000	-0.432550
	3.850000	-0.439128
	3.855000	-0.600275
	3.860000	-0.583832
	3.865000	-0.432550
	3.870000	-0.445705
	3.875000	-0.600275
	3.880000	-0.587120
	3.885000	-0.435839
	3.890000	-0.448994
	3.895000	-0.600275
	3.900000	-0.587120
	3.905000	-0.439128
	3.910000	-0.448994
	3.915000	-0.606853
	3.920000	-0.590409
	3.925000	-0.435839
	3.930000	-0.448994
	3.935000	-0.606853
	3.940000	-0.590409
	3.945000	-0.435839
	3.950000	-0.448994
	3.955000	-0.603564
	3.960000	-0.590409
	3.965000	-0.435839
	3.970000	-0.448994
	3.975000	-0.596987
	3.980000	-0.587120
	3.985000	-0.429262
	3.990000	-0.439128
	3.995000	-0.593698
	4.000000	-0.580543
	4.005000	-0.429262
	4.010000	-0.442417
	4.015000	-0.593698
	4.020000	-0.580543
	4.025000	-0.425973
	4.030000	-0.432550
	4.035000	-0.587120
	4.040000	-0.577254
	4.045000	-0.422684
	4.050000	-0.432550
	4.055000	-0.590409
	4.060000	-0.573965
	4.065000	-0.422684
	4.070000	-0.435839
	4.075000	-0.587120
	4.080000	-0.573965
	4.085000	-0.425973
	4.090000	-0.435839
	4.095000	-0.590409
	4.100000	-0.577254
	4.105000	-0.422684
	4.110000	-0.442417
	4.115000	-0.593698
	4.120000	-0.580543
	4.125000	-0.425973
	4.130000	-0.442417
	4.135000	-0.593698
	4.140000	-0.577254
	4.145000	-0.425973
	4.150000	-0.435839
	4.155000	-0.596987
	4.160000	-0.580543
	4.165000	-0.432550
	4.170000	-0.445705
	4.175000	-0.600275
	4.180000	-0.590409
	4.185000	-0.435839
	4.190000	-0.445705
	4.195000	-0.603564
	4.200000	-0.587120
	4.205000	-0.435839
	4.210000	-0.448994
	4.215000	-0.606853
	4.220000	-0.587120
	4.225000	-0.435839
	4.230000	-0.445705
	4.235000	-0.606853
	4.240000	-0.590409
	4.245000	-0.435839
	4.250000	-0.448994
	4.255000	-0.600275
	4.260000	-0.587120
	4.265000	-0.432550
	4.270000	-0.442417
	4.275000	-0.596987
	4.280000	-0.587120
	4.285000	-0.432550
	4.290000	-0.442417
	4.295000	-0.596987
	4.300000	-0.580543
	4.305000	-0.429262
	4.310000	-0.439128
	4.315000	-0.590409
	4.320000	-0.577254
	4.325000	-0.425973
	4.330000	-0.439128
	4.335000	-0.590409
	4.340000	-0.580543
	4.345000	-0.425973
	4.350000	-0.439128
	4.355000	-0.596987
	4.360000	-0.580543
	4.365000	-0.429262
	4.370000	-0.442417
	4.375000	-0.593698
	4.380000	-0.577254
	4.385000	-0.425973
	4.390000	-0.442417
	4.395000	-0.590409
	4.400000	-0.583832
	4.405000	-0.429262
	4.410000	-0.439128
	4.415000	-0.596987
	4.420000	-0.577254
	4.425000	-0.432550
	4.430000	-0.439128
	4.435000	-0.587120
	4.440000	-0.577254
	4.445000	-0.425973
	4.450000	-0.435839
	4.455000	-0.587120
	4.460000	-0.573965
	4.465000	-0.419395
	4.470000	-0.435839
	4.475000	-0.587120
	4.480000	-0.573965
	4.485000	-0.419395
	4.490000	-0.439128
	4.495000	-0.593698
	4.500000	-0.580543
	4.505000	-0.432550
	4.510000	-0.445705
	4.515000	-0.606853
	4.520000	-0.590409
	4.525000	-0.439128
	4.530000	-0.452283
	4.535000	-0.613430
	4.540000	-0.593698
	4.545000	-0.442417
	4.550000	-0.455571
	4.555000	-0.606853
	4.560000	-0.593698
	4.565000	-0.442417
	4.570000	-0.452283
	4.575000	-0.600275
	4.580000	-0.590409
	4.585000	-0.432550
	4.590000	-0.435839
	4.595000	-0.590409
	4.600000	-0.567388
	4.605000	-0.416107
	4.610000	-0.425973
	4.615000	-0.577254
	4.620000	-0.557522
	4.625000	-0.406241
	4.630000	-0.419395
	4.635000	-0.573965
	4.640000	-0.554233
	4.645000	-0.399663
	4.650000	-0.416107
	4.655000	-0.570677
	4.660000	-0.560811
	4.665000	-0.406241
	4.670000	-0.419395
	4.675000	-0.577254
	4.680000	-0.560811
	4.685000	-0.406241
	4.690000	-0.422684
	4.695000	-0.580543
	4.700000	-0.564099
	4.705000	-0.409529
	4.710000	-0.425973
	4.715000	-0.587120
	4.720000	-0.567388
	4.725000	-0.409529
	4.730000	-0.425973
	4.735000	-0.583832
	4.740000	-0.570677
	4.745000	-0.412818
	4.750000	-0.429262
	4.755000	-0.587120
	4.760000	-0.567388
	4.765000	-0.409529
	4.770000	-0.425973
	4.775000	-0.587120
	4.780000	-0.567388
	4.785000	-0.409529
	4.790000	-0.425973
	4.795000	-0.587120
	4.800000	-0.567388
	4.805000	-0.409529
	4.810000	-0.425973
	4.815000	-0.587120
	4.820000	-0.567388
	4.825000	-0.412818
	4.830000	-0.432550
	4.835000	-0.587120
	4.840000	-0.567388
	4.845000	-0.409529
	4.850000	-0.432550
	4.855000	-0.583832
	4.860000	-0.567388
	4.865000	-0.406241
	4.870000	-0.422684
	4.875000	-0.580543
	4.880000	-0.560811
	4.885000	-0.399663
	4.890000	-0.416107
	4.895000	-0.577254
	4.900000	-0.554233
	4.905000	-0.396374
	4.910000	-0.416107
	4.915000	-0.573965
	4.920000	-0.554233
	4.925000	-0.406241
	4.930000	-0.422684
	4.935000	-0.577254
	4.940000	-0.557522
	4.945000	-0.409529
	4.950000	-0.422684
	4.955000	-0.583832
	4.960000	-0.560811
	4.965000	-0.402952
	4.970000	-0.419395
	4.975000	-0.573965
	4.980000	-0.560811
	4.985000	-0.406241
	4.990000	-0.422684
	4.995000	-0.577254
	5.000000	-0.557522
	5.005000	-0.399663
	5.010000	-0.425973
	5.015000	-0.580543
	5.020000	-0.567388
	5.025000	-0.419395
	5.030000	-0.435839
	5.035000	-0.593698
	5.040000	-0.583832
	5.045000	-0.435839
	5.050000	-0.458860
	5.055000	-0.620008
	5.060000	-0.610141
	5.065000	-0.465438
	5.070000	-0.488459
	5.075000	-0.646317
	5.080000	-0.629874
	5.085000	-0.481881
	5.090000	-0.501614
	5.095000	-0.652895
	5.100000	-0.629874
	5.105000	-0.472015
	5.110000	-0.488459
	5.115000	-0.639740
	5.120000	-0.620008
	5.125000	-0.465438
	5.130000	-0.475304
	5.135000	-0.623296
	5.140000	-0.603564
	5.145000	-0.452283
	5.150000	-0.458860
	5.155000	-0.613430
	5.160000	-0.590409
	5.165000	-0.445705
	5.170000	-0.455571
	5.175000	-0.606853
	5.180000	-0.590409
	5.185000	-0.442417
	5.190000	-0.455571
	5.195000	-0.606853
	5.200000	-0.593698
	5.205000	-0.442417
	5.210000	-0.458860
	5.215000	-0.613430
	5.220000	-0.593698
	5.225000	-0.439128
	5.230000	-0.455571
	5.235000	-0.606853
	5.240000	-0.590409
	5.245000	-0.432550
	5.250000	-0.448994
	5.255000	-0.600275
	5.260000	-0.577254
	5.265000	-0.422684
	5.270000	-0.439128
	5.275000	-0.590409
	5.280000	-0.570677
	5.285000	-0.416107
	5.290000	-0.429262
	5.295000	-0.583832
	5.300000	-0.564099
	5.305000	-0.416107
	5.310000	-0.429262
	5.315000	-0.580543
	5.320000	-0.570677
	5.325000	-0.419395
	5.330000	-0.439128
	5.335000	-0.593698
	5.340000	-0.580543
	5.345000	-0.425973
	5.350000	-0.445705
	5.355000	-0.600275
	5.360000	-0.580543
	5.365000	-0.432550
	5.370000	-0.445705
	5.375000	-0.603564
	5.380000	-0.583832
	5.385000	-0.432550
	5.390000	-0.448994
	5.395000	-0.600275
	5.400000	-0.583832
	5.405000	-0.435839
	5.410000	-0.445705
	5.415000	-0.593698
	5.420000	-0.580543
	5.425000	-0.425973
	5.430000	-0.442417
	5.435000	-0.600275
	5.440000	-0.577254
	5.445000	-0.425973
	5.450000	-0.442417
	5.455000	-0.596987
	5.460000	-0.583832
	5.465000	-0.425973
	5.470000	-0.448994
	5.475000	-0.600275
	5.480000	-0.583832
	5.485000	-0.429262
	5.490000	-0.448994
	5.495000	-0.600275
	5.500000	-0.583832
	5.505000	-0.429262
	5.510000	-0.445705
	5.515000	-0.600275
	5.520000	-0.580543
	5.525000	-0.435839
	5.530000	-0.448994
	5.535000	-0.600275
	5.540000	-0.583832
	5.545000	-0.432550
	5.550000	-0.445705
	5.555000	-0.600275
	5.560000	-0.583832
	5.565000	-0.425973
	5.570000	-0.442417
	5.575000	-0.600275
	5.580000	-0.583832
	5.585000	-0.429262
	5.590000	-0.442417
	5.595000	-0.596987
	5.600000	-0.573965
	5.605000	-0.425973
	5.610000	-0.439128
	5.615000	-0.593698
	5.620000	-0.577254
	5.625000	-0.422684
	5.630000	-0.442417
	5.635000	-0.596987
	5.640000	-0.573965
	5.645000	-0.425973
	5.650000	-0.442417
	5.655000	-0.596987
	5.660000	-0.580543
	5.665000	-0.425973
	5.670000	-0.442417
	5.675000	-0.593698
	5.680000	-0.577254
	5.685000	-0.422684
	5.690000	-0.442417
	5.695000	-0.593698
	5.700000	-0.577254
	5.705000	-0.422684
	5.710000	-0.442417
	5.715000	-0.593698
	5.720000	-0.577254
	5.725000	-0.422684
	5.730000	-0.439128
	5.735000	-0.590409
	5.740000	-0.573965
	5.745000	-0.419395
	5.750000	-0.435839
	5.755000	-0.587120
	5.760000	-0.573965
	5.765000	-0.422684
	5.770000	-0.435839
	5.775000	-0.590409
	5.780000	-0.573965
	5.785000	-0.419395
	5.790000	-0.439128
	5.795000	-0.593698
	5.800000	-0.580543
	5.805000	-0.422684
	5.810000	-0.442417
	5.815000	-0.593698
	5.820000	-0.573965
	5.825000	-0.422684
	5.830000	-0.439128
	5.835000	-0.590409
	5.840000	-0.570677
	5.845000	-0.422684
	5.850000	-0.435839
	5.855000	-0.593698
	5.860000	-0.573965
	5.865000	-0.422684
	5.870000	-0.439128
	5.875000	-0.593698
	5.880000	-0.570677
	5.885000	-0.416107
	5.890000	-0.439128
	5.895000	-0.593698
	5.900000	-0.573965
	5.905000	-0.422684
	5.910000	-0.435839
	5.915000	-0.593698
	5.920000	-0.577254
	5.925000	-0.422684
	5.930000	-0.442417
	5.935000	-0.596987
	5.940000	-0.580543
	5.945000	-0.429262
	5.950000	-0.442417
	5.955000	-0.593698
	5.960000	-0.577254
	5.965000	-0.429262
	5.970000	-0.445705
	5.975000	-0.600275
	5.980000	-0.577254
	5.985000	-0.425973
	5.990000	-0.439128
	5.995000	-0.593698
	6.000000	-0.577254
	6.005000	-0.425973
	6.010000	-0.445705
	6.015000	-0.593698
	6.020000	-0.580543
	6.025000	-0.425973
	6.030000	-0.439128
	6.035000	-0.593698
	6.040000	-0.567388
	6.045000	-0.419395
	6.050000	-0.439128
	6.055000	-0.596987
	6.060000	-0.570677
	6.065000	-0.419395
	6.070000	-0.435839
	6.075000	-0.587120
	6.080000	-0.567388
	6.085000	-0.422684
	6.090000	-0.435839
	6.095000	-0.593698
	6.100000	-0.573965
	6.105000	-0.422684
	6.110000	-0.439128
	6.115000	-0.593698
	6.120000	-0.577254
	6.125000	-0.422684
	6.130000	-0.442417
	6.135000	-0.596987
	6.140000	-0.580543
	6.145000	-0.425973
	6.150000	-0.442417
	6.155000	-0.596987
	6.160000	-0.577254
	6.165000	-0.422684
	6.170000	-0.445705
	6.175000	-0.596987
	6.180000	-0.577254
	6.185000	-0.422684
	6.190000	-0.442417
	6.195000	-0.596987
	6.200000	-0.577254
	6.205000	-0.422684
	6.210000	-0.439128
	6.215000	-0.596987
	6.220000	-0.577254
	6.225000	-0.422684
	6.230000	-0.442417
	6.235000	-0.596987
	6.240000	-0.577254
	6.245000	-0.422684
	6.250000	-0.435839
	6.255000	-0.596987
	6.260000	-0.577254
	6.265000	-0.425973
	6.270000	-0.448994
	6.275000	-0.590409
	6.280000	-0.580543
	6.285000	-0.422684
	6.290000	-0.442417
	6.295000	-0.593698
	6.300000	-0.573965
	6.305000	-0.422684
	6.310000	-0.445705
	6.315000	-0.596987
	6.320000	-0.577254
	6.325000	-0.419395
	6.330000	-0.442417
	6.335000	-0.596987
	6.340000	-0.577254
	6.345000	-0.422684
	6.350000	-0.442417
	6.355000	-0.593698
	6.360000	-0.573965
	6.365000	-0.422684
	6.370000	-0.435839
	6.375000	-0.593698
	6.380000	-0.577254
	6.385000	-0.419395
	6.390000	-0.439128
	6.395000	-0.600275
	6.400000	-0.577254
	6.405000	-0.429262
	6.410000	-0.442417
	6.415000	-0.596987
	6.420000	-0.573965
	6.425000	-0.425973
	6.430000	-0.445705
	6.435000	-0.593698
	6.440000	-0.577254
	6.445000	-0.422684
	6.450000	-0.439128
	6.455000	-0.593698
	6.460000	-0.577254
	6.465000	-0.425973
	6.470000	-0.442417
	6.475000	-0.593698
	6.480000	-0.573965
	6.485000	-0.422684
	6.490000	-0.439128
	6.495000	-0.593698
	6.500000	-0.573965
	6.505000	-0.419395
	6.510000	-0.439128
	6.515000	-0.593698
	6.520000	-0.573965
	6.525000	-0.419395
	6.530000	-0.439128
	6.535000	-0.590409
	6.540000	-0.577254
	6.545000	-0.422684
	6.550000	-0.442417
	6.555000	-0.593698
	6.560000	-0.573965
	6.565000	-0.422684
	6.570000	-0.445705
	6.575000	-0.596987
	6.580000	-0.577254
	6.585000	-0.425973
	6.590000	-0.445705
	6.595000	-0.600275
	6.600000	-0.577254
	6.605000	-0.419395
	6.610000	-0.442417
	6.615000	-0.590409
	6.620000	-0.573965
	6.625000	-0.409529
	6.630000	-0.429262
	6.635000	-0.577254
	6.640000	-0.557522
	6.645000	-0.399663
	6.650000	-0.419395
	6.655000	-0.567388
	6.660000	-0.547656
	6.665000	-0.393086
	6.670000	-0.409529
	6.675000	-0.567388
	6.680000	-0.541078
	6.685000	-0.393086
	6.690000	-0.412818
	6.695000	-0.573965
	6.700000	-0.554233
	6.705000	-0.396374
	6.710000	-0.419395
	6.715000	-0.583832
	6.720000	-0.560811
	6.725000	-0.406241
	6.730000	-0.429262
	6.735000	-0.587120
	6.740000	-0.570677
	6.745000	-0.412818
	6.750000	-0.435839
	6.755000	-0.587120
	6.760000	-0.570677
	6.765000	-0.412818
	6.770000	-0.439128
	6.775000	-0.593698
	6.780000	-0.570677
	6.785000	-0.416107
	6.790000	-0.432550
	6.795000	-0.590409
	6.800000	-0.567388
	6.805000	-0.409529
	6.810000	-0.432550
	6.815000	-0.587120
	6.820000	-0.560811
	6.825000	-0.409529
	6.830000	-0.425973
	6.835000	-0.583832
	6.840000	-0.564099
	6.845000	-0.406241
	6.850000	-0.425973
	6.855000	-0.580543
	6.860000	-0.564099
	6.865000	-0.396374
	6.870000	-0.419395
	6.875000	-0.573965
	6.880000	-0.554233
	6.885000	-0.389797
	6.890000	-0.406241
	6.895000	-0.564099
	6.900000	-0.541078
	6.905000	-0.376642
	6.910000	-0.399663
	6.915000	-0.557522
	6.920000	-0.534501
	6.925000	-0.379931
	6.930000	-0.396374
	6.935000	-0.554233
	6.940000	-0.537790
	6.945000	-0.383220
	6.950000	-0.406241
	6.955000	-0.560811
	6.960000	-0.541078
	6.965000	-0.389797
	6.970000	-0.409529
	6.975000	-0.567388
	6.980000	-0.550944
	6.985000	-0.399663
	6.990000	-0.419395
	6.995000	-0.577254
	7.000000	-0.557522
	7.005000	-0.406241
	7.010000	-0.429262
	7.015000	-0.587120
	7.020000	-0.570677
	7.025000	-0.419395
	7.030000	-0.442417
	7.035000	-0.596987
	7.040000	-0.577254
	7.045000	-0.422684
	7.050000	-0.445705
	7.055000	-0.600275
	7.060000	-0.580543
	7.065000	-0.432550
	7.070000	-0.452283
	7.075000	-0.603564
	7.080000	-0.587120
	7.085000	-0.435839
	7.090000	-0.455571
	7.095000	-0.610141
	7.100000	-0.587120
	7.105000	-0.435839
	7.110000	-0.458860
	7.115000	-0.616719
	7.120000	-0.593698
	7.125000	-0.445705
	7.130000	-0.468726
	7.135000	-0.629874
	7.140000	-0.610141
	7.145000	-0.455571
	7.150000	-0.478592
	7.155000	-0.633162
	7.160000	-0.610141
	7.165000	-0.455571
	7.170000	-0.478592
	7.175000	-0.639740
	7.180000	-0.616719
	7.185000	-0.462149
	7.190000	-0.478592
	7.195000	-0.633162
	7.200000	-0.613430
	7.205000	-0.462149
	7.210000	-0.478592
	7.215000	-0.633162
	7.220000	-0.606853
	7.225000	-0.448994
	7.230000	-0.475304
	7.235000	-0.623296
	7.240000	-0.600275
	7.245000	-0.439128
	7.250000	-0.458860
	7.255000	-0.613430
	7.260000	-0.590409
	7.265000	-0.432550
	7.270000	-0.452283
	7.275000	-0.603564
	7.280000	-0.577254
	7.285000	-0.422684
	7.290000	-0.442417
	7.295000	-0.593698
	7.300000	-0.567388
	7.305000	-0.409529
	7.310000	-0.429262
	7.315000	-0.590409
	7.320000	-0.570677
	7.325000	-0.412818
	7.330000	-0.435839
	7.335000	-0.590409
	7.340000	-0.570677
	7.345000	-0.422684
	7.350000	-0.442417
	7.355000	-0.596987
	7.360000	-0.580543
	7.365000	-0.425973
	7.370000	-0.452283
	7.375000	-0.606853
	7.380000	-0.587120
	7.385000	-0.435839
	7.390000	-0.455571
	7.395000	-0.610141
	7.400000	-0.590409
	7.405000	-0.435839
	7.410000	-0.455571
	7.415000	-0.610141
	7.420000	-0.590409
	7.425000	-0.435839
	7.430000	-0.455571
	7.435000	-0.613430
	7.440000	-0.593698
	7.445000	-0.435839
	7.450000	-0.458860
	7.455000	-0.613430
	7.460000	-0.590409
	7.465000	-0.442417
	7.470000	-0.458860
	7.475000	-0.613430
	7.480000	-0.587120
	7.485000	-0.439128
	7.490000	-0.452283
	7.495000	-0.610141
	7.500000	-0.590409
	7.505000	-0.439128
	7.510000	-0.455571
	7.515000	-0.606853
	7.520000	-0.593698
	7.525000	-0.432550
	7.530000	-0.452283
	7.535000	-0.603564
	7.540000	-0.587120
	7.545000	-0.432550
	7.550000	-0.448994
	7.555000	-0.600275
	7.560000	-0.580543
	7.565000	-0.425973
	7.570000	-0.445705
	7.575000	-0.596987
	7.580000	-0.577254
	7.585000	-0.425973
	7.590000	-0.442417
	7.595000	-0.600275
	7.600000	-0.573965
	7.605000	-0.425973
	7.610000	-0.445705
	7.615000	-0.603564
	7.620000	-0.580543
	7.625000	-0.425973
	7.630000	-0.445705
	7.635000	-0.596987
	7.640000	-0.577254
	7.645000	-0.425973
	7.650000	-0.445705
	7.655000	-0.600275
	7.660000	-0.580543
	7.665000	-0.429262
	7.670000	-0.445705
	7.675000	-0.600275
	7.680000	-0.580543
	7.685000	-0.432550
	7.690000	-0.445705
	7.695000	-0.596987
	7.700000	-0.580543
	7.705000	-0.429262
	7.710000	-0.445705
	7.715000	-0.596987
	7.720000	-0.577254
	7.725000	-0.429262
	7.730000	-0.445705
	7.735000	-0.600275
	7.740000	-0.583832
	7.745000	-0.425973
	7.750000	-0.448994
	7.755000	-0.600275
	7.760000	-0.577254
	7.765000	-0.429262
	7.770000	-0.445705
	7.775000	-0.600275
	7.780000	-0.580543
	7.785000	-0.425973
	7.790000	-0.448994
	7.795000	-0.603564
	7.800000	-0.583832
	7.805000	-0.432550
	7.810000	-0.448994
	7.815000	-0.603564
	7.820000	-0.583832
	7.825000	-0.425973
	7.830000	-0.448994
	7.835000	-0.606853
	7.840000	-0.580543
	7.845000	-0.432550
	7.850000	-0.448994
	7.855000	-0.600275
	7.860000	-0.587120
	7.865000	-0.432550
	7.870000	-0.448994
	7.875000	-0.603564
	7.880000	-0.580543
	7.885000	-0.429262
	7.890000	-0.448994
	7.895000	-0.603564
	7.900000	-0.583832
	7.905000	-0.429262
	7.910000	-0.448994
	7.915000	-0.593698
	7.920000	-0.580543
	7.925000	-0.425973
	7.930000	-0.448994
	7.935000	-0.600275
	7.940000	-0.580543
	7.945000	-0.425973
	7.950000	-0.442417
	7.955000	-0.600275
	7.960000	-0.580543
	7.965000	-0.425973
	7.970000	-0.442417
	7.975000	-0.600275
	7.980000	-0.577254
	7.985000	-0.429262
	7.990000	-0.442417
	7.995000	-0.600275
	8.000000	-0.580543
	8.005000	-0.422684
	8.010000	-0.445705
	8.015000	-0.600275
	8.020000	-0.580543
	8.025000	-0.425973
	8.030000	-0.445705
	8.035000	-0.600275
	8.040000	-0.580543
	8.045000	-0.429262
	8.050000	-0.448994
	8.055000	-0.603564
	8.060000	-0.577254
	8.065000	-0.429262
	8.070000	-0.445705
	8.075000	-0.603564
	8.080000	-0.580543
	8.085000	-0.425973
	8.090000	-0.452283
	8.095000	-0.600275
	8.100000	-0.577254
	8.105000	-0.432550
	8.110000	-0.452283
	8.115000	-0.603564
	8.120000	-0.583832
	8.125000	-0.432550
	8.130000	-0.448994
	8.135000	-0.596987
	8.140000	-0.580543
	8.145000	-0.429262
	8.150000	-0.442417
	8.155000	-0.603564
	8.160000	-0.583832
	8.165000	-0.429262
	8.170000	-0.445705
	8.175000	-0.600275
	8.180000	-0.587120
	8.185000	-0.422684
	8.190000	-0.448994
	8.195000	-0.600275
	8.200000	-0.580543
	8.205000	-0.425973
	8.210000	-0.448994
	8.215000	-0.600275
	8.220000	-0.577254
	8.225000	-0.429262
	8.230000	-0.445705
	8.235000	-0.603564
	8.240000	-0.583832
	8.245000	-0.432550
	8.250000	-0.448994
	8.255000	-0.596987
	8.260000	-0.580543
	8.265000	-0.429262
	8.270000	-0.445705
	8.275000	-0.606853
	8.280000	-0.580543
	8.285000	-0.432550
	8.290000	-0.448994
	8.295000	-0.603564
	8.300000	-0.583832
	8.305000	-0.429262
	8.310000	-0.445705
	8.315000	-0.600275
	8.320000	-0.580543
	8.325000	-0.429262
	8.330000	-0.448994
	8.335000	-0.596987
	8.340000	-0.583832
	8.345000	-0.425973
	8.350000	-0.448994
	8.355000	-0.603564
	8.360000	-0.583832
	8.365000	-0.432550
	8.370000	-0.452283
	8.375000	-0.603564
	8.380000	-0.580543
	8.385000	-0.425973
	8.390000	-0.445705
	8.395000	-0.606853
	8.400000	-0.580543
	8.405000	-0.429262
	8.410000	-0.448994
	8.415000	-0.600275
	8.420000	-0.580543
	8.425000	-0.425973
	8.430000	-0.448994
	8.435000	-0.596987
	8.440000	-0.583832
	8.445000	-0.429262
	8.450000	-0.448994
	8.455000	-0.600275
	8.460000	-0.580543
	8.465000	-0.429262
	8.470000	-0.445705
	8.475000	-0.600275
	8.480000	-0.580543
	8.485000	-0.429262
	8.490000	-0.445705
	8.495000	-0.603564
	8.500000	-0.577254
	8.505000	-0.425973
	8.510000	-0.448994
	8.515000	-0.596987
	8.520000	-0.577254
	8.525000	-0.429262
	8.530000	-0.448994
	8.535000	-0.600275
	8.540000	-0.577254
	8.545000	-0.429262
	8.550000	-0.445705
	8.555000	-0.596987
	8.560000	-0.577254
	8.565000	-0.425973
	8.570000	-0.442417
	8.575000	-0.596987
	8.580000	-0.577254
	8.585000	-0.422684
	8.590000	-0.439128
	8.595000	-0.596987
	8.600000	-0.573965
	8.605000	-0.419395
	8.610000	-0.445705
	8.615000	-0.600275
	8.620000	-0.577254
	8.625000	-0.422684
	8.630000	-0.445705
	8.635000	-0.596987
	8.640000	-0.577254
	8.645000	-0.425973
	8.650000	-0.445705
	8.655000	-0.603564
	8.660000	-0.580543
	8.665000	-0.425973
	8.670000	-0.445705
	8.675000	-0.596987
	8.680000	-0.577254
	8.685000	-0.422684
	8.690000	-0.448994
	8.695000	-0.596987
	8.700000	-0.577254
	8.705000	-0.422684
	8.710000	-0.448994
	8.715000	-0.603564
	8.720000	-0.583832
	8.725000	-0.425973
	8.730000	-0.448994
	8.735000	-0.606853
	8.740000	-0.587120
	8.745000	-0.435839
	8.750000	-0.455571
	8.755000	-0.613430
	8.760000	-0.590409
	8.765000	-0.435839
	8.770000	-0.458860
	8.775000	-0.606853
	8.780000	-0.587120
	8.785000	-0.435839
	8.790000	-0.448994
	8.795000	-0.603564
	8.800000	-0.577254
	8.805000	-0.416107
	8.810000	-0.432550
	8.815000	-0.587120
	8.820000	-0.554233
	8.825000	-0.389797
	8.830000	-0.406241
	8.835000	-0.564099
	8.840000	-0.541078
	8.845000	-0.383220
	8.850000	-0.399663
	8.855000	-0.560811
	8.860000	-0.537790
	8.865000	-0.383220
	8.870000	-0.409529
	8.875000	-0.560811
	8.880000	-0.547656
	8.885000	-0.393086
	8.890000	-0.416107
	8.895000	-0.577254
	8.900000	-0.557522
	8.905000	-0.406241
	8.910000	-0.425973
	8.915000	-0.590409
	8.920000	-0.567388
	8.925000	-0.412818
	8.930000	-0.442417
	8.935000	-0.600275
	8.940000	-0.580543
	8.945000	-0.429262
	8.950000	-0.448994
	8.955000	-0.603564
	8.960000	-0.583832
	8.965000	-0.422684
	8.970000	-0.445705
	8.975000	-0.600275
	8.980000	-0.583832
	8.985000	-0.425973
	8.990000	-0.445705
	8.995000	-0.600275
	9.000000	-0.580543
	9.005000	-0.419395
	9.010000	-0.439128
	9.015000	-0.600275
	9.020000	-0.573965
	9.025000	-0.419395
	9.030000	-0.432550
	9.035000	-0.593698
	9.040000	-0.564099
	9.045000	-0.406241
	9.050000	-0.429262
	9.055000	-0.580543
	9.060000	-0.554233
	9.065000	-0.399663
	9.070000	-0.416107
	9.075000	-0.567388
	9.080000	-0.547656
	9.085000	-0.379931
	9.090000	-0.402952
	9.095000	-0.560811
	9.100000	-0.537790
	9.105000	-0.379931
	9.110000	-0.402952
	9.115000	-0.557522
	9.120000	-0.537790
	9.125000	-0.389797
	9.130000	-0.409529
	9.135000	-0.570677
	9.140000	-0.550944
	9.145000	-0.402952
	9.150000	-0.419395
	9.155000	-0.577254
	9.160000	-0.550944
	9.165000	-0.402952
	9.170000	-0.422684
	9.175000	-0.577254
	9.180000	-0.554233
	9.185000	-0.399663
	9.190000	-0.422684
	9.195000	-0.583832
	9.200000	-0.560811
	9.205000	-0.412818
	9.210000	-0.435839
	9.215000	-0.583832
	9.220000	-0.567388
	9.225000	-0.419395
	9.230000	-0.442417
	9.235000	-0.600275
	9.240000	-0.583832
	9.245000	-0.439128
	9.250000	-0.465438
	9.255000	-0.620008
	9.260000	-0.606853
	9.265000	-0.465438
	9.270000	-0.495036
	9.275000	-0.649606
	9.280000	-0.633162
	9.285000	-0.488459
	9.290000	-0.511480
	9.295000	-0.666050
	9.300000	-0.646317
	9.305000	-0.488459
	9.310000	-0.508191
	9.315000	-0.656184
	9.320000	-0.633162
	9.325000	-0.475304
	9.330000	-0.495036
	9.335000	-0.646317
	9.340000	-0.623296
	9.345000	-0.465438
	9.350000	-0.485170
	9.355000	-0.633162
	9.360000	-0.606853
	9.365000	-0.455571
	9.370000	-0.475304
	9.375000	-0.626585
	9.380000	-0.603564
	9.385000	-0.452283
	9.390000	-0.475304
	9.395000	-0.626585
	9.400000	-0.603564
	9.405000	-0.455571
	9.410000	-0.472015
	9.415000	-0.629874
	9.420000	-0.606853
	9.425000	-0.455571
	9.430000	-0.475304
	9.435000	-0.626585
	9.440000	-0.606853
	9.445000	-0.455571
	9.450000	-0.468726
	9.455000	-0.623296
	9.460000	-0.600275
	9.465000	-0.448994
	9.470000	-0.462149
	9.475000	-0.616719
	9.480000	-0.590409
	9.485000	-0.439128
	9.490000	-0.455571
	9.495000	-0.613430
	9.500000	-0.587120
	9.505000	-0.432550
	9.510000	-0.448994
	9.515000	-0.603564
	9.520000	-0.587120
	9.525000	-0.432550
	9.530000	-0.452283
	9.535000	-0.603564
	9.540000	-0.587120
	9.545000	-0.432550
	9.550000	-0.452283
	9.555000	-0.606853
	9.560000	-0.590409
	9.565000	-0.435839
	9.570000	-0.458860
	9.575000	-0.613430
	9.580000	-0.593698
	9.585000	-0.435839
	9.590000	-0.462149
	9.595000	-0.613430
	9.600000	-0.596987
	9.605000	-0.442417
	9.610000	-0.465438
	9.615000	-0.616719
	9.620000	-0.596987
	9.625000	-0.442417
	9.630000	-0.462149
	9.635000	-0.616719
	9.640000	-0.593698
	9.645000	-0.442417
	9.650000	-0.458860
	9.655000	-0.616719
	9.660000	-0.593698
	9.665000	-0.445705
	9.670000	-0.462149
	9.675000	-0.616719
	9.680000	-0.593698
	9.685000	-0.445705
	9.690000	-0.462149
	9.695000	-0.620008
	9.700000	-0.596987
	9.705000	-0.445705
	9.710000	-0.462149
	9.715000	-0.616719
	9.720000	-0.600275
	9.725000	-0.442417
	9.730000	-0.462149
	9.735000	-0.620008
	9.740000	-0.596987
	9.745000	-0.445705
	9.750000	-0.462149
	9.755000	-0.620008
	9.760000	-0.590409
	9.765000	-0.439128
	9.770000	-0.458860
	9.775000	-0.613430
	9.780000	-0.587120
	9.785000	-0.442417
	9.790000	-0.455571
	9.795000	-0.613430
	9.800000	-0.593698
	9.805000	-0.439128
	9.810000	-0.458860
	9.815000	-0.610141
	9.820000	-0.593698
	9.825000	-0.439128
	9.830000	-0.455571
	9.835000	-0.613430
	9.840000	-0.590409
	9.845000	-0.439128
	9.850000	-0.462149
	9.855000	-0.613430
	9.860000	-0.593698
	9.865000	-0.442417
	9.870000	-0.462149
	9.875000	-0.613430
	9.880000	-0.593698
	9.885000	-0.442417
	9.890000	-0.455571
	9.895000	-0.610141
	9.900000	-0.590409
	9.905000	-0.435839
	9.910000	-0.452283
	9.915000	-0.606853
	9.920000	-0.583832
	9.925000	-0.435839
	9.930000	-0.452283
	9.935000	-0.606853
	9.940000	-0.587120
	9.945000	-0.435839
	9.950000	-0.452283
	9.955000	-0.603564
	9.960000	-0.587120
	9.965000	-0.429262
	9.970000	-0.455571
	9.975000	-0.606853
	9.980000	-0.580543
	9.985000	-0.432550
	9.990000	-0.448994
	9.995000	-0.610141
	10.000000	-0.587120
	10.005000	-0.435839
	10.010000	-0.452283
	10.015000	-0.610141
	10.020000	-0.587120
	10.025000	-0.442417
	10.030000	-0.455571
	10.035000	-0.610141
	10.040000	-0.593698
	10.045000	-0.435839
	10.050000	-0.458860
	10.055000	-0.610141
	10.060000	-0.593698
	10.065000	-0.442417
	10.070000	-0.458860
	10.075000	-0.616719
	10.080000	-0.593698
	10.085000	-0.442417
	10.090000	-0.458860
	10.095000	-0.613430
	10.100000	-0.593698
	10.105000	-0.445705
	10.110000	-0.462149
	10.115000	-0.616719
	10.120000	-0.596987
	10.125000	-0.439128
	10.130000	-0.458860
	10.135000	-0.613430
	10.140000	-0.590409
	10.145000	-0.442417
	10.150000	-0.458860
	10.155000	-0.610141
	10.160000	-0.593698
	10.165000	-0.439128
	10.170000	-0.455571
	10.175000	-0.613430
	10.180000	-0.587120
	10.185000	-0.439128
	10.190000	-0.455571
	10.195000	-0.606853
	10.200000	-0.590409
	10.205000	-0.439128
	10.210000	-0.452283
	10.215000	-0.606853
	10.220000	-0.590409
	10.225000	-0.435839
	10.230000	-0.448994
	10.235000	-0.603564
	10.240000	-0.587120
	10.245000	-0.432550
	10.250000	-0.448994
	10.255000	-0.600275
	10.260000	-0.583832
	10.265000	-0.429262
	10.270000	-0.448994
	10.275000	-0.606853
	10.280000	-0.580543
	10.285000	-0.429262
	10.290000	-0.452283
	10.295000	-0.603564
	10.300000	-0.580543
	10.305000	-0.435839
	10.310000	-0.452283
	10.315000	-0.603564
	10.320000	-0.580543
	10.325000	-0.435839
	10.330000	-0.452283
	10.335000	-0.606853
	10.340000	-0.583832
	10.345000	-0.435839
	10.350000	-0.455571
	10.355000	-0.603564
	10.360000	-0.590409
	10.365000	-0.435839
	10.370000	-0.452283
	10.375000	-0.613430
	10.380000	-0.590409
	10.385000	-0.435839
	10.390000	-0.458860
	10.395000	-0.613430
	10.400000	-0.590409
	10.405000	-0.439128
	10.410000	-0.458860
	10.415000	-0.610141
	10.420000	-0.590409
	10.425000	-0.435839
	10.430000	-0.462149
	10.435000	-0.610141
	10.440000	-0.593698
	10.445000	-0.435839
	10.450000	-0.455571
	10.455000	-0.610141
	10.460000	-0.590409
	10.465000	-0.439128
	10.470000	-0.452283
	10.475000	-0.606853
	10.480000	-0.587120
	10.485000	-0.432550
	10.490000	-0.455571
	10.495000	-0.610141
	10.500000	-0.587120
	10.505000	-0.432550
	10.510000	-0.448994
	10.515000	-0.603564
	10.520000	-0.580543
	10.525000	-0.429262
	10.530000	-0.445705
	10.535000	-0.603564
	10.540000	-0.580543
	10.545000	-0.429262
	10.550000	-0.448994
	10.555000	-0.603564
	10.560000	-0.587120
	10.565000	-0.429262
	10.570000	-0.448994
	10.575000	-0.600275
	10.580000	-0.580543
	10.585000	-0.432550
	10.590000	-0.445705
	10.595000	-0.600275
	10.600000	-0.587120
	10.605000	-0.435839
	10.610000	-0.448994
	10.615000	-0.606853
	10.620000	-0.590409
	10.625000	-0.439128
	10.630000	-0.455571
	10.635000	-0.606853
	10.640000	-0.587120
	10.645000	-0.435839
	10.650000	-0.458860
	10.655000	-0.606853
	10.660000	-0.590409
	10.665000	-0.435839
	10.670000	-0.458860
	10.675000	-0.613430
	10.680000	-0.593698
	10.685000	-0.445705
	10.690000	-0.462149
	10.695000	-0.613430
	10.700000	-0.593698
	10.705000	-0.439128
	10.710000	-0.455571
	10.715000	-0.613430
	10.720000	-0.593698
	10.725000	-0.435839
	10.730000	-0.458860
	10.735000	-0.610141
	10.740000	-0.587120
	10.745000	-0.439128
	10.750000	-0.452283
	10.755000	-0.603564
	10.760000	-0.587120
	10.765000	-0.435839
	10.770000	-0.455571
	10.775000	-0.610141
	10.780000	-0.590409
	10.785000	-0.435839
	10.790000	-0.455571
	10.795000	-0.603564
	10.800000	-0.593698
	10.805000	-0.442417
	10.810000	-0.455571
	10.815000	-0.613430
	10.820000	-0.593698
	10.825000	-0.442417
	10.830000	-0.455571
	10.835000	-0.616719
	10.840000	-0.590409
	10.845000	-0.435839
	10.850000	-0.462149
	10.855000	-0.610141
	10.860000	-0.590409
	10.865000	-0.442417
	10.870000	-0.455571
	10.875000	-0.610141
	10.880000	-0.596987
	10.885000	-0.435839
	10.890000	-0.455571
	10.895000	-0.606853
	10.900000	-0.583832
	10.905000	-0.432550
	10.910000	-0.448994
	10.915000	-0.606853
	10.920000	-0.587120
	10.925000	-0.432550
	10.930000	-0.452283
	10.935000	-0.606853
	10.940000	-0.587120
	10.945000	-0.439128
	10.950000	-0.455571
	10.955000	-0.610141
	10.960000	-0.593698
	10.965000	-0.439128
	10.970000	-0.455571
	10.975000	-0.613430
	10.980000	-0.593698
	10.985000	-0.442417
	10.990000	-0.462149
	10.995000	-0.616719
	11.000000	-0.596987
	11.005000	-0.445705
	11.010000	-0.458860
	11.015000	-0.620008
	11.020000	-0.593698
	11.025000	-0.442417
	11.030000	-0.462149
	11.035000	-0.616719
	11.040000	-0.593698
	11.045000	-0.439128
	11.050000	-0.455571
	11.055000	-0.613430
	11.060000	-0.587120
	11.065000	-0.435839
	11.070000	-0.455571
	11.075000	-0.603564
	11.080000	-0.583832
	11.085000	-0.429262
	11.090000	-0.448994
	11.095000	-0.600275
	11.100000	-0.580543
	11.105000	-0.429262
	11.110000	-0.445705
	11.115000	-0.600275
	11.120000	-0.580543
	11.125000	-0.432550
	11.130000	-0.442417
	11.135000	-0.600275
	11.140000	-0.587120
	11.145000	-0.429262
	11.150000	-0.445705
	11.155000	-0.603564
	11.160000	-0.587120
	11.165000	-0.432550
	11.170000	-0.452283
	11.175000	-0.606853
	11.180000	-0.583832
	11.185000	-0.432550
	11.190000	-0.455571
	11.195000	-0.606853
	11.200000	-0.587120
	11.205000	-0.429262
	11.210000	-0.448994
	11.215000	-0.613430
	11.220000	-0.587120
	11.225000	-0.435839
	11.230000	-0.452283
	11.235000	-0.610141
	11.240000	-0.590409
	11.245000	-0.432550
	11.250000	-0.455571
	11.255000	-0.610141
	11.260000	-0.590409
	11.265000	-0.435839
	11.270000	-0.458860
	11.275000	-0.610141
	11.280000	-0.590409
	11.285000	-0.432550
	11.290000	-0.452283
	11.295000	-0.606853
	11.300000	-0.587120
	11.305000	-0.425973
	11.310000	-0.445705
	11.315000	-0.600275
	11.320000	-0.577254
	11.325000	-0.419395
	11.330000	-0.439128
	11.335000	-0.593698
	11.340000	-0.570677
	11.345000	-0.416107
	11.350000	-0.439128
	11.355000	-0.590409
	11.360000	-0.570677
	11.365000	-0.416107
	11.370000	-0.439128
	11.375000	-0.590409
	11.380000	-0.573965
	11.385000	-0.416107
	11.390000	-0.435839
	11.395000	-0.587120
	11.400000	-0.573965
	11.405000	-0.409529
	11.410000	-0.432550
	11.415000	-0.587120
	11.420000	-0.557522
	11.425000	-0.399663
	11.430000	-0.419395
	11.435000	-0.577254
	11.440000	-0.554233
	11.445000	-0.399663
	11.450000	-0.419395
	11.455000	-0.573965
	11.460000	-0.554233
	11.465000	-0.399663
	11.470000	-0.425973
	11.475000	-0.580543
	11.480000	-0.564099
	11.485000	-0.416107
	11.490000	-0.435839
	11.495000	-0.593698
	11.500000	-0.583832
	11.505000	-0.429262
	11.510000	-0.452283
	11.515000	-0.606853
	11.520000	-0.590409
	11.525000	-0.435839
	11.530000	-0.452283
	11.535000	-0.606853
	11.540000	-0.580543
	11.545000	-0.422684
	11.550000	-0.439128
	11.555000	-0.590409
	11.560000	-0.570677
	11.565000	-0.416107
	11.570000	-0.435839
	11.575000	-0.587120
	11.580000	-0.570677
	11.585000	-0.419395
	11.590000	-0.442417
	11.595000	-0.596987
	11.600000	-0.587120
	11.605000	-0.432550
	11.610000	-0.455571
	11.615000	-0.613430
	11.620000	-0.600275
	11.625000	-0.458860
	11.630000	-0.478592
	11.635000	-0.639740
	11.640000	-0.623296
	11.645000	-0.472015
	11.650000	-0.495036
	11.655000	-0.649606
	11.660000	-0.629874
	11.665000	-0.468726
	11.670000	-0.485170
	11.675000	-0.636451
	11.680000	-0.620008
	11.685000	-0.468726
	11.690000	-0.481881
	11.695000	-0.629874
	11.700000	-0.610141
	11.705000	-0.458860
	11.710000	-0.475304
	11.715000	-0.626585
	11.720000	-0.603564
	11.725000	-0.445705
	11.730000	-0.468726
	11.735000	-0.620008
	11.740000	-0.600275
	11.745000	-0.448994
	11.750000	-0.465438
	11.755000	-0.623296
	11.760000	-0.600275
	11.765000	-0.448994
	11.770000	-0.468726
	11.775000	-0.620008
	11.780000	-0.600275
	11.785000	-0.448994
	11.790000	-0.465438
	11.795000	-0.616719
	11.800000	-0.593698
	11.805000	-0.445705
	11.810000	-0.458860
	11.815000	-0.613430
	11.820000	-0.596987
	11.825000	-0.435839
	11.830000	-0.455571
	11.835000	-0.606853
	11.840000	-0.587120
	11.845000	-0.435839
	11.850000	-0.452283
	11.855000	-0.603564
	11.860000	-0.583832
	11.865000	-0.432550
	11.870000	-0.452283
	11.875000	-0.603564
	11.880000	-0.587120
	11.885000	-0.435839
	11.890000	-0.455571
	11.895000	-0.610141
	11.900000	-0.596987
	11.905000	-0.442417
	11.910000	-0.465438
	11.915000	-0.620008
	11.920000	-0.603564
	11.925000	-0.448994
	11.930000	-0.468726
	11.935000	-0.620008
	11.940000	-0.603564
	11.945000	-0.448994
	11.950000	-0.468726
	11.955000	-0.616719
	11.960000	-0.603564
	11.965000	-0.452283
	11.970000	-0.468726
	11.975000	-0.616719
	11.980000	-0.593698
	11.985000	-0.448994
	11.990000	-0.465438
	11.995000	-0.616719
	12.000000	-0.600275
	12.005000	-0.448994
	12.010000	-0.468726
	12.015000	-0.620008
	12.020000	-0.600275
	12.025000	-0.452283
	12.030000	-0.462149
	12.035000	-0.620008
	12.040000	-0.600275
	12.045000	-0.445705
	12.050000	-0.462149
	12.055000	-0.616719
	12.060000	-0.600275
	12.065000	-0.448994
	12.070000	-0.462149
	12.075000	-0.620008
	12.080000	-0.596987
	12.085000	-0.448994
	12.090000	-0.462149
	12.095000	-0.616719
	12.100000	-0.596987
	12.105000	-0.445705
	12.110000	-0.462149
	12.115000	-0.620008
	12.120000	-0.600275
	12.125000	-0.442417
	12.130000	-0.462149
	12.135000	-0.610141
	12.140000	-0.596987
	12.145000	-0.442417
	12.150000	-0.458860
	12.155000	-0.613430
	12.160000	-0.593698
	12.165000	-0.445705
	12.170000	-0.462149
	12.175000	-0.613430
	12.180000	-0.593698
	12.185000	-0.439128
	12.190000	-0.458860
	12.195000	-0.613430
	12.200000	-0.600275
	12.205000	-0.435839
	12.210000	-0.455571
	12.215000	-0.606853
	12.220000	-0.596987
	12.225000	-0.439128
	12.230000	-0.455571
	12.235000	-0.610141
	12.240000	-0.596987
	12.245000	-0.442417
	12.250000	-0.458860
	12.255000	-0.610141
	12.260000	-0.596987
	12.265000	-0.442417
	12.270000	-0.455571
	12.275000	-0.613430
	12.280000	-0.593698
	12.285000	-0.442417
	12.290000	-0.455571
	12.295000	-0.610141
	12.300000	-0.593698
	12.305000	-0.439128
	12.310000	-0.452283
	12.315000	-0.606853
	12.320000	-0.593698
	12.325000	-0.435839
	12.330000	-0.452283
	12.335000	-0.610141
	12.340000	-0.590409
	12.345000	-0.439128
	12.350000	-0.455571
	12.355000	-0.610141
	12.360000	-0.593698
	12.365000	-0.439128
	12.370000	-0.455571
	12.375000	-0.613430
	12.380000	-0.596987
	12.385000	-0.442417
	12.390000	-0.458860
	12.395000	-0.613430
	12.400000	-0.593698
	12.405000	-0.445705
	12.410000	-0.458860
	12.415000	-0.610141
	12.420000	-0.593698
	12.425000	-0.442417
	12.430000	-0.462149
	12.435000	-0.610141
	12.440000	-0.596987
	12.445000	-0.445705
	12.450000	-0.458860
	12.455000	-0.620008
	12.460000	-0.593698
	12.465000	-0.445705
	12.470000	-0.458860
	12.475000	-0.616719
	12.480000	-0.593698
	12.485000	-0.439128
	12.490000	-0.458860
	12.495000	-0.613430
	12.500000	-0.596987
	12.505000	-0.445705
	12.510000	-0.455571
	12.515000	-0.613430
	12.520000	-0.590409
	12.525000	-0.439128
	12.530000	-0.452283
	12.535000	-0.606853
	12.540000	-0.593698
	12.545000	-0.439128
	12.550000	-0.455571
	12.555000	-0.603564
	12.560000	-0.593698
	12.565000	-0.435839
	12.570000	-0.448994
	12.575000	-0.606853
	12.580000	-0.590409
	12.585000	-0.435839
	12.590000	-0.448994
	12.595000	-0.603564
	12.600000	-0.583832
	12.605000	-0.435839
	12.610000	-0.452283
	12.615000	-0.603564
	12.620000	-0.590409
	12.625000	-0.435839
	12.630000	-0.452283
	12.635000	-0.606853
	12.640000	-0.587120
	12.645000	-0.435839
	12.650000	-0.452283
	12.655000	-0.603564
	12.660000	-0.587120
	12.665000	-0.435839
	12.670000	-0.448994
	12.675000	-0.603564
	12.680000	-0.587120
	12.685000	-0.439128
	12.690000	-0.448994
	12.695000	-0.606853
	12.700000	-0.593698
	12.705000	-0.439128
	12.710000	-0.448994
	12.715000	-0.603564
	12.720000	-0.590409
	12.725000	-0.435839
	12.730000	-0.452283
	12.735000	-0.606853
	12.740000	-0.587120
	12.745000	-0.439128
	12.750000	-0.448994
	12.755000	-0.606853
	12.760000	-0.590409
	12.765000	-0.439128
	12.770000	-0.452283
	12.775000	-0.606853
	12.780000	-0.590409
	12.785000	-0.442417
	12.790000	-0.455571
	12.795000	-0.610141
	12.800000	-0.590409
	12.805000	-0.439128
	12.810000	-0.452283
	12.815000	-0.606853
	12.820000	-0.587120
	12.825000	-0.442417
	12.830000	-0.448994
	12.835000	-0.603564
	12.840000	-0.587120
	12.845000	-0.435839
	12.850000	-0.448994
	12.855000	-0.600275
	12.860000	-0.583832
	12.865000	-0.429262
	12.870000	-0.445705
	12.875000	-0.596987
	12.880000	-0.583832
	12.885000	-0.429262
	12.890000	-0.445705
	12.895000	-0.600275
	12.900000	-0.580543
	12.905000	-0.432550
	12.910000	-0.452283
	12.915000	-0.600275
	12.920000	-0.590409
	12.925000	-0.432550
	12.930000	-0.452283
	12.935000	-0.600275
	12.940000	-0.590409
	12.945000	-0.439128
	12.950000	-0.448994
	12.955000	-0.606853
	12.960000	-0.590409
	12.965000	-0.435839
	12.970000	-0.452283
	12.975000	-0.606853
	12.980000	-0.590409
	12.985000	-0.439128
	12.990000	-0.448994
	12.995000	-0.606853
	13.000000	-0.593698
	13.005000	-0.435839
	13.010000	-0.448994
	13.015000	-0.600275
	13.020000	-0.583832
	13.025000	-0.432550
	13.030000	-0.442417
	13.035000	-0.596987
	13.040000	-0.587120
	13.045000	-0.432550
	13.050000	-0.445705
	13.055000	-0.600275
	13.060000	-0.587120
	13.065000	-0.432550
	13.070000	-0.448994
	13.075000	-0.606853
	13.080000	-0.587120
	13.085000	-0.439128
	13.090000	-0.452283
	13.095000	-0.610141
	13.100000	-0.590409
	13.105000	-0.445705
	13.110000	-0.455571
	13.115000	-0.616719
	13.120000	-0.596987
	13.125000	-0.442417
	13.130000	-0.455571
	13.135000	-0.610141
	13.140000	-0.593698
	13.145000	-0.439128
	13.150000	-0.445705
	13.155000	-0.600275
	13.160000	-0.587120
	13.165000	-0.429262
	13.170000	-0.442417
	13.175000	-0.596987
	13.180000	-0.580543
	13.185000	-0.432550
	13.190000	-0.445705
	13.195000	-0.596987
	13.200000	-0.580543
	13.205000	-0.425973
	13.210000	-0.439128
	13.215000	-0.606853
	13.220000	-0.590409
	13.225000	-0.435839
	13.230000	-0.452283
	13.235000	-0.613430
	13.240000	-0.593698
	13.245000	-0.445705
	13.250000	-0.465438
	13.255000	-0.620008
	13.260000	-0.603564
	13.265000	-0.448994
	13.270000	-0.462149
	13.275000	-0.626585
	13.280000	-0.603564
	13.285000	-0.448994
	13.290000	-0.465438
	13.295000	-0.623296
	13.300000	-0.600275
	13.305000	-0.445705
	13.310000	-0.465438
	13.315000	-0.616719
	13.320000	-0.600275
	13.325000	-0.439128
	13.330000	-0.455571
	13.335000	-0.613430
	13.340000	-0.596987
	13.345000	-0.439128
	13.350000	-0.455571
	13.355000	-0.616719
	13.360000	-0.603564
	13.365000	-0.439128
	13.370000	-0.455571
	13.375000	-0.613430
	13.380000	-0.596987
	13.385000	-0.442417
	13.390000	-0.455571
	13.395000	-0.613430
	13.400000	-0.596987
	13.405000	-0.442417
	13.410000	-0.455571
	13.415000	-0.613430
	13.420000	-0.596987
	13.425000	-0.435839
	13.430000	-0.452283
	13.435000	-0.610141
	13.440000	-0.590409
	13.445000	-0.432550
	13.450000	-0.448994
	13.455000	-0.603564
	13.460000	-0.587120
	13.465000	-0.432550
	13.470000	-0.442417
	13.475000	-0.600275
	13.480000	-0.580543
	13.485000	-0.425973
	13.490000	-0.435839
	13.495000	-0.596987
	13.500000	-0.573965
	13.505000	-0.416107
	13.510000	-0.429262
	13.515000	-0.587120
	13.520000	-0.570677
	13.525000	-0.409529
	13.530000	-0.422684
	13.535000	-0.577254
	13.540000	-0.560811
	13.545000	-0.409529
	13.550000	-0.419395
	13.555000	-0.580543
	13.560000	-0.567388
	13.565000	-0.416107
	13.570000	-0.435839
	13.575000	-0.593698
	13.580000	-0.580543
	13.585000	-0.429262
	13.590000	-0.445705
	13.595000	-0.606853
	13.600000	-0.587120
	13.605000	-0.432550
	13.610000	-0.442417
	13.615000	-0.600275
	13.620000	-0.580543
	13.625000	-0.422684
	13.630000	-0.435839
	13.635000	-0.590409
	13.640000	-0.570677
	13.645000	-0.412818
	13.650000	-0.425973
	13.655000	-0.580543
	13.660000	-0.560811
	13.665000	-0.412818
	13.670000	-0.422684
	13.675000	-0.580543
	13.680000	-0.567388
	13.685000	-0.416107
	13.690000	-0.432550
	13.695000	-0.590409
	13.700000	-0.577254
	13.705000	-0.429262
	13.710000	-0.445705
	13.715000	-0.606853
	13.720000	-0.600275
	13.725000	-0.452283
	13.730000	-0.472015
	13.735000	-0.633162
	13.740000	-0.620008
	13.745000	-0.472015
	13.750000	-0.478592
	13.755000	-0.639740
	13.760000	-0.623296
	13.765000	-0.472015
	13.770000	-0.485170
	13.775000	-0.633162
	13.780000	-0.620008
	13.785000	-0.462149
	13.790000	-0.475304
	13.795000	-0.626585
	13.800000	-0.610141
	13.805000	-0.458860
	13.810000	-0.468726
	13.815000	-0.623296
	13.820000	-0.613430
	13.825000	-0.455571
	13.830000	-0.462149
	13.835000	-0.620008
	13.840000	-0.606853
	13.845000	-0.455571
	13.850000	-0.468726
	13.855000	-0.620008
	13.860000	-0.603564
	13.865000	-0.455571
	13.870000	-0.462149
	13.875000	-0.616719
	13.880000	-0.603564
	13.885000	-0.448994
	13.890000	-0.458860
	13.895000	-0.610141
	13.900000	-0.593698
	13.905000	-0.442417
	13.910000	-0.448994
	13.915000	-0.603564
	13.920000	-0.590409
	13.925000	-0.439128
	13.930000	-0.442417
	13.935000	-0.596987
	13.940000	-0.583832
	13.945000	-0.422684
	13.950000	-0.435839
	13.955000	-0.590409
	13.960000	-0.580543
	13.965000	-0.425973
	13.970000	-0.439128
	13.975000	-0.593698
	13.980000	-0.583832
	13.985000	-0.432550
	13.990000	-0.445705
	13.995000	-0.600275
	14.000000	-0.593698
	14.005000	-0.442417
	14.010000	-0.458860
	14.015000	-0.616719
	14.020000	-0.610141
	14.025000	-0.452283
	14.030000	-0.458860
	14.035000	-0.616719
	14.040000	-0.600275
	14.045000	-0.448994
	14.050000	-0.462149
	14.055000	-0.613430
	14.060000	-0.603564
	14.065000	-0.452283
	14.070000	-0.458860
	14.075000	-0.613430
	14.080000	-0.603564
	14.085000	-0.445705
	14.090000	-0.455571
	14.095000	-0.613430
	14.100000	-0.603564
	14.105000	-0.445705
	14.110000	-0.455571
	14.115000	-0.606853
	14.120000	-0.603564
	14.125000	-0.445705
	14.130000	-0.458860
	14.135000	-0.610141
	14.140000	-0.596987
	14.145000	-0.445705
	14.150000	-0.455571
	14.155000	-0.610141
	14.160000	-0.593698
	14.165000	-0.448994
	14.170000	-0.458860
	14.175000	-0.610141
	14.180000	-0.593698
	14.185000	-0.445705
	14.190000	-0.452283
	14.195000	-0.606853
	14.200000	-0.593698
	14.205000	-0.442417
	14.210000	-0.448994
	14.215000	-0.606853
	14.220000	-0.593698
	14.225000	-0.439128
	14.230000	-0.452283
	14.235000	-0.603564
	14.240000	-0.593698
	14.245000	-0.442417
	14.250000	-0.452283
	14.255000	-0.606853
	14.260000	-0.596987
	14.265000	-0.439128
	14.270000	-0.448994
	14.275000	-0.610141
	14.280000	-0.593698
	14.285000	-0.442417
	14.290000	-0.452283
	14.295000	-0.606853
	14.300000	-0.593698
	14.305000	-0.442417
	14.310000	-0.448994
	14.315000	-0.606853
	14.320000	-0.596987
	14.325000	-0.448994
	14.330000	-0.455571
	14.335000	-0.610141
	14.340000	-0.603564
	14.345000	-0.445705
	14.350000	-0.455571
	14.355000	-0.606853
	14.360000	-0.596987
	14.365000	-0.445705
	14.370000	-0.455571
	14.375000	-0.610141
	14.380000	-0.596987
	14.385000	-0.445705
	14.390000	-0.452283
	14.395000	-0.606853
	14.400000	-0.596987
	14.405000	-0.442417
	14.410000	-0.448994
	14.415000	-0.606853
	14.420000	-0.596987
	14.425000	-0.442417
	14.430000	-0.452283
	14.435000	-0.603564
	14.440000	-0.593698
	14.445000	-0.442417
	14.450000	-0.448994
	14.455000	-0.606853
	14.460000	-0.593698
	14.465000	-0.439128
	14.470000	-0.452283
	14.475000	-0.603564
	14.480000	-0.593698
	14.485000	-0.442417
	14.490000	-0.448994
	14.495000	-0.606853
	14.500000	-0.593698
	14.505000	-0.435839
	14.510000	-0.448994
	14.515000	-0.603564
	14.520000	-0.596987
	14.525000	-0.439128
	14.530000	-0.448994
	14.535000	-0.606853
	14.540000	-0.593698
	14.545000	-0.442417
	14.550000	-0.452283
	14.555000	-0.606853
	14.560000	-0.596987
	14.565000	-0.442417
	14.570000	-0.448994
	14.575000	-0.606853
	14.580000	-0.596987
	14.585000	-0.445705
	14.590000	-0.448994
	14.595000	-0.610141
	14.600000	-0.596987
	14.605000	-0.445705
	14.610000	-0.452283
	14.615000	-0.606853
	14.620000	-0.600275
	14.625000	-0.452283
	14.630000	-0.448994
	14.635000	-0.610141
	14.640000	-0.600275
	14.645000	-0.445705
	14.650000	-0.455571
	14.655000	-0.610141
	14.660000	-0.600275
	14.665000	-0.442417
	14.670000	-0.452283
	14.675000	-0.606853
	14.680000	-0.596987
	14.685000	-0.445705
	14.690000	-0.448994
	14.695000	-0.603564
	14.700000	-0.596987
	14.705000	-0.445705
	14.710000	-0.448994
	14.715000	-0.606853
	14.720000	-0.593698
	14.725000	-0.445705
	14.730000	-0.448994
	14.735000	-0.606853
	14.740000	-0.596987
	14.745000	-0.445705
	14.750000	-0.448994
	14.755000	-0.603564
	14.760000	-0.596987
	14.765000	-0.442417
	14.770000	-0.452283
	14.775000	-0.603564
	14.780000	-0.596987
	14.785000	-0.439128
	14.790000	-0.445705
	14.795000	-0.603564
	14.800000	-0.593698
	14.805000	-0.442417
	14.810000	-0.445705
	14.815000	-0.600275
	14.820000	-0.596987
	14.825000	-0.439128
	14.830000	-0.448994
	14.835000	-0.600275
	14.840000	-0.596987
	14.845000	-0.435839
	14.850000	-0.452283
	14.855000	-0.596987
	14.860000	-0.596987
	14.865000	-0.442417
	14.870000	-0.448994
	14.875000	-0.600275
	14.880000	-0.590409
	14.885000	-0.435839
	14.890000	-0.452283
	14.895000	-0.603564
	14.900000	-0.596987
	14.905000	-0.439128
	14.910000	-0.448994
	14.915000	-0.603564
	14.920000	-0.593698
	14.925000	-0.442417
	14.930000	-0.448994
	14.935000	-0.603564
	14.940000	-0.596987
	14.945000	-0.442417
	14.950000	-0.448994
	14.955000	-0.606853
	14.960000	-0.600275
	14.965000	-0.442417
	14.970000	-0.448994
	14.975000	-0.603564
	14.980000	-0.596987
	14.985000	-0.442417
	14.990000	-0.448994
	14.995000	-0.606853
	15.000000	-0.596987
	15.005000	-0.442417
	15.010000	-0.445705
	15.015000	-0.600275
	15.020000	-0.593698
	15.025000	-0.439128
	15.030000	-0.448994
	15.035000	-0.603564
	15.040000	-0.593698
	15.045000	-0.439128
	15.050000	-0.448994
	15.055000	-0.600275
	15.060000	-0.593698
	15.065000	-0.442417
	15.070000	-0.445705
	15.075000	-0.596987
	15.080000	-0.593698
	15.085000	-0.442417
	15.090000	-0.448994
	15.095000	-0.610141
	15.100000	-0.593698
	15.105000	-0.439128
	15.110000	-0.448994
	15.115000	-0.606853
	15.120000	-0.596987
	15.125000	-0.442417
	15.130000	-0.452283
	15.135000	-0.603564
	15.140000	-0.593698
	15.145000	-0.448994
	15.150000	-0.445705
	15.155000	-0.606853
	15.160000	-0.593698
	15.165000	-0.442417
	15.170000	-0.452283
	15.175000	-0.603564
	15.180000	-0.596987
	15.185000	-0.442417
	15.190000	-0.448994
	15.195000	-0.600275
	15.200000	-0.596987
	15.205000	-0.442417
	15.210000	-0.445705
	15.215000	-0.600275
	15.220000	-0.590409
	15.225000	-0.442417
	15.230000	-0.445705
	15.235000	-0.603564
	15.240000	-0.596987
	15.245000	-0.439128
	15.250000	-0.445705
	15.255000	-0.600275
	15.260000	-0.596987
	15.265000	-0.442417
	15.270000	-0.448994
	15.275000	-0.606853
	15.280000	-0.593698
	15.285000	-0.442417
	15.290000	-0.448994
	15.295000	-0.606853
	15.300000	-0.596987
	15.305000	-0.442417
	15.310000	-0.448994
	15.315000	-0.600275
	15.320000	-0.596987
	15.325000	-0.445705
	15.330000	-0.448994
	15.335000	-0.606853
	15.340000	-0.600275
	15.345000	-0.442417
	15.350000	-0.448994
	15.355000	-0.603564
	15.360000	-0.600275
	15.365000	-0.442417
	15.370000	-0.445705
	15.375000	-0.600275
	15.380000	-0.596987
	15.385000	-0.442417
	15.390000	-0.445705
	15.395000	-0.600275
	15.400000	-0.596987
	15.405000	-0.445705
	15.410000	-0.448994
	15.415000	-0.603564
	15.420000	-0.593698
	15.425000	-0.442417
	15.430000	-0.448994
	15.435000	-0.606853
	15.440000	-0.600275
	15.445000	-0.442417
	15.450000	-0.445705
	15.455000	-0.603564
	15.460000	-0.593698
	15.465000	-0.445705
	15.470000	-0.445705
	15.475000	-0.600275
	15.480000	-0.593698
	15.485000	-0.435839
	15.490000	-0.445705
	15.495000	-0.596987
	15.500000	-0.593698
	15.505000	-0.439128
	15.510000	-0.442417
	15.515000	-0.596987
	15.520000	-0.593698
	15.525000	-0.435839
	15.530000	-0.442417
	15.535000	-0.596987
	15.540000	-0.590409
	15.545000	-0.435839
	15.550000	-0.445705
	15.555000	-0.603564
	15.560000	-0.593698
	15.565000	-0.439128
	15.570000	-0.445705
	15.575000	-0.600275
	15.580000	-0.596987
	15.585000	-0.442417
	15.590000	-0.445705
	15.595000	-0.600275
	15.600000	-0.593698
	15.605000	-0.445705
	15.610000	-0.445705
	15.615000	-0.603564
	15.620000	-0.593698
	15.625000	-0.439128
	15.630000	-0.445705
	15.635000	-0.600275
	15.640000	-0.593698
	15.645000	-0.439128
	15.650000	-0.445705
	15.655000	-0.603564
	15.660000	-0.596987
	15.665000	-0.439128
	15.670000	-0.448994
	15.675000	-0.610141
	15.680000	-0.600275
	15.685000	-0.448994
	15.690000	-0.448994
	15.695000	-0.610141
	15.700000	-0.603564
	15.705000	-0.448994
	15.710000	-0.452283
	15.715000	-0.613430
	15.720000	-0.603564
	15.725000	-0.448994
	15.730000	-0.455571
	15.735000	-0.606853
	15.740000	-0.593698
	15.745000	-0.439128
	15.750000	-0.439128
	15.755000	-0.593698
	15.760000	-0.587120
	15.765000	-0.425973
	15.770000	-0.429262
	15.775000	-0.583832
	15.780000	-0.573965
	15.785000	-0.419395
	15.790000	-0.419395
	15.795000	-0.580543
	15.800000	-0.570677
	15.805000	-0.416107
	15.810000	-0.425973
	15.815000	-0.590409
	15.820000	-0.583832
	15.825000	-0.432550
	15.830000	-0.445705
	15.835000	-0.603564
	15.840000	-0.600275
	15.845000	-0.448994
	15.850000	-0.458860
	15.855000	-0.620008
	15.860000	-0.613430
	15.865000	-0.455571
	15.870000	-0.462149
	15.875000	-0.623296
	15.880000	-0.610141
	15.885000	-0.452283
	15.890000	-0.455571
	15.895000	-0.616719
	15.900000	-0.606853
	15.905000	-0.448994
	15.910000	-0.448994
	15.915000	-0.606853
	15.920000	-0.600275
	15.925000	-0.439128
	15.930000	-0.442417
	15.935000	-0.600275
	15.940000	-0.587120
	15.945000	-0.432550
	15.950000	-0.439128
	15.955000	-0.596987
	15.960000	-0.593698
	15.965000	-0.435839
	15.970000	-0.445705
	15.975000	-0.603564
	15.980000	-0.600275
	15.985000	-0.442417
	15.990000	-0.452283
	15.995000	-0.610141
	16.000000	-0.606853
	16.005000	-0.455571
	16.010000	-0.458860
	16.015000	-0.616719
	16.020000	-0.606853
	16.025000	-0.448994
	16.030000	-0.452283
	16.035000	-0.610141
	16.040000	-0.603564
	16.045000	-0.445705
	16.050000	-0.445705
	16.055000	-0.603564
	16.060000	-0.587120
	16.065000	-0.429262
	16.070000	-0.432550
	16.075000	-0.587120
	16.080000	-0.577254
	16.085000	-0.416107
	16.090000	-0.425973
	16.095000	-0.573965
	16.100000	-0.567388
	16.105000	-0.416107
	16.110000	-0.425973
	16.115000	-0.580543
	16.120000	-0.573965
	16.125000	-0.419395
	16.130000	-0.425973
	16.135000	-0.583832
	16.140000	-0.577254
	16.145000	-0.429262
	16.150000	-0.429262
	16.155000	-0.590409
	16.160000	-0.583832
	16.165000	-0.432550
	16.170000	-0.439128
	16.175000	-0.596987
	16.180000	-0.593698
	16.185000	-0.439128
	16.190000	-0.442417
	16.195000	-0.603564
	16.200000	-0.593698
	16.205000	-0.439128
	16.210000	-0.445705
	16.215000	-0.600275
	16.220000	-0.590409
	16.225000	-0.435839
	16.230000	-0.442417
	16.235000	-0.600275
	16.240000	-0.587120
	16.245000	-0.429262
	16.250000	-0.435839
	16.255000	-0.590409
	16.260000	-0.587120
	16.265000	-0.429262
	16.270000	-0.429262
	16.275000	-0.583832
	16.280000	-0.573965
	16.285000	-0.416107
	16.290000	-0.419395
	16.295000	-0.577254
	16.300000	-0.567388
	16.305000	-0.416107
	16.310000	-0.425973
	16.315000	-0.583832
	16.320000	-0.580543
	16.325000	-0.425973
	16.330000	-0.439128
	16.335000	-0.593698
	16.340000	-0.593698
	16.345000	-0.442417
	16.350000	-0.455571
	16.355000	-0.620008
	16.360000	-0.620008
	16.365000	-0.475304
	16.370000	-0.485170
	16.375000	-0.643029
	16.380000	-0.639740
	16.385000	-0.485170
	16.390000	-0.488459
	16.395000	-0.649606
	16.400000	-0.639740
	16.405000	-0.481881
	16.410000	-0.485170
	16.415000	-0.636451
	16.420000	-0.626585
	16.425000	-0.472015
	16.430000	-0.472015
	16.435000	-0.626585
	16.440000	-0.623296
	16.445000	-0.462149
	16.450000	-0.468726
	16.455000	-0.616719
	16.460000	-0.610141
	16.465000	-0.455571
	16.470000	-0.458860
	16.475000	-0.613430
	16.480000	-0.610141
	16.485000	-0.455571
	16.490000	-0.462149
	16.495000	-0.616719
	16.500000	-0.610141
	16.505000	-0.462149
	16.510000	-0.465438
	16.515000	-0.616719
	16.520000	-0.613430
	16.525000	-0.458860
	16.530000	-0.465438
	16.535000	-0.616719
	16.540000	-0.613430
	16.545000	-0.458860
	16.550000	-0.462149
	16.555000	-0.613430
	16.560000	-0.610141
	16.565000	-0.452283
	16.570000	-0.455571
	16.575000	-0.610141
	16.580000	-0.603564
	16.585000	-0.445705
	16.590000	-0.448994
	16.595000	-0.603564
	16.600000	-0.600275
	16.605000	-0.445705
	16.610000	-0.442417
	16.615000	-0.596987
	16.620000	-0.596987
	16.625000	-0.439128
	16.630000	-0.442417
	16.635000	-0.603564
	16.640000	-0.593698
	16.645000	-0.442417
	16.650000	-0.448994
	16.655000	-0.600275
	16.660000	-0.596987
	16.665000	-0.448994
	16.670000	-0.445705
	16.675000	-0.606853
	16.680000	-0.603564
	16.685000	-0.448994
	16.690000	-0.452283
	16.695000	-0.610141
	16.700000	-0.610141
	16.705000	-0.452283
	16.710000	-0.455571
	16.715000	-0.613430
	16.720000	-0.606853
	16.725000	-0.452283
	16.730000	-0.462149
	16.735000	-0.616719
	16.740000	-0.610141
	16.745000	-0.455571
	16.750000	-0.455571
	16.755000	-0.610141
	16.760000	-0.606853
	16.765000	-0.455571
	16.770000	-0.458860
	16.775000	-0.613430
	16.780000	-0.603564
	16.785000	-0.455571
	16.790000	-0.458860
	16.795000	-0.613430
	16.800000	-0.606853
	16.805000	-0.448994
	16.810000	-0.458860
	16.815000	-0.613430
	16.820000	-0.610141
	16.825000	-0.455571
	16.830000	-0.455571
	16.835000	-0.613430
	16.840000	-0.606853
	16.845000	-0.448994
	16.850000	-0.458860
	16.855000	-0.606853
	16.860000	-0.606853
	16.865000	-0.448994
	16.870000	-0.452283
	16.875000	-0.610141
	16.880000	-0.606853
	16.885000	-0.448994
	16.890000	-0.452283
	16.895000	-0.606853
	16.900000	-0.596987
	16.905000	-0.442417
	16.910000	-0.448994
	16.915000	-0.603564
	16.920000	-0.603564
	16.925000	-0.448994
	16.930000	-0.448994
	16.935000	-0.603564
	16.940000	-0.600275
	16.945000	-0.448994
	16.950000	-0.448994
	16.955000	-0.606853
	16.960000	-0.600275
	16.965000	-0.448994
	16.970000	-0.452283
	16.975000	-0.606853
	16.980000	-0.603564
	16.985000	-0.448994
	16.990000	-0.448994
	16.995000	-0.606853
	17.000000	-0.603564
	17.005000	-0.445705
	17.010000	-0.448994
	17.015000	-0.606853
	17.020000	-0.603564
	17.025000	-0.448994
	17.030000	-0.448994
	17.035000	-0.606853
	17.040000	-0.606853
	17.045000	-0.448994
	17.050000	-0.448994
	17.055000	-0.606853
	17.060000	-0.600275
	17.065000	-0.448994
	17.070000	-0.448994
	17.075000	-0.610141
	17.080000	-0.603564
	17.085000	-0.448994
	17.090000	-0.452283
	17.095000	-0.606853
	17.100000	-0.603564
	17.105000	-0.448994
	17.110000	-0.452283
	17.115000	-0.610141
	17.120000	-0.606853
	17.125000	-0.448994
	17.130000	-0.452283
	17.135000	-0.606853
	17.140000	-0.603564
	17.145000	-0.452283
	17.150000	-0.448994
	17.155000	-0.606853
	17.160000	-0.603564
	17.165000	-0.445705
	17.170000	-0.455571
	17.175000	-0.603564
	17.180000	-0.603564
	17.185000	-0.448994
	17.190000	-0.452283
	17.195000	-0.606853
	17.200000	-0.606853
	17.205000	-0.448994
	17.210000	-0.452283
	17.215000	-0.600275
	17.220000	-0.603564
	17.225000	-0.448994
	17.230000	-0.455571
	17.235000	-0.606853
	17.240000	-0.596987
	17.245000	-0.442417
	17.250000	-0.448994
	17.255000	-0.603564
	17.260000	-0.600275
	17.265000	-0.445705
	17.270000	-0.448994
	17.275000	-0.600275
	17.280000	-0.600275
	17.285000	-0.445705
	17.290000	-0.448994
	17.295000	-0.606853
	17.300000	-0.596987
	17.305000	-0.448994
	17.310000	-0.448994
	17.315000	-0.606853
	17.320000	-0.603564
	17.325000	-0.448994
	17.330000	-0.452283
	17.335000	-0.606853
	17.340000	-0.603564
	17.345000	-0.448994
	17.350000	-0.448994
	17.355000	-0.603564
	17.360000	-0.606853
	17.365000	-0.448994
	17.370000	-0.448994
	17.375000	-0.606853
	17.380000	-0.600275
	17.385000	-0.445705
	17.390000	-0.448994
	17.395000	-0.606853
	17.400000	-0.600275
	17.405000	-0.448994
	17.410000	-0.445705
	17.415000	-0.603564
	17.420000	-0.600275
	17.425000	-0.448994
	17.430000	-0.448994
	17.435000	-0.603564
	17.440000	-0.600275
	17.445000	-0.448994
	17.450000	-0.448994
	17.455000	-0.603564
	17.460000	-0.596987
	17.465000	-0.445705
	17.470000	-0.448994
	17.475000	-0.603564
	17.480000	-0.603564
	17.485000	-0.445705
	17.490000	-0.448994
	17.495000	-0.606853
	17.500000	-0.596987
	17.505000	-0.448994
	17.510000	-0.452283
	17.515000	-0.603564
	17.520000	-0.603564
	17.525000	-0.448994
	17.530000	-0.445705
	17.535000	-0.603564
	17.540000	-0.603564
	17.545000	-0.445705
	17.550000	-0.448994
	17.555000	-0.606853
	17.560000	-0.603564
	17.565000	-0.448994
	17.570000	-0.448994
	17.575000	-0.600275
	17.580000	-0.600275
	17.585000	-0.445705
	17.590000	-0.445705
	17.595000	-0.600275
	17.600000	-0.596987
	17.605000	-0.442417
	17.610000	-0.445705
	17.615000	-0.603564
	17.620000	-0.600275
	17.625000	-0.448994
	17.630000	-0.448994
	17.635000	-0.603564
	17.640000	-0.600275
	17.645000	-0.442417
	17.650000	-0.452283
	17.655000	-0.603564
	17.660000	-0.596987
	17.665000	-0.448994
	17.670000	-0.448994
	17.675000	-0.600275
	17.680000	-0.600275
	17.685000	-0.445705
	17.690000	-0.445705
	17.695000	-0.596987
	17.700000	-0.600275
	17.705000	-0.445705
	17.710000	-0.445705
	17.715000	-0.596987
	17.720000	-0.596987
	17.725000	-0.442417
	17.730000	-0.445705
	17.735000	-0.600275
	17.740000	-0.593698
	17.745000	-0.442417
	17.750000	-0.442417
	17.755000	-0.603564
	17.760000	-0.603564
	17.765000	-0.452283
	17.770000	-0.445705
	17.775000	-0.600275
	17.780000	-0.600275
	17.785000	-0.448994
	17.790000	-0.445705
	17.795000	-0.603564
	17.800000	-0.603564
	17.805000	-0.442417
	17.810000	-0.448994
	17.815000	-0.596987
	17.820000	-0.600275
	17.825000	-0.442417
	17.830000	-0.442417
	17.835000	-0.600275
	17.840000	-0.593698
	17.845000	-0.439128
	17.850000	-0.439128
	17.855000	-0.596987
	17.860000	-0.600275
	17.865000	-0.442417
	17.870000	-0.442417
	17.875000	-0.596987
	17.880000	-0.596987
	17.885000	-0.442417
	17.890000	-0.445705
	17.895000	-0.603564
	17.900000	-0.600275
	17.905000	-0.452283
	17.910000	-0.448994
	17.915000	-0.603564
	17.920000	-0.603564
	17.925000	-0.448994
	17.930000	-0.448994
	17.935000	-0.606853
	17.940000	-0.603564
	17.945000	-0.452283
	17.950000	-0.452283
	17.955000	-0.606853
	17.960000	-0.600275
	17.965000	-0.448994
	17.970000	-0.442417
	17.975000	-0.603564
	17.980000	-0.596987
	17.985000	-0.442417
	17.990000	-0.445705
	17.995000	-0.596987
	18.000000	-0.596987
	18.005000	-0.439128
	18.010000	-0.439128
	18.015000	-0.596987
	18.020000	-0.596987
	18.025000	-0.435839
	18.030000	-0.435839
	18.035000	-0.593698
	18.040000	-0.593698
	18.045000	-0.439128
	18.050000	-0.442417
	18.055000	-0.596987
	18.060000	-0.596987
	18.065000	-0.442417
	18.070000	-0.445705
	18.075000	-0.603564
	18.080000	-0.603564
	18.085000	-0.448994
	18.090000	-0.448994
	18.095000	-0.603564
	18.100000	-0.606853
	18.105000	-0.448994
	18.110000	-0.452283
	18.115000	-0.603564
	18.120000	-0.603564
	18.125000	-0.448994
	18.130000	-0.448994
	18.135000	-0.610141
	18.140000	-0.606853
	18.145000	-0.448994
	18.150000	-0.448994
	18.155000	-0.606853
	18.160000	-0.600275
	18.165000	-0.445705
	18.170000	-0.442417
	18.175000	-0.596987
	18.180000	-0.600275
	18.185000	-0.442417
	18.190000	-0.439128
	18.195000	-0.600275
	18.200000	-0.596987
	18.205000	-0.448994
	18.210000	-0.445705
	18.215000	-0.603564
	18.220000	-0.600275
	18.225000	-0.445705
	18.230000	-0.445705
	18.235000	-0.603564
	18.240000	-0.600275
	18.245000	-0.442417
	18.250000	-0.445705
	18.255000	-0.600275
	18.260000	-0.600275
	18.265000	-0.442417
	18.270000	-0.442417
	18.275000	-0.600275
	18.280000	-0.600275
	18.285000	-0.445705
	18.290000	-0.442417
	18.295000	-0.600275
	18.300000	-0.600275
	18.305000	-0.445705
	18.310000	-0.445705
	18.315000	-0.596987
	18.320000	-0.596987
	18.325000	-0.442417
	18.330000	-0.439128
	18.335000	-0.596987
	18.340000	-0.596987
	18.345000	-0.435839
	18.350000	-0.439128
	18.355000	-0.593698
	18.360000	-0.590409
	18.365000	-0.435839
	18.370000	-0.435839
	18.375000	-0.587120
	18.380000	-0.583832
	18.385000	-0.429262
	18.390000	-0.429262
	18.395000	-0.583832
	18.400000	-0.587120
	18.405000	-0.432550
	18.410000	-0.432550
	18.415000	-0.587120
	18.420000	-0.583832
	18.425000	-0.429262
	18.430000	-0.432550
	18.435000	-0.583832
	18.440000	-0.583832
	18.445000	-0.429262
	18.450000	-0.429262
	18.455000	-0.583832
	18.460000	-0.583832
	18.465000	-0.425973
	18.470000	-0.432550
	18.475000	-0.583832
	18.480000	-0.587120
	18.485000	-0.432550
	18.490000	-0.432550
	18.495000	-0.593698
	18.500000	-0.596987
	18.505000	-0.448994
	18.510000	-0.452283
	18.515000	-0.613430
	18.520000	-0.613430
	18.525000	-0.468726
	18.530000	-0.472015
	18.535000	-0.633162
	18.540000	-0.639740
	18.545000	-0.491747
	18.550000	-0.488459
	18.555000	-0.646317
	18.560000	-0.649606
	18.565000	-0.491747
	18.570000	-0.495036
	18.575000	-0.649606
	18.580000	-0.649606
	18.585000	-0.485170
	18.590000	-0.485170
	18.595000	-0.646317
	18.600000	-0.639740
	18.605000	-0.478592
	18.610000	-0.472015
	18.615000	-0.629874
	18.620000	-0.626585
	18.625000	-0.472015
	18.630000	-0.462149
	18.635000	-0.620008
	18.640000	-0.616719
	18.645000	-0.465438
	18.650000	-0.465438
	18.655000	-0.620008
	18.660000	-0.620008
	18.665000	-0.465438
	18.670000	-0.458860
	18.675000	-0.616719
	18.680000	-0.613430
	18.685000	-0.462149
	18.690000	-0.462149
	18.695000	-0.613430
	18.700000	-0.616719
	18.705000	-0.462149
	18.710000	-0.458860
	18.715000	-0.620008
	18.720000	-0.616719
	18.725000	-0.458860
	18.730000	-0.455571
	18.735000	-0.613430
	18.740000	-0.613430
	18.745000	-0.458860
	18.750000	-0.455571
	18.755000	-0.603564
	18.760000	-0.610141
	18.765000	-0.455571
	18.770000	-0.448994
	18.775000	-0.596987
	18.780000	-0.606853
	18.785000	-0.445705
	18.790000	-0.442417
	18.795000	-0.600275
	18.800000	-0.603564
	18.805000	-0.445705
	18.810000	-0.445705
	18.815000	-0.603564
	18.820000	-0.606853
	18.825000	-0.452283
	18.830000	-0.448994
	18.835000	-0.610141
	18.840000	-0.610141
	18.845000	-0.455571
	18.850000	-0.455571
	18.855000	-0.613430
	18.860000	-0.613430
	18.865000	-0.458860
	18.870000	-0.455571
	18.875000	-0.613430
	18.880000	-0.613430
	18.885000	-0.458860
	18.890000	-0.455571
	18.895000	-0.610141
	18.900000	-0.610141
	18.905000	-0.452283
	18.910000	-0.448994
	18.915000	-0.613430
	18.920000	-0.613430
	18.925000	-0.455571
	18.930000	-0.448994
	18.935000	-0.610141
	18.940000	-0.613430
	18.945000	-0.462149
	18.950000	-0.462149
	18.955000	-0.616719
	18.960000	-0.616719
	18.965000	-0.462149
	18.970000	-0.455571
	18.975000	-0.613430
	18.980000	-0.623296
	18.985000	-0.465438
	18.990000	-0.455571
	18.995000	-0.620008
	19.000000	-0.620008
	19.005000	-0.465438
	19.010000	-0.462149
	19.015000	-0.610141
	19.020000	-0.616719
	19.025000	-0.462149
	19.030000	-0.455571
	19.035000	-0.613430
	19.040000	-0.616719
	19.045000	-0.458860
	19.050000	-0.452283
	19.055000	-0.610141
	19.060000	-0.616719
	19.065000	-0.455571
	19.070000	-0.452283
	19.075000	-0.610141
	19.080000	-0.610141
	19.085000	-0.455571
	19.090000	-0.452283
	19.095000	-0.606853
	19.100000	-0.610141
	19.105000	-0.455571
	19.110000	-0.445705
	19.115000	-0.603564
	19.120000	-0.606853
	19.125000	-0.452283
	19.130000	-0.448994
	19.135000	-0.603564
	19.140000	-0.603564
	19.145000	-0.452283
	19.150000	-0.448994
	19.155000	-0.606853
	19.160000	-0.606853
	19.165000	-0.452283
	19.170000	-0.445705
	19.175000	-0.600275
	19.180000	-0.603564
	19.185000	-0.455571
	19.190000	-0.452283
	19.195000	-0.596987
	19.200000	-0.606853
	19.205000	-0.452283
	19.210000	-0.448994
	19.215000	-0.606853
	19.220000	-0.606853
	19.225000	-0.452283
	19.230000	-0.445705
	19.235000	-0.603564
	19.240000	-0.610141
	19.245000	-0.455571
	19.250000	-0.445705
	19.255000	-0.600275
	19.260000	-0.610141
	19.265000	-0.455571
	19.270000	-0.448994
	19.275000	-0.606853
	19.280000	-0.610141
	19.285000	-0.455571
	19.290000	-0.452283
	19.295000	-0.606853
	19.300000	-0.616719
	19.305000	-0.458860
	19.310000	-0.448994
	19.315000	-0.606853
	19.320000	-0.613430
	19.325000	-0.458860
	19.330000	-0.448994
	19.335000	-0.606853
	19.340000	-0.613430
	19.345000	-0.458860
	19.350000	-0.455571
	19.355000	-0.606853
	19.360000	-0.613430
	19.365000	-0.458860
	19.370000	-0.448994
	19.375000	-0.603564
	19.380000	-0.613430
	19.385000	-0.455571
	19.390000	-0.448994
	19.395000	-0.606853
	19.400000	-0.610141
	19.405000	-0.455571
	19.410000	-0.448994
	19.415000	-0.603564
	19.420000	-0.606853
	19.425000	-0.455571
	19.430000	-0.445705
	19.435000	-0.603564
	19.440000	-0.603564
	19.445000	-0.452283
	19.450000	-0.445705
	19.455000	-0.600275
	19.460000	-0.606853
	19.465000	-0.448994
	19.470000	-0.439128
	19.475000	-0.596987
	19.480000	-0.600275
	19.485000	-0.448994
	19.490000	-0.445705
	19.495000	-0.593698
	19.500000	-0.603564
	19.505000	-0.455571
	19.510000	-0.445705
	19.515000	-0.600275
	19.520000	-0.610141
	19.525000	-0.455571
	19.530000	-0.452283
	19.535000	-0.606853
	19.540000	-0.610141
	19.545000	-0.455571
	19.550000	-0.448994
	19.555000	-0.610141
	19.560000	-0.613430
	19.565000	-0.458860
	19.570000	-0.452283
	19.575000	-0.610141
	19.580000	-0.616719
	19.585000	-0.462149
	19.590000	-0.458860
	19.595000	-0.610141
	19.600000	-0.613430
	19.605000	-0.462149
	19.610000	-0.455571
	19.615000	-0.606853
	19.620000	-0.613430
	19.625000	-0.462149
	19.630000	-0.452283
	19.635000	-0.606853
	19.640000	-0.610141
	19.645000	-0.458860
	19.650000	-0.448994
	19.655000	-0.606853
	19.660000	-0.613430
	19.665000	-0.455571
	19.670000	-0.448994
	19.675000	-0.606853
	19.680000	-0.613430
	19.685000	-0.455571
	19.690000	-0.448994
	19.695000	-0.603564
	19.700000	-0.606853
	19.705000	-0.452283
	19.710000	-0.452283
	19.715000	-0.600275
	19.720000	-0.610141
	19.725000	-0.455571
	19.730000	-0.445705
	19.735000	-0.600275
	19.740000	-0.603564
	19.745000	-0.452283
	19.750000	-0.442417
	19.755000	-0.596987
	19.760000	-0.600275
	19.765000	-0.448994
	19.770000	-0.442417
	19.775000	-0.596987
	19.780000	-0.603564
	19.785000	-0.448994
	19.790000	-0.442417
	19.795000	-0.596987
	19.800000	-0.606853
	19.805000	-0.448994
	19.810000	-0.442417
	19.815000	-0.600275
	19.820000	-0.606853
	19.825000	-0.452283
	19.830000	-0.445705
	19.835000	-0.606853
	19.840000	-0.610141
	19.845000	-0.458860
	19.850000	-0.448994
	19.855000	-0.606853
	19.860000	-0.610141
	19.865000	-0.458860
	19.870000	-0.448994
	19.875000	-0.606853
	19.880000	-0.613430
	19.885000	-0.458860
	19.890000	-0.452283
	19.895000	-0.606853
	19.900000	-0.613430
	19.905000	-0.462149
	19.910000	-0.448994
	19.915000	-0.603564
	19.920000	-0.610141
	19.925000	-0.455571
	19.930000	-0.445705
	19.935000	-0.603564
	19.940000	-0.606853
	19.945000	-0.455571
	19.950000	-0.442417
	19.955000	-0.600275
	19.960000	-0.606853
	19.965000	-0.455571
	19.970000	-0.445705
	19.975000	-0.600275
	19.980000	-0.610141
	19.985000	-0.448994
	19.990000	-0.445705
	19.995000	-0.600275
	20.000000	-0.610141
	20.005000	-0.452283
	20.010000	-0.442417
	20.015000	-0.606853
	20.020000	-0.606853
	20.025000	-0.452283
	20.030000	-0.445705
	20.035000	-0.603564
	20.040000	-0.613430
	20.045000	-0.455571
	20.050000	-0.445705
	20.055000	-0.603564
	20.060000	-0.610141
	20.065000	-0.452283
	20.070000	-0.445705
	20.075000	-0.596987
	20.080000	-0.606853
	20.085000	-0.455571
	20.090000	-0.445705
	20.095000	-0.600275
	20.100000	-0.603564
	20.105000	-0.445705
	20.110000	-0.439128
	20.115000	-0.596987
	20.120000	-0.603564
	20.125000	-0.452283
	20.130000	-0.445705
	20.135000	-0.596987
	20.140000	-0.603564
	20.145000	-0.452283
	20.150000	-0.435839
	20.155000	-0.596987
	20.160000	-0.606853
	20.165000	-0.452283
	20.170000	-0.445705
	20.175000	-0.596987
	20.180000	-0.603564
	20.185000	-0.455571
	20.190000	-0.439128
	20.195000	-0.596987
	20.200000	-0.610141
	20.205000	-0.448994
	20.210000	-0.442417
	20.215000	-0.596987
	20.220000	-0.610141
	20.225000	-0.455571
	20.230000	-0.445705
	20.235000	-0.600275
	20.240000	-0.603564
	20.245000	-0.452283
	20.250000	-0.442417
	20.255000	-0.596987
	20.260000	-0.603564
	20.265000	-0.448994
	20.270000	-0.439128
	20.275000	-0.596987
	20.280000	-0.600275
	20.285000	-0.445705
	20.290000	-0.442417
	20.295000	-0.593698
	20.300000	-0.606853
	20.305000	-0.448994
	20.310000	-0.439128
	20.315000	-0.593698
	20.320000	-0.603564
	20.325000	-0.448994
	20.330000	-0.439128
	20.335000	-0.596987
	20.340000	-0.606853
	20.345000	-0.452283
	20.350000	-0.439128
	20.355000	-0.600275
	20.360000	-0.610141
	20.365000	-0.452283
	20.370000	-0.445705
	20.375000	-0.603564
	20.380000	-0.606853
	20.385000	-0.452283
	20.390000	-0.445705
	20.395000	-0.600275
	20.400000	-0.606853
	20.405000	-0.448994
	20.410000	-0.439128
	20.415000	-0.593698
	20.420000	-0.606853
	20.425000	-0.448994
	20.430000	-0.442417
	20.435000	-0.596987
	20.440000	-0.603564
	20.445000	-0.445705
	20.450000	-0.432550
	20.455000	-0.593698
	20.460000	-0.596987
	20.465000	-0.439128
	20.470000	-0.429262
	20.475000	-0.587120
	20.480000	-0.593698
	20.485000	-0.442417
	20.490000	-0.429262
	20.495000	-0.587120
	20.500000	-0.590409
	20.505000	-0.432550
	20.510000	-0.422684
	20.515000	-0.583832
	20.520000	-0.593698
	20.525000	-0.435839
	20.530000	-0.425973
	20.535000	-0.583832
	20.540000	-0.593698
	20.545000	-0.435839
	20.550000	-0.422684
	20.555000	-0.583832
	20.560000	-0.596987
	20.565000	-0.445705
	20.570000	-0.439128
	20.575000	-0.596987
	20.580000	-0.606853
	20.585000	-0.445705
	20.590000	-0.435839
	20.595000	-0.596987
	20.600000	-0.606853
	20.605000	-0.452283
	20.610000	-0.435839
	20.615000	-0.593698
	20.620000	-0.596987
	20.625000	-0.442417
	20.630000	-0.429262
	20.635000	-0.587120
	20.640000	-0.590409
	20.645000	-0.432550
	20.650000	-0.416107
	20.655000	-0.573965
	20.660000	-0.580543
	20.665000	-0.422684
	20.670000	-0.409529
	20.675000	-0.567388
	20.680000	-0.573965
	20.685000	-0.419395
	20.690000	-0.409529
	20.695000	-0.567388
	20.700000	-0.573965
	20.705000	-0.419395
	20.710000	-0.412818
	20.715000	-0.567388
	20.720000	-0.583832
	20.725000	-0.429262
	20.730000	-0.425973
	20.735000	-0.593698
	20.740000	-0.603564
	20.745000	-0.455571
	20.750000	-0.452283
	20.755000	-0.616719
	20.760000	-0.626585
	20.765000	-0.472015
	20.770000	-0.462149
	20.775000	-0.623296
	20.780000	-0.626585
	20.785000	-0.472015
	20.790000	-0.455571
	20.795000	-0.603564
	20.800000	-0.606853
	20.805000	-0.452283
	20.810000	-0.435839
	20.815000	-0.583832
	20.820000	-0.593698
	20.825000	-0.435839
	20.830000	-0.425973
	20.835000	-0.583832
	20.840000	-0.587120
	20.845000	-0.439128
	20.850000	-0.432550
	20.855000	-0.587120
	20.860000	-0.600275
	20.865000	-0.452283
	20.870000	-0.442417
	20.875000	-0.606853
	20.880000	-0.620008
	20.885000	-0.478592
	20.890000	-0.472015
	20.895000	-0.629874
	20.900000	-0.639740
	20.905000	-0.481881
	20.910000	-0.475304
	20.915000	-0.623296
	20.920000	-0.636451
	20.925000	-0.485170
	20.930000	-0.465438
	20.935000	-0.613430
	20.940000	-0.626585
	20.945000	-0.472015
	20.950000	-0.448994
	20.955000	-0.610141
	20.960000	-0.616719
	20.965000	-0.458860
	20.970000	-0.445705
	20.975000	-0.596987
	20.980000	-0.610141
	20.985000	-0.458860
	20.990000	-0.439128
	20.995000	-0.603564
	21.000000	-0.616719
	21.005000	-0.468726
	21.010000	-0.462149
	21.015000	-0.620008
	21.020000	-0.629874
	21.025000	-0.472015
	21.030000	-0.465438
	21.035000	-0.620008
	21.040000	-0.629874
	21.045000	-0.475304
	21.050000	-0.465438
	21.055000	-0.616719
	21.060000	-0.629874
	21.065000	-0.472015
	21.070000	-0.458860
	21.075000	-0.610141
	21.080000	-0.620008
	21.085000	-0.462149
	21.090000	-0.448994
	21.095000	-0.600275
	21.100000	-0.606853
	21.105000	-0.448994
	21.110000	-0.439128
	21.115000	-0.593698
	21.120000	-0.603564
	21.125000	-0.445705
	21.130000	-0.432550
	21.135000	-0.583832
	21.140000	-0.600275
	21.145000	-0.448994
	21.150000	-0.439128
	21.155000	-0.593698
	21.160000	-0.610141
	21.165000	-0.458860
	21.170000	-0.445705
	21.175000	-0.603564
	21.180000	-0.616719
	21.185000	-0.468726
	21.190000	-0.455571
	21.195000	-0.613430
	21.200000	-0.623296
	21.205000	-0.468726
	21.210000	-0.455571
	21.215000	-0.610141
	21.220000	-0.623296
	21.225000	-0.468726
	21.230000	-0.452283
	21.235000	-0.603564
	21.240000	-0.616719
	21.245000	-0.465438
	21.250000	-0.448994
	21.255000	-0.603564
	21.260000	-0.616719
	21.265000	-0.458860
	21.270000	-0.445705
	21.275000	-0.596987
	21.280000	-0.610141
	21.285000	-0.455571
	21.290000	-0.442417
	21.295000	-0.603564
	21.300000	-0.610141
	21.305000	-0.462149
	21.310000	-0.445705
	21.315000	-0.600275
	21.320000	-0.613430
	21.325000	-0.458860
	21.330000	-0.445705
	21.335000	-0.600275
	21.340000	-0.613430
	21.345000	-0.462149
	21.350000	-0.442417
	21.355000	-0.603564
	21.360000	-0.610141
	21.365000	-0.455571
	21.370000	-0.445705
	21.375000	-0.596987
	21.380000	-0.610141
	21.385000	-0.452283
	21.390000	-0.442417
	21.395000	-0.593698
	21.400000	-0.600275
	21.405000	-0.452283
	21.410000	-0.439128
	21.415000	-0.593698
	21.420000	-0.606853
	21.425000	-0.452283
	21.430000	-0.439128
	21.435000	-0.593698
	21.440000	-0.610141
	21.445000	-0.455571
	21.450000	-0.442417
	21.455000	-0.593698
	21.460000	-0.616719
	21.465000	-0.455571
	21.470000	-0.442417
	21.475000	-0.600275
	21.480000	-0.613430
	21.485000	-0.462149
	21.490000	-0.445705
	21.495000	-0.600275
	21.500000	-0.616719
	21.505000	-0.462149
	21.510000	-0.445705
	21.515000	-0.600275
	21.520000	-0.616719
	21.525000	-0.458860
	21.530000	-0.442417
	21.535000	-0.596987
	21.540000	-0.613430
	21.545000	-0.458860
	21.550000	-0.442417
	21.555000	-0.593698
	21.560000	-0.606853
	21.565000	-0.455571
	21.570000	-0.442417
	21.575000	-0.596987
	21.580000	-0.606853
	21.585000	-0.452283
	21.590000	-0.439128
	21.595000	-0.593698
	21.600000	-0.606853
	21.605000	-0.455571
	21.610000	-0.442417
	21.615000	-0.596987
	21.620000	-0.610141
	21.625000	-0.455571
	21.630000	-0.448994
	21.635000	-0.596987
	21.640000	-0.610141
	21.645000	-0.458860
	21.650000	-0.442417
	21.655000	-0.600275
	21.660000	-0.613430
	21.665000	-0.458860
	21.670000	-0.445705
	21.675000	-0.596987
	21.680000	-0.616719
	21.685000	-0.458860
	21.690000	-0.445705
	21.695000	-0.593698
	21.700000	-0.616719
	21.705000	-0.458860
	21.710000	-0.442417
	21.715000	-0.600275
	21.720000	-0.613430
	21.725000	-0.458860
	21.730000	-0.442417
	21.735000	-0.596987
	21.740000	-0.613430
	21.745000	-0.455571
	21.750000	-0.442417
	21.755000	-0.593698
	21.760000	-0.610141
	21.765000	-0.458860
	21.770000	-0.439128
	21.775000	-0.593698
	21.780000	-0.606853
	21.785000	-0.458860
	21.790000	-0.439128
	21.795000	-0.596987
	21.800000	-0.610141
	21.805000	-0.452283
	21.810000	-0.439128
	21.815000	-0.593698
	21.820000	-0.606853
	21.825000	-0.455571
	21.830000	-0.439128
	21.835000	-0.593698
	21.840000	-0.606853
	21.845000	-0.455571
	21.850000	-0.439128
	21.855000	-0.596987
	21.860000	-0.606853
	21.865000	-0.455571
	21.870000	-0.435839
	21.875000	-0.593698
	21.880000	-0.606853
	21.885000	-0.452283
	21.890000	-0.435839
	21.895000	-0.590409
	21.900000	-0.610141
	21.905000	-0.455571
	21.910000	-0.442417
	21.915000	-0.593698
	21.920000	-0.610141
	21.925000	-0.458860
	21.930000	-0.442417
	21.935000	-0.596987
	21.940000	-0.610141
	21.945000	-0.455571
	21.950000	-0.442417
	21.955000	-0.596987
	21.960000	-0.606853
	21.965000	-0.458860
	21.970000	-0.435839
	21.975000	-0.593698
	21.980000	-0.613430
	21.985000	-0.455571
	21.990000	-0.442417
	21.995000	-0.590409
	22.000000	-0.610141
	22.005000	-0.455571
	22.010000	-0.435839
	22.015000	-0.596987
	22.020000	-0.606853
	22.025000	-0.452283
	22.030000	-0.435839
	22.035000	-0.590409
	22.040000	-0.603564
	22.045000	-0.452283
	22.050000	-0.435839
	22.055000	-0.590409
	22.060000	-0.606853
	22.065000	-0.448994
	22.070000	-0.435839
	22.075000	-0.590409
	22.080000	-0.613430
	22.085000	-0.452283
	22.090000	-0.435839
	22.095000	-0.593698
	22.100000	-0.603564
	22.105000	-0.452283
	22.110000	-0.435839
	22.115000	-0.590409
	22.120000	-0.606853
	22.125000	-0.452283
	22.130000	-0.435839
	22.135000	-0.590409
	22.140000	-0.606853
	22.145000	-0.452283
	22.150000	-0.432550
	22.155000	-0.590409
	22.160000	-0.603564
	22.165000	-0.452283
	22.170000	-0.435839
	22.175000	-0.593698
	22.180000	-0.603564
	22.185000	-0.448994
	22.190000	-0.432550
	22.195000	-0.590409
	22.200000	-0.606853
	22.205000	-0.452283
	22.210000	-0.439128
	22.215000	-0.593698
	22.220000	-0.606853
	22.225000	-0.455571
	22.230000	-0.435839
	22.235000	-0.590409
	22.240000	-0.610141
	22.245000	-0.455571
	22.250000	-0.432550
	22.255000	-0.593698
	22.260000	-0.613430
	22.265000	-0.455571
	22.270000	-0.435839
	22.275000	-0.593698
	22.280000	-0.610141
	22.285000	-0.455571
	22.290000	-0.439128
	22.295000	-0.593698
	22.300000	-0.610141
	22.305000	-0.455571
	22.310000	-0.439128
	22.315000	-0.596987
	22.320000	-0.610141
	22.325000	-0.455571
	22.330000	-0.439128
	22.335000	-0.596987
	22.340000	-0.613430
	22.345000	-0.455571
	22.350000	-0.435839
	22.355000	-0.593698
	22.360000	-0.610141
	22.365000	-0.455571
	22.370000	-0.439128
	22.375000	-0.593698
	22.380000	-0.603564
	22.385000	-0.452283
	22.390000	-0.435839
	22.395000	-0.587120
	22.400000	-0.600275
	22.405000	-0.445705
	22.410000	-0.429262
	22.415000	-0.580543
	22.420000	-0.590409
	22.425000	-0.439128
	22.430000	-0.422684
	22.435000	-0.577254
	22.440000	-0.590409
	22.445000	-0.432550
	22.450000	-0.416107
	22.455000	-0.573965
	22.460000	-0.583832
	22.465000	-0.429262
	22.470000	-0.416107
	22.475000	-0.577254
	22.480000	-0.590409
	22.485000	-0.435839
	22.490000	-0.422684
	22.495000	-0.583832
	22.500000	-0.606853
	22.505000	-0.452283
	22.510000	-0.439128
	22.515000	-0.596987
	22.520000	-0.620008
	22.525000	-0.462149
	22.530000	-0.448994
	22.535000	-0.610141
	22.540000	-0.620008
	22.545000	-0.462149
	22.550000	-0.448994
	22.555000	-0.606853
	22.560000	-0.623296
	22.565000	-0.462149
	22.570000	-0.445705
	22.575000	-0.603564
	22.580000	-0.613430
	22.585000	-0.455571
	22.590000	-0.439128
	22.595000	-0.590409
	22.600000	-0.610141
	22.605000	-0.445705
	22.610000	-0.429262
	22.615000	-0.577254
	22.620000	-0.600275
	22.625000	-0.442417
	22.630000	-0.419395
	22.635000	-0.573965
	22.640000	-0.590409
	22.645000	-0.432550
	22.650000	-0.422684
	22.655000	-0.577254
	22.660000	-0.590409
	22.665000	-0.435839
	22.670000	-0.416107
	22.675000	-0.570677
	22.680000	-0.590409
	22.685000	-0.435839
	22.690000	-0.416107
	22.695000	-0.577254
	22.700000	-0.593698
	22.705000	-0.435839
	22.710000	-0.422684
	22.715000	-0.577254
	22.720000	-0.590409
	22.725000	-0.435839
	22.730000	-0.422684
	22.735000	-0.577254
	22.740000	-0.590409
	22.745000	-0.439128
	22.750000	-0.422684
	22.755000	-0.577254
	22.760000	-0.593698
	22.765000	-0.439128
	22.770000	-0.419395
	22.775000	-0.580543
	22.780000	-0.596987
	22.785000	-0.442417
	22.790000	-0.429262
	22.795000	-0.587120
	22.800000	-0.603564
	22.805000	-0.448994
	22.810000	-0.439128
	22.815000	-0.596987
	22.820000	-0.616719
	22.825000	-0.458860
	22.830000	-0.448994
	22.835000	-0.606853
	22.840000	-0.620008
	22.845000	-0.465438
	22.850000	-0.452283
	22.855000	-0.600275
	22.860000	-0.613430
	22.865000	-0.458860
	22.870000	-0.442417
	22.875000	-0.593698
	22.880000	-0.606853
	22.885000	-0.448994
	22.890000	-0.432550
	22.895000	-0.587120
	22.900000	-0.606853
	22.905000	-0.448994
	22.910000	-0.429262
	22.915000	-0.583832
	22.920000	-0.603564
	22.925000	-0.452283
	22.930000	-0.435839
	22.935000	-0.596987
	22.940000	-0.610141
	22.945000	-0.462149
	22.950000	-0.445705
	22.955000	-0.606853
	22.960000	-0.623296
	22.965000	-0.472015
	22.970000	-0.455571
	22.975000	-0.613430
	22.980000	-0.629874
	22.985000	-0.478592
	22.990000	-0.462149
	22.995000	-0.616719
	23.000000	-0.633162
	23.005000	-0.475304
	23.010000	-0.455571
	23.015000	-0.610141
	23.020000	-0.626585
	23.025000	-0.468726
	23.030000	-0.448994
	23.035000	-0.600275
	23.040000	-0.616719
	23.045000	-0.458860
	23.050000	-0.435839
	23.055000	-0.590409
	23.060000	-0.606853
	23.065000	-0.452283
	23.070000	-0.429262
	23.075000	-0.583832
	23.080000	-0.596987
	23.085000	-0.448994
	23.090000	-0.429262
	23.095000	-0.583832
	23.100000	-0.600275
	23.105000	-0.445705
	23.110000	-0.435839
	23.115000	-0.583832
	23.120000	-0.603564
	23.125000	-0.452283
	23.130000	-0.435839
	23.135000	-0.590409
	23.140000	-0.610141
	23.145000	-0.455571
	23.150000	-0.439128
	23.155000	-0.590409
	23.160000	-0.610141
	23.165000	-0.452283
	23.170000	-0.435839
	23.175000	-0.587120
	23.180000	-0.603564
	23.185000	-0.452283
	23.190000	-0.435839
	23.195000	-0.590409
	23.200000	-0.603564
	23.205000	-0.452283
	23.210000	-0.432550
	23.215000	-0.583832
	23.220000	-0.603564
	23.225000	-0.455571
	23.230000	-0.432550
	23.235000	-0.590409
	23.240000	-0.610141
	23.245000	-0.455571
	23.250000	-0.439128
	23.255000	-0.587120
	23.260000	-0.610141
	23.265000	-0.455571
	23.270000	-0.439128
	23.275000	-0.593698
	23.280000	-0.613430
	23.285000	-0.458860
	23.290000	-0.442417
	23.295000	-0.596987
	23.300000	-0.610141
	23.305000	-0.458860
	23.310000	-0.435839
	23.315000	-0.590409
	23.320000	-0.606853
	23.325000	-0.452283
	23.330000	-0.432550
	23.335000	-0.587120
	23.340000	-0.603564
	23.345000	-0.448994
	23.350000	-0.432550
	23.355000	-0.587120
	23.360000	-0.600275
	23.365000	-0.448994
	23.370000	-0.429262
	23.375000	-0.587120
	23.380000	-0.596987
	23.385000	-0.448994
	23.390000	-0.432550
	23.395000	-0.587120
	23.400000	-0.603564
	23.405000	-0.455571
	23.410000	-0.432550
	23.415000	-0.590409
	23.420000	-0.603564
	23.425000	-0.452283
	23.430000	-0.435839
	23.435000	-0.590409
	23.440000	-0.603564
	23.445000	-0.452283
	23.450000	-0.435839
	23.455000	-0.583832
	23.460000	-0.596987
	23.465000	-0.448994
	23.470000	-0.429262
	23.475000	-0.580543
	23.480000	-0.603564
	23.485000	-0.448994
	23.490000	-0.429262
	23.495000	-0.583832
	23.500000	-0.603564
	23.505000	-0.448994
	23.510000	-0.429262
	23.515000	-0.580543
	23.520000	-0.603564
	23.525000	-0.445705
	23.530000	-0.432550
	23.535000	-0.587120
	23.540000	-0.603564
	23.545000	-0.448994
	23.550000	-0.432550
	23.555000	-0.583832
	23.560000	-0.603564
	23.565000	-0.452283
	23.570000	-0.435839
	23.575000	-0.587120
	23.580000	-0.603564
	23.585000	-0.445705
	23.590000	-0.429262
	23.595000	-0.583832
	23.600000	-0.603564
	23.605000	-0.448994
	23.610000	-0.429262
	23.615000	-0.580543
	23.620000	-0.606853
	23.625000	-0.445705
	23.630000	-0.429262
	23.635000	-0.587120
	23.640000	-0.600275
	23.645000	-0.445705
	23.650000	-0.429262
	23.655000	-0.587120
	23.660000	-0.603564
	23.665000	-0.445705
	23.670000	-0.429262
	23.675000	-0.583832
	23.680000	-0.603564
	23.685000	-0.448994
	23.690000	-0.429262
	23.695000	-0.583832
	23.700000	-0.606853
	23.705000	-0.452283
	23.710000	-0.429262
	23.715000	-0.590409
	23.720000	-0.600275
	23.725000	-0.455571
	23.730000	-0.432550
	23.735000	-0.583832
	23.740000	-0.603564
	23.745000	-0.455571
	23.750000	-0.429262
	23.755000	-0.587120
	23.760000	-0.603564
	23.765000	-0.445705
	23.770000	-0.432550
	23.775000	-0.583832
	23.780000	-0.596987
	23.785000	-0.448994
	23.790000	-0.432550
	23.795000	-0.587120
	23.800000	-0.596987
	23.805000	-0.445705
	23.810000	-0.425973
	23.815000	-0.590409
	23.820000	-0.596987
	23.825000	-0.442417
	23.830000	-0.425973
	23.835000	-0.580543
	23.840000	-0.596987
	23.845000	-0.442417
	23.850000	-0.425973
	23.855000	-0.583832
	23.860000	-0.596987
	23.865000	-0.445705
	23.870000	-0.425973
	23.875000	-0.583832
	23.880000	-0.596987
	23.885000	-0.445705
	23.890000	-0.425973
	23.895000	-0.580543
	23.900000	-0.600275
	23.905000	-0.448994
	23.910000	-0.425973
	23.915000	-0.587120
	23.920000	-0.600275
	23.925000	-0.448994
	23.930000	-0.425973
	23.935000	-0.577254
	23.940000	-0.596987
	23.945000	-0.445705
	23.950000	-0.429262
	23.955000	-0.580543
	23.960000	-0.600275
	23.965000	-0.448994
	23.970000	-0.432550
	23.975000	-0.583832
	23.980000	-0.596987
	23.985000	-0.448994
	23.990000	-0.425973
	23.995000	-0.580543
	24.000000	-0.603564
	24.005000	-0.445705
	24.010000	-0.425973
	24.015000	-0.587120
	24.020000	-0.600275
	24.025000	-0.442417
	24.030000	-0.429262
	24.035000	-0.580543
	24.040000	-0.596987
	24.045000	-0.448994
	24.050000	-0.429262
	24.055000	-0.580543
	24.060000	-0.600275
	24.065000	-0.445705
	24.070000	-0.429262
	24.075000	-0.583832
	24.080000	-0.600275
	24.085000	-0.452283
	24.090000	-0.429262
	24.095000	-0.583832
	24.100000	-0.596987
	24.105000	-0.448994
	24.110000	-0.429262
	24.115000	-0.580543
	24.120000	-0.600275
	24.125000	-0.452283
	24.130000	-0.425973
	24.135000	-0.580543
	24.140000	-0.600275
	24.145000	-0.452283
	24.150000	-0.425973
	24.155000	-0.583832
	24.160000	-0.603564
	24.165000	-0.448994
	24.170000	-0.429262
	24.175000	-0.577254
	24.180000	-0.600275
	24.185000	-0.445705
	24.190000	-0.422684
	24.195000	-0.587120
	24.200000	-0.600275
	24.205000	-0.452283
	24.210000	-0.425973
	24.215000	-0.583832
	24.220000	-0.600275
	24.225000	-0.445705
	24.230000	-0.425973
	24.235000	-0.583832
	24.240000	-0.600275
	24.245000	-0.445705
	24.250000	-0.425973
	24.255000	-0.583832
	24.260000	-0.596987
	24.265000	-0.448994
	24.270000	-0.422684
	24.275000	-0.583832
	24.280000	-0.600275
	24.285000	-0.455571
	24.290000	-0.425973
	24.295000	-0.580543
	24.300000	-0.603564
	24.305000	-0.448994
	24.310000	-0.425973
	24.315000	-0.580543
	24.320000	-0.600275
	24.325000	-0.442417
	24.330000	-0.425973
	24.335000	-0.580543
	24.340000	-0.600275
	24.345000	-0.445705
	24.350000	-0.422684
	24.355000	-0.577254
	24.360000	-0.600275
	24.365000	-0.448994
	24.370000	-0.429262
	24.375000	-0.577254
	24.380000	-0.600275
	24.385000	-0.445705
	24.390000	-0.425973
	24.395000	-0.580543
	24.400000	-0.600275
	24.405000	-0.445705
	24.410000	-0.429262
	24.415000	-0.577254
	24.420000	-0.600275
	24.425000	-0.445705
	24.430000	-0.425973
	24.435000	-0.573965
	24.440000	-0.600275
	24.445000	-0.445705
	24.450000	-0.425973
	24.455000	-0.580543
	24.460000	-0.600275
	24.465000	-0.445705
	24.470000	-0.425973
	24.475000	-0.583832
	24.480000	-0.606853
	24.485000	-0.445705
	24.490000	-0.429262
	24.495000	-0.583832
	24.500000	-0.603564
	24.505000	-0.448994
	24.510000	-0.429262
	24.515000	-0.590409
	24.520000	-0.610141
	24.525000	-0.452283
	24.530000	-0.432550
	24.535000	-0.587120
	24.540000	-0.600275
	24.545000	-0.448994
	24.550000	-0.429262
	24.555000	-0.583832
	24.560000	-0.600275
	24.565000	-0.445705
	24.570000	-0.422684
	24.575000	-0.577254
	24.580000	-0.600275
	24.585000	-0.442417
	24.590000	-0.419395
	24.595000	-0.577254
	24.600000	-0.593698
	24.605000	-0.445705
	24.610000	-0.422684
	24.615000	-0.577254
	24.620000	-0.593698
	24.625000	-0.442417
	24.630000	-0.422684
	24.635000	-0.580543
	24.640000	-0.600275
	24.645000	-0.442417
	24.650000	-0.429262
	24.655000	-0.580543
	24.660000	-0.603564
	24.665000	-0.445705
	24.670000	-0.425973
	24.675000	-0.580543
	24.680000	-0.600275
	24.685000	-0.445705
	24.690000	-0.429262
	24.695000	-0.583832
	24.700000	-0.603564
	24.705000	-0.448994
	24.710000	-0.429262
	24.715000	-0.587120
	24.720000	-0.606853
	24.725000	-0.445705
	24.730000	-0.425973
	24.735000	-0.583832
	24.740000	-0.600275
	24.745000	-0.448994
	24.750000	-0.429262
	24.755000	-0.587120
	24.760000	-0.610141
	24.765000	-0.455571
	24.770000	-0.432550
	24.775000	-0.590409
	24.780000	-0.613430
	24.785000	-0.452283
	24.790000	-0.435839
	24.795000	-0.593698
	24.800000	-0.613430
	24.805000	-0.452283
	24.810000	-0.435839
	24.815000	-0.587120
	24.820000	-0.610141
	24.825000	-0.448994
	24.830000	-0.425973
	24.835000	-0.583832
	24.840000	-0.600275
	24.845000	-0.442417
	24.850000	-0.422684
	24.855000	-0.580543
	24.860000	-0.593698
	24.865000	-0.432550
	24.870000	-0.416107
	24.875000	-0.567388
	24.880000	-0.583832
	24.885000	-0.425973
	24.890000	-0.406241
	24.895000	-0.560811
	24.900000	-0.580543
	24.905000	-0.422684
	24.910000	-0.402952
	24.915000	-0.560811
	24.920000	-0.570677
	24.925000	-0.419395
	24.930000	-0.406241
	24.935000	-0.560811
	24.940000	-0.580543
	24.945000	-0.432550
	24.950000	-0.409529
	24.955000	-0.567388
	24.960000	-0.587120
	24.965000	-0.432550
	24.970000	-0.409529
	24.975000	-0.573965
	24.980000	-0.590409
	24.985000	-0.439128
	24.990000	-0.419395
	24.995000	-0.573965
	25.000000	-0.590409
	25.005000	-0.435839
	25.010000	-0.416107
	25.015000	-0.567388
	25.020000	-0.580543
	25.025000	-0.425973
	25.030000	-0.402952
	25.035000	-0.560811
	25.040000	-0.580543
	25.045000	-0.425973
	25.050000	-0.406241
	25.055000	-0.564099
	25.060000	-0.583832
	25.065000	-0.435839
	25.070000	-0.422684
	25.075000	-0.583832
	25.080000	-0.603564
	25.085000	-0.452283
	25.090000	-0.435839
	25.095000	-0.596987
	25.100000	-0.620008
	25.105000	-0.465438
	25.110000	-0.448994
	25.115000	-0.600275
	25.120000	-0.626585
	25.125000	-0.472015
	25.130000	-0.448994
	25.135000	-0.600275
	25.140000	-0.620008
	25.145000	-0.468726
	25.150000	-0.445705
	25.155000	-0.600275
	25.160000	-0.616719
	25.165000	-0.462149
	25.170000	-0.439128
	25.175000	-0.593698
	25.180000	-0.613430
	25.185000	-0.458860
	25.190000	-0.442417
	25.195000	-0.596987
	25.200000	-0.613430
	25.205000	-0.458860
	25.210000	-0.445705
	25.215000	-0.600275
	25.220000	-0.620008
	25.225000	-0.465438
	25.230000	-0.448994
	25.235000	-0.593698
	25.240000	-0.620008
	25.245000	-0.465438
	25.250000	-0.442417
	25.255000	-0.596987
	25.260000	-0.620008
	25.265000	-0.462149
	25.270000	-0.439128
	25.275000	-0.590409
	25.280000	-0.610141
	25.285000	-0.455571
	25.290000	-0.429262
	25.295000	-0.580543
	25.300000	-0.603564
	25.305000	-0.442417
	25.310000	-0.419395
	25.315000	-0.573965
	25.320000	-0.590409
	25.325000	-0.439128
	25.330000	-0.409529
	25.335000	-0.564099
	25.340000	-0.580543
	25.345000	-0.429262
	25.350000	-0.409529
	25.355000	-0.564099
	25.360000	-0.583832
	25.365000	-0.432550
	25.370000	-0.409529
	25.375000	-0.567388
	25.380000	-0.590409
	25.385000	-0.439128
	25.390000	-0.422684
	25.395000	-0.580543
	25.400000	-0.603564
	25.405000	-0.452283
	25.410000	-0.435839
	25.415000	-0.587120
	25.420000	-0.606853
	25.425000	-0.455571
	25.430000	-0.435839
	25.435000	-0.593698
	25.440000	-0.606853
	25.445000	-0.458860
	25.450000	-0.439128
	25.455000	-0.590409
	25.460000	-0.613430
	25.465000	-0.462149
	25.470000	-0.439128
	25.475000	-0.596987
	25.480000	-0.613430
	25.485000	-0.462149
	25.490000	-0.442417
	25.495000	-0.593698
	25.500000	-0.620008
	25.505000	-0.458860
	25.510000	-0.439128
	25.515000	-0.593698
	25.520000	-0.616719
	25.525000	-0.462149
	25.530000	-0.442417
	25.535000	-0.593698
	25.540000	-0.616719
	25.545000	-0.462149
	25.550000	-0.439128
	25.555000	-0.587120
	25.560000	-0.613430
	25.565000	-0.462149
	25.570000	-0.432550
	25.575000	-0.587120
	25.580000	-0.610141
	25.585000	-0.452283
	25.590000	-0.432550
	25.595000	-0.580543
	25.600000	-0.606853
	25.605000	-0.452283
	25.610000	-0.429262
	25.615000	-0.577254
	25.620000	-0.600275
	25.625000	-0.445705
	25.630000	-0.425973
	25.635000	-0.577254
	25.640000	-0.596987
	25.645000	-0.445705
	25.650000	-0.425973
	25.655000	-0.573965
	25.660000	-0.600275
	25.665000	-0.445705
	25.670000	-0.425973
	25.675000	-0.577254
	25.680000	-0.603564
	25.685000	-0.445705
	25.690000	-0.429262
	25.695000	-0.583832
	25.700000	-0.606853
	25.705000	-0.448994
	25.710000	-0.429262
	25.715000	-0.580543
	25.720000	-0.603564
	25.725000	-0.452283
	25.730000	-0.429262
	25.735000	-0.587120
	25.740000	-0.603564
	25.745000	-0.455571
	25.750000	-0.432550
	25.755000	-0.583832
	25.760000	-0.603564
	25.765000	-0.452283
	25.770000	-0.429262
	25.775000	-0.583832
	25.780000	-0.600275
	25.785000	-0.452283
	25.790000	-0.429262
	25.795000	-0.580543
	25.800000	-0.606853
	25.805000	-0.452283
	25.810000	-0.429262
	25.815000	-0.587120
	25.820000	-0.600275
	25.825000	-0.458860
	25.830000	-0.429262
	25.835000	-0.583832
	25.840000	-0.603564
	25.845000	-0.458860
	25.850000	-0.432550
	25.855000	-0.583832
	25.860000	-0.610141
	25.865000	-0.455571
	25.870000	-0.435839
	25.875000	-0.583832
	25.880000	-0.606853
	25.885000	-0.458860
	25.890000	-0.432550
	25.895000	-0.590409
	25.900000	-0.610141
	25.905000	-0.458860
	25.910000	-0.432550
	25.915000	-0.590409
	25.920000	-0.613430
	25.925000	-0.455571
	25.930000	-0.435839
	25.935000	-0.587120
	25.940000	-0.606853
	25.945000	-0.455571
	25.950000	-0.435839
	25.955000	-0.583832
	25.960000	-0.613430
	25.965000	-0.455571
	25.970000	-0.432550
	25.975000	-0.587120
	25.980000	-0.606853
	25.985000	-0.458860
	25.990000	-0.432550
	25.995000	-0.590409
	26.000000	-0.606853
	26.005000	-0.455571
	26.010000	-0.432550
	26.015000	-0.590409
	26.020000	-0.606853
	26.025000	-0.452283
	26.030000	-0.432550
	26.035000	-0.590409
	26.040000	-0.606853
	26.045000	-0.452283
	26.050000	-0.425973
	26.055000	-0.583832
	26.060000	-0.606853
	26.065000	-0.448994
	26.070000	-0.429262
	26.075000	-0.587120
	26.080000	-0.606853
	26.085000	-0.452283
	26.090000	-0.429262
	26.095000	-0.587120
	26.100000	-0.606853
	26.105000	-0.452283
	26.110000	-0.429262
	26.115000	-0.583832
	26.120000	-0.606853
	26.125000	-0.452283
	26.130000	-0.432550
	26.135000	-0.583832
	26.140000	-0.610141
	26.145000	-0.458860
	26.150000	-0.429262
	26.155000	-0.587120
	26.160000	-0.606853
	26.165000	-0.452283
	26.170000	-0.432550
	26.175000	-0.590409
	26.180000	-0.606853
	26.185000	-0.458860
	26.190000	-0.432550
	26.195000	-0.580543
	26.200000	-0.603564
	26.205000	-0.452283
	26.210000	-0.429262
	26.215000	-0.583832
	26.220000	-0.603564
	26.225000	-0.455571
	26.230000	-0.429262
	26.235000	-0.583832
	26.240000	-0.603564
	26.245000	-0.448994
	26.250000	-0.429262
	26.255000	-0.580543
	26.260000	-0.600275
	26.265000	-0.452283
	26.270000	-0.429262
	26.275000	-0.587120
	26.280000	-0.603564
	26.285000	-0.452283
	26.290000	-0.425973
	26.295000	-0.580543
	26.300000	-0.606853
	26.305000	-0.448994
	26.310000	-0.429262
	26.315000	-0.580543
	26.320000	-0.606853
	26.325000	-0.455571
	26.330000	-0.425973
	26.335000	-0.583832
	26.340000	-0.606853
	26.345000	-0.448994
	26.350000	-0.429262
	26.355000	-0.590409
	26.360000	-0.606853
	26.365000	-0.455571
	26.370000	-0.432550
	26.375000	-0.593698
	26.380000	-0.613430
	26.385000	-0.458860
	26.390000	-0.435839
	26.395000	-0.593698
	26.400000	-0.616719
	26.405000	-0.458860
	26.410000	-0.435839
	26.415000	-0.587120
	26.420000	-0.610141
	26.425000	-0.455571
	26.430000	-0.429262
	26.435000	-0.590409
	26.440000	-0.606853
	26.445000	-0.452283
	26.450000	-0.429262
	26.455000	-0.587120
	26.460000	-0.606853
	26.465000	-0.455571
	26.470000	-0.425973
	26.475000	-0.580543
	26.480000	-0.603564
	26.485000	-0.445705
	26.490000	-0.429262
	26.495000	-0.583832
	26.500000	-0.603564
	26.505000	-0.455571
	26.510000	-0.425973
	26.515000	-0.580543
	26.520000	-0.603564
	26.525000	-0.448994
	26.530000	-0.429262
	26.535000	-0.580543
	26.540000	-0.606853
	26.545000	-0.452283
	26.550000	-0.425973
	26.555000	-0.580543
	26.560000	-0.606853
	26.565000	-0.455571
	26.570000	-0.429262
	26.575000	-0.587120
	26.580000	-0.606853
	26.585000	-0.455571
	26.590000	-0.439128
	26.595000	-0.590409
	26.600000	-0.613430
	26.605000	-0.458860
	26.610000	-0.435839
	26.615000	-0.590409
	26.620000	-0.613430
	26.625000	-0.458860
	26.630000	-0.435839
	26.635000	-0.587120
	26.640000	-0.610141
	26.645000	-0.452283
	26.650000	-0.429262
	26.655000	-0.583832
	26.660000	-0.610141
	26.665000	-0.455571
	26.670000	-0.432550
	26.675000	-0.587120
	26.680000	-0.610141
	26.685000	-0.455571
	26.690000	-0.429262
	26.695000	-0.583832
	26.700000	-0.606853
	26.705000	-0.455571
	26.710000	-0.432550
	26.715000	-0.583832
	26.720000	-0.606853
	26.725000	-0.452283
	26.730000	-0.432550
	26.735000	-0.580543
	26.740000	-0.606853
	26.745000	-0.448994
	26.750000	-0.429262
	26.755000	-0.580543
	26.760000	-0.603564
	26.765000	-0.452283
	26.770000	-0.429262
	26.775000	-0.580543
	26.780000	-0.600275
	26.785000	-0.448994
	26.790000	-0.429262
	26.795000	-0.583832
	26.800000	-0.600275
	26.805000	-0.452283
	26.810000	-0.429262
	26.815000	-0.587120
	26.820000	-0.603564
	26.825000	-0.452283
	26.830000	-0.429262
	26.835000	-0.587120
	26.840000	-0.606853
	26.845000	-0.455571
	26.850000	-0.435839
	26.855000	-0.587120
	26.860000	-0.613430
	26.865000	-0.462149
	26.870000	-0.435839
	26.875000	-0.590409
	26.880000	-0.610141
	26.885000	-0.462149
	26.890000	-0.435839
	26.895000	-0.590409
	26.900000	-0.610141
	26.905000	-0.455571
	26.910000	-0.432550
	26.915000	-0.583832
	26.920000	-0.600275
	26.925000	-0.452283
	26.930000	-0.422684
	26.935000	-0.577254
	26.940000	-0.600275
	26.945000	-0.439128
	26.950000	-0.419395
	26.955000	-0.567388
	26.960000	-0.587120
	26.965000	-0.432550
	26.970000	-0.409529
	26.975000	-0.564099
	26.980000	-0.580543
	26.985000	-0.432550
	26.990000	-0.409529
	26.995000	-0.567388
	27.000000	-0.587120
	27.005000	-0.435839
	27.010000	-0.422684
	27.015000	-0.577254
	27.020000	-0.600275
	27.025000	-0.448994
	27.030000	-0.429262
	27.035000	-0.587120
	27.040000	-0.606853
	27.045000	-0.458860
	27.050000	-0.439128
	27.055000	-0.590409
	27.060000	-0.613430
	27.065000	-0.462149
	27.070000	-0.448994
	27.075000	-0.596987
	27.080000	-0.623296
	27.085000	-0.458860
	27.090000	-0.439128
	27.095000	-0.593698
	27.100000	-0.613430
	27.105000	-0.455571
	27.110000	-0.432550
	27.115000	-0.593698
	27.120000	-0.606853
	27.125000	-0.448994
	27.130000	-0.429262
	27.135000	-0.583832
	27.140000	-0.606853
	27.145000	-0.452283
	27.150000	-0.425973
	27.155000	-0.580543
	27.160000	-0.596987
	27.165000	-0.445705
	27.170000	-0.422684
	27.175000	-0.583832
	27.180000	-0.603564
	27.185000	-0.448994
	27.190000	-0.422684
	27.195000	-0.580543
	27.200000	-0.600275
	27.205000	-0.442417
	27.210000	-0.419395
	27.215000	-0.573965
	27.220000	-0.590409
	27.225000	-0.432550
	27.230000	-0.402952
	27.235000	-0.560811
	27.240000	-0.583832
	27.245000	-0.419395
	27.250000	-0.399663
	27.255000	-0.557522
	27.260000	-0.580543
	27.265000	-0.422684
	27.270000	-0.402952
	27.275000	-0.564099
	27.280000	-0.590409
	27.285000	-0.439128
	27.290000	-0.419395
	27.295000	-0.573965
	27.300000	-0.600275
	27.305000	-0.448994
	27.310000	-0.425973
	27.315000	-0.577254
	27.320000	-0.600275
	27.325000	-0.445705
	27.330000	-0.419395
	27.335000	-0.567388
	27.340000	-0.590409
	27.345000	-0.432550
	27.350000	-0.409529
	27.355000	-0.567388
	27.360000	-0.580543
	27.365000	-0.422684
	27.370000	-0.402952
	27.375000	-0.560811
	27.380000	-0.583832
	27.385000	-0.432550
	27.390000	-0.412818
	27.395000	-0.577254
	27.400000	-0.600275
	27.405000	-0.452283
	27.410000	-0.432550
	27.415000	-0.590409
	27.420000	-0.616719
	27.425000	-0.462149
	27.430000	-0.445705
	27.435000	-0.603564
	27.440000	-0.626585
	27.445000	-0.472015
	27.450000	-0.445705
	27.455000	-0.600275
	27.460000	-0.620008
	27.465000	-0.465438
	27.470000	-0.445705
	27.475000	-0.596987
	27.480000	-0.616719
	27.485000	-0.458860
	27.490000	-0.439128
	27.495000	-0.593698
	27.500000	-0.613430
	27.505000	-0.462149
	27.510000	-0.435839
	27.515000	-0.590409
	27.520000	-0.613430
	27.525000	-0.462149
	27.530000	-0.432550
	27.535000	-0.590409
	27.540000	-0.613430
	27.545000	-0.458860
	27.550000	-0.435839
	27.555000	-0.590409
	27.560000	-0.610141
	27.565000	-0.455571
	27.570000	-0.429262
	27.575000	-0.583832
	27.580000	-0.603564
	27.585000	-0.452283
	27.590000	-0.429262
	27.595000	-0.580543
	27.600000	-0.600275
	27.605000	-0.445705
	27.610000	-0.422684
	27.615000	-0.573965
	27.620000	-0.593698
	27.625000	-0.442417
	27.630000	-0.422684
	27.635000	-0.573965
	27.640000	-0.593698
	27.645000	-0.439128
	27.650000	-0.422684
	27.655000	-0.570677
	27.660000	-0.600275
	27.665000	-0.445705
	27.670000	-0.425973
	27.675000	-0.580543
	27.680000	-0.600275
	27.685000	-0.452283
	27.690000	-0.432550
	27.695000	-0.583832
	27.700000	-0.606853
	27.705000	-0.452283
	27.710000	-0.432550
	27.715000	-0.590409
	27.720000	-0.606853
	27.725000	-0.458860
	27.730000	-0.435839
	27.735000	-0.590409
	27.740000	-0.610141
	27.745000	-0.458860
	27.750000	-0.435839
	27.755000	-0.590409
	27.760000	-0.613430
	27.765000	-0.458860
	27.770000	-0.432550
	27.775000	-0.593698
	27.780000	-0.613430
	27.785000	-0.455571
	27.790000	-0.432550
	27.795000	-0.583832
	27.800000	-0.610141
	27.805000	-0.455571
	27.810000	-0.435839
	27.815000	-0.587120
	27.820000	-0.606853
	27.825000	-0.462149
	27.830000	-0.432550
	27.835000	-0.590409
	27.840000	-0.610141
	27.845000	-0.458860
	27.850000	-0.432550
	27.855000	-0.587120
	27.860000	-0.606853
	27.865000	-0.462149
	27.870000	-0.435839
	27.875000	-0.583832
	27.880000	-0.610141
	27.885000	-0.452283
	27.890000	-0.435839
	27.895000	-0.583832
	27.900000	-0.606853
	27.905000	-0.452283
	27.910000	-0.429262
	27.915000	-0.583832
	27.920000	-0.600275
	27.925000	-0.452283
	27.930000	-0.432550
	27.935000	-0.580543
	27.940000	-0.603564
	27.945000	-0.445705
	27.950000	-0.425973
	27.955000	-0.580543
	27.960000	-0.600275
	27.965000	-0.448994
	27.970000	-0.425973
	27.975000	-0.580543
	27.980000	-0.600275
	27.985000	-0.452283
	27.990000	-0.422684
	27.995000	-0.580543
	28.000000	-0.600275
	28.005000	-0.445705
	28.010000	-0.429262
	28.015000	-0.580543
	28.020000	-0.606853
	28.025000	-0.452283
	28.030000	-0.425973
	28.035000	-0.583832
	28.040000	-0.606853
	28.045000	-0.452283
	28.050000	-0.422684
	28.055000	-0.583832
	28.060000	-0.603564
	28.065000	-0.452283
	28.070000	-0.432550
	28.075000	-0.580543
	28.080000	-0.600275
	28.085000	-0.448994
	28.090000	-0.429262
	28.095000	-0.583832
	28.100000	-0.600275
	28.105000	-0.452283
	28.110000	-0.429262
	28.115000	-0.580543
	28.120000	-0.610141
	28.125000	-0.452283
	28.130000	-0.425973
	28.135000	-0.587120
	28.140000	-0.600275
	28.145000	-0.452283
	28.150000	-0.429262
	28.155000	-0.587120
	28.160000	-0.603564
	28.165000	-0.452283
	28.170000	-0.429262
	28.175000	-0.583832
	28.180000	-0.606853
	28.185000	-0.448994
	28.190000	-0.435839
	28.195000	-0.583832
	28.200000	-0.606853
	28.205000	-0.448994
	28.210000	-0.432550
	28.215000	-0.583832
	28.220000	-0.603564
	28.225000	-0.448994
	28.230000	-0.429262
	28.235000	-0.580543
	28.240000	-0.600275
	28.245000	-0.448994
	28.250000	-0.422684
	28.255000	-0.577254
	28.260000	-0.600275
	28.265000	-0.445705
	28.270000	-0.422684
	28.275000	-0.580543
	28.280000	-0.603564
	28.285000	-0.445705
	28.290000	-0.419395
	28.295000	-0.580543
	28.300000	-0.600275
	28.305000	-0.445705
	28.310000	-0.425973
	28.315000	-0.583832
	28.320000	-0.600275
	28.325000	-0.448994
	28.330000	-0.425973
	28.335000	-0.580543
	28.340000	-0.600275
	28.345000	-0.445705
	28.350000	-0.425973
	28.355000	-0.583832
	28.360000	-0.600275
	28.365000	-0.445705
	28.370000	-0.419395
	28.375000	-0.577254
	28.380000	-0.596987
	28.385000	-0.448994
	28.390000	-0.419395
	28.395000	-0.577254
	28.400000	-0.596987
	28.405000	-0.442417
	28.410000	-0.425973
	28.415000	-0.577254
	28.420000	-0.596987
	28.425000	-0.448994
	28.430000	-0.425973
	28.435000	-0.583832
	28.440000	-0.600275
	28.445000	-0.445705
	28.450000	-0.422684
	28.455000	-0.580543
	28.460000	-0.596987
	28.465000	-0.445705
	28.470000	-0.419395
	28.475000	-0.580543
	28.480000	-0.600275
	28.485000	-0.445705
	28.490000	-0.425973
	28.495000	-0.577254
	28.500000	-0.596987
	28.505000	-0.448994
	28.510000	-0.422684
	28.515000	-0.577254
	28.520000	-0.603564
	28.525000	-0.448994
	28.530000	-0.425973
	28.535000	-0.577254
	28.540000	-0.603564
	28.545000	-0.445705
	28.550000	-0.425973
	28.555000	-0.580543
	28.560000	-0.600275
	28.565000	-0.448994
	28.570000	-0.425973
	28.575000	-0.577254
	28.580000	-0.600275
	28.585000	-0.448994
	28.590000	-0.425973
	28.595000	-0.583832
	28.600000	-0.606853
	28.605000	-0.445705
	28.610000	-0.429262
	28.615000	-0.580543
	28.620000	-0.603564
	28.625000	-0.445705
	28.630000	-0.422684
	28.635000	-0.580543
	28.640000	-0.600275
	28.645000	-0.448994
	28.650000	-0.422684
	28.655000	-0.577254
	28.660000	-0.596987
	28.665000	-0.448994
	28.670000	-0.429262
	28.675000	-0.577254
	28.680000	-0.600275
	28.685000	-0.448994
	28.690000	-0.425973
	28.695000	-0.587120
	28.700000	-0.600275
	28.705000	-0.445705
	28.710000	-0.425973
	28.715000	-0.580543
	28.720000	-0.603564
	28.725000	-0.445705
	28.730000	-0.425973
	28.735000	-0.580543
	28.740000	-0.600275
	28.745000	-0.445705
	28.750000	-0.425973
	28.755000	-0.577254
	28.760000	-0.596987
	28.765000	-0.442417
	28.770000	-0.419395
	28.775000	-0.577254
	28.780000	-0.593698
	28.785000	-0.442417
	28.790000	-0.419395
	28.795000	-0.577254
	28.800000	-0.596987
	28.805000	-0.442417
	28.810000	-0.416107
	28.815000	-0.577254
	28.820000	-0.600275
	28.825000	-0.435839
	28.830000	-0.419395
	28.835000	-0.577254
	28.840000	-0.593698
	28.845000	-0.442417
	28.850000	-0.419395
	28.855000	-0.573965
	28.860000	-0.593698
	28.865000	-0.442417
	28.870000	-0.422684
	28.875000	-0.577254
	28.880000	-0.600275
	28.885000	-0.442417
	28.890000	-0.422684
	28.895000	-0.573965
	28.900000	-0.596987
	28.905000	-0.442417
	28.910000	-0.422684
	28.915000	-0.580543
	28.920000	-0.600275
	28.925000	-0.442417
	28.930000	-0.425973
	28.935000	-0.580543
	28.940000	-0.600275
	28.945000	-0.445705
	28.950000	-0.425973
	28.955000	-0.583832
	28.960000	-0.603564
	28.965000	-0.448994
	28.970000	-0.429262
	28.975000	-0.587120
	28.980000	-0.606853
	28.985000	-0.448994
	28.990000	-0.432550
	28.995000	-0.580543
	29.000000	-0.606853
	29.005000	-0.448994
	29.010000	-0.429262
	29.015000	-0.583832
	29.020000	-0.600275
	29.025000	-0.448994
	29.030000	-0.422684
	29.035000	-0.580543
	29.040000	-0.596987
	29.045000	-0.442417
	29.050000	-0.419395
	29.055000	-0.573965
	29.060000	-0.593698
	29.065000	-0.442417
	29.070000	-0.416107
	29.075000	-0.580543
	29.080000	-0.593698
	29.085000	-0.439128
	29.090000	-0.419395
	29.095000	-0.573965
	29.100000	-0.593698
	29.105000	-0.439128
	29.110000	-0.419395
	29.115000	-0.577254
	29.120000	-0.593698
	29.125000	-0.439128
	29.130000	-0.422684
	29.135000	-0.577254
	29.140000	-0.590409
	29.145000	-0.442417
	29.150000	-0.416107
	29.155000	-0.577254
	29.160000	-0.587120
	29.165000	-0.435839
	29.170000	-0.422684
	29.175000	-0.573965
	29.180000	-0.590409
	29.185000	-0.435839
	29.190000	-0.412818
	29.195000	-0.573965
	29.200000	-0.587120
	29.205000	-0.435839
	29.210000	-0.416107
	29.215000	-0.567388
	29.220000	-0.590409
	29.225000	-0.439128
	29.230000	-0.416107
	29.235000	-0.573965
	29.240000	-0.596987
	29.245000	-0.439128
	29.250000	-0.422684
	29.255000	-0.577254
	29.260000	-0.596987
	29.265000	-0.442417
	29.270000	-0.422684
	29.275000	-0.583832
	29.280000	-0.600275
	29.285000	-0.448994
	29.290000	-0.435839
	29.295000	-0.587120
	29.300000	-0.606853
	29.305000	-0.455571
	29.310000	-0.435839
	29.315000	-0.587120
	29.320000	-0.606853
	29.325000	-0.452283
	29.330000	-0.435839
	29.335000	-0.590409
	29.340000	-0.613430
	29.345000	-0.452283
	29.350000	-0.435839
	29.355000	-0.590409
	29.360000	-0.610141
	29.365000	-0.455571
	29.370000	-0.432550
	29.375000	-0.587120
	29.380000	-0.606853
	29.385000	-0.448994
	29.390000	-0.432550
	29.395000	-0.580543
	29.400000	-0.596987
	29.405000	-0.435839
	29.410000	-0.419395
	29.415000	-0.570677
	29.420000	-0.587120
	29.425000	-0.425973
	29.430000	-0.406241
	29.435000	-0.557522
	29.440000	-0.567388
	29.445000	-0.409529
	29.450000	-0.383220
	29.455000	-0.541078
	29.460000	-0.560811
	29.465000	-0.399663
	29.470000	-0.383220
	29.475000	-0.547656
	29.480000	-0.564099
	29.485000	-0.412818
	29.490000	-0.396374
	29.495000	-0.560811
	29.500000	-0.573965
	29.505000	-0.425973
	29.510000	-0.409529
	29.515000	-0.577254
	29.520000	-0.600275
	29.525000	-0.452283
	29.530000	-0.439128
	29.535000	-0.593698
	29.540000	-0.620008
	29.545000	-0.468726
	29.550000	-0.452283
	29.555000	-0.606853
	29.560000	-0.626585
	29.565000	-0.472015
	29.570000	-0.448994
	29.575000	-0.606853
	29.580000	-0.616719
	29.585000	-0.462149
	29.590000	-0.445705
	29.595000	-0.600275
	29.600000	-0.613430
	29.605000	-0.458860
	29.610000	-0.442417
	29.615000	-0.590409
	29.620000	-0.610141
	29.625000	-0.452283
	29.630000	-0.432550
	29.635000	-0.580543
	29.640000	-0.603564
	29.645000	-0.448994
	29.650000	-0.425973
	29.655000	-0.583832
	29.660000	-0.600275
	29.665000	-0.442417
	29.670000	-0.422684
	29.675000	-0.580543
	29.680000	-0.593698
	29.685000	-0.435839
	29.690000	-0.419395
	29.695000	-0.573965
	29.700000	-0.590409
	29.705000	-0.435839
	29.710000	-0.416107
	29.715000	-0.567388
	29.720000	-0.583832
	29.725000	-0.422684
	29.730000	-0.409529
	29.735000	-0.564099
	29.740000	-0.577254
	29.745000	-0.412818
	29.750000	-0.396374
	29.755000	-0.550944
	29.760000	-0.564099
	29.765000	-0.406241
	29.770000	-0.386508
	29.775000	-0.547656
	29.780000	-0.564099
	29.785000	-0.409529
	29.790000	-0.399663
	29.795000	-0.557522
	29.800000	-0.570677
	29.805000	-0.419395
	29.810000	-0.402952
	29.815000	-0.564099
	29.820000	-0.580543
	29.825000	-0.435839
	29.830000	-0.419395
	29.835000	-0.573965
	29.840000	-0.593698
	29.845000	-0.439128
	29.850000	-0.422684
	29.855000	-0.577254
	29.860000	-0.593698
	29.865000	-0.432550
	29.870000	-0.416107
	29.875000	-0.567388
	29.880000	-0.580543
	29.885000	-0.422684
	29.890000	-0.409529
	29.895000	-0.564099
	29.900000	-0.573965
	29.905000	-0.419395
	29.910000	-0.409529
	29.915000	-0.560811
	29.920000	-0.580543
	29.925000	-0.429262
	29.930000	-0.409529
	29.935000	-0.573965
	29.940000	-0.593698
	29.945000	-0.445705
	29.950000	-0.429262
	29.955000	-0.583832
	29.960000	-0.603564
	29.965000	-0.458860
	29.970000	-0.448994
	29.975000	-0.606853
	29.980000	-0.626585
	29.985000	-0.475304
	29.990000	-0.458860
	29.995000	-0.616719
	30.000000	-0.633162
	30.005000	-0.472015
	30.010000	-0.458860
	30.015000	-0.613430
	30.020000	-0.626585
	30.025000	-0.472015
	30.030000	-0.452283
	30.035000	-0.606853
	30.040000	-0.620008
	30.045000	-0.468726
	30.050000	-0.448994
	30.055000	-0.603564
	30.060000	-0.616719
	30.065000	-0.465438
	30.070000	-0.452283
	30.075000	-0.603564
	30.080000	-0.620008
	30.085000	-0.468726
	30.090000	-0.452283
	30.095000	-0.606853
	30.100000	-0.623296
	30.105000	-0.465438
	30.110000	-0.452283
	30.115000	-0.603564
	30.120000	-0.613430
	30.125000	-0.458860
	30.130000	-0.439128
	30.135000	-0.593698
	30.140000	-0.610141
	30.145000	-0.452283
	30.150000	-0.432550
	30.155000	-0.587120
	30.160000	-0.603564
	30.165000	-0.439128
	30.170000	-0.425973
	30.175000	-0.583832
	30.180000	-0.600275
	30.185000	-0.442417
	30.190000	-0.425973
	30.195000	-0.577254
	30.200000	-0.596987
	30.205000	-0.445705
	30.210000	-0.429262
	30.215000	-0.587120
	30.220000	-0.600275
	30.225000	-0.448994
	30.230000	-0.432550
	30.235000	-0.596987
	30.240000	-0.606853
	30.245000	-0.455571
	30.250000	-0.435839
	30.255000	-0.593698
	30.260000	-0.606853
	30.265000	-0.452283
	30.270000	-0.439128
	30.275000	-0.587120
	30.280000	-0.603564
	30.285000	-0.448994
	30.290000	-0.432550
	30.295000	-0.587120
	30.300000	-0.600275
	30.305000	-0.448994
	30.310000	-0.429262
	30.315000	-0.587120
	30.320000	-0.606853
	30.325000	-0.445705
	30.330000	-0.429262
	30.335000	-0.587120
	30.340000	-0.600275
	30.345000	-0.445705
	30.350000	-0.432550
	30.355000	-0.590409
	30.360000	-0.606853
	30.365000	-0.452283
	30.370000	-0.435839
	30.375000	-0.596987
	30.380000	-0.606853
	30.385000	-0.452283
	30.390000	-0.435839
	30.395000	-0.593698
	30.400000	-0.606853
	30.405000	-0.458860
	30.410000	-0.439128
	30.415000	-0.593698
	30.420000	-0.603564
	30.425000	-0.452283
	30.430000	-0.439128
	30.435000	-0.587120
	30.440000	-0.600275
	30.445000	-0.445705
	30.450000	-0.429262
	30.455000	-0.590409
	30.460000	-0.603564
	30.465000	-0.448994
	30.470000	-0.429262
	30.475000	-0.583832
	30.480000	-0.600275
	30.485000	-0.448994
	30.490000	-0.432550
	30.495000	-0.583832
	30.500000	-0.600275
	30.505000	-0.445705
	30.510000	-0.432550
	30.515000	-0.587120
	30.520000	-0.600275
	30.525000	-0.448994
	30.530000	-0.432550
	30.535000	-0.587120
	30.540000	-0.600275
	30.545000	-0.445705
	30.550000	-0.432550
	30.555000	-0.587120
	30.560000	-0.600275
	30.565000	-0.445705
	30.570000	-0.429262
	30.575000	-0.587120
	30.580000	-0.600275
	30.585000	-0.442417
	30.590000	-0.425973
	30.595000	-0.583832
	30.600000	-0.600275
	30.605000	-0.445705
	30.610000	-0.429262
	30.615000	-0.583832
	30.620000	-0.600275
	30.625000	-0.448994
	30.630000	-0.429262
	30.635000	-0.587120
	30.640000	-0.600275
	30.645000	-0.448994
	30.650000	-0.432550
	30.655000	-0.590409
	30.660000	-0.600275
	30.665000	-0.442417
	30.670000	-0.432550
	30.675000	-0.583832
	30.680000	-0.603564
	30.685000	-0.442417
	30.690000	-0.439128
	30.695000	-0.583832
	30.700000	-0.600275
	30.705000	-0.445705
	30.710000	-0.429262
	30.715000	-0.583832
	30.720000	-0.603564
	30.725000	-0.448994
	30.730000	-0.435839
	30.735000	-0.587120
	30.740000	-0.600275
	30.745000	-0.445705
	30.750000	-0.429262
	30.755000	-0.587120
	30.760000	-0.600275
	30.765000	-0.445705
	30.770000	-0.432550
	30.775000	-0.587120
	30.780000	-0.603564
	30.785000	-0.445705
	30.790000	-0.432550
	30.795000	-0.587120
	30.800000	-0.600275
	30.805000	-0.448994
	30.810000	-0.432550
	30.815000	-0.583832
	30.820000	-0.606853
	30.825000	-0.448994
	30.830000	-0.429262
	30.835000	-0.590409
	30.840000	-0.600275
	30.845000	-0.448994
	30.850000	-0.435839
	30.855000	-0.583832
	30.860000	-0.596987
	30.865000	-0.445705
	30.870000	-0.432550
	30.875000	-0.590409
	30.880000	-0.603564
	30.885000	-0.448994
	30.890000	-0.432550
	30.895000	-0.587120
	30.900000	-0.600275
	30.905000	-0.448994
	30.910000	-0.429262
	30.915000	-0.583832
	30.920000	-0.603564
	30.925000	-0.445705
	30.930000	-0.429262
	30.935000	-0.590409
	30.940000	-0.596987
	30.945000	-0.445705
	30.950000	-0.429262
	30.955000	-0.587120
	30.960000	-0.600275
	30.965000	-0.442417
	30.970000	-0.425973
	30.975000	-0.583832
	30.980000	-0.600275
	30.985000	-0.442417
	30.990000	-0.429262
	30.995000	-0.583832
	31.000000	-0.600275
	31.005000	-0.442417
	31.010000	-0.429262
	31.015000	-0.583832
	31.020000	-0.600275
	31.025000	-0.442417
	31.030000	-0.429262
	31.035000	-0.587120
	31.040000	-0.603564
	31.045000	-0.445705
	31.050000	-0.429262
	31.055000	-0.590409
	31.060000	-0.603564
	31.065000	-0.448994
	31.070000	-0.432550
	31.075000	-0.590409
	31.080000	-0.603564
	31.085000	-0.448994
	31.090000	-0.435839
	31.095000	-0.590409
	31.100000	-0.603564
	31.105000	-0.445705
	31.110000	-0.432550
	31.115000	-0.590409
	31.120000	-0.603564
	31.125000	-0.445705
	31.130000	-0.432550
	31.135000	-0.587120
	31.140000	-0.600275
	31.145000	-0.448994
	31.150000	-0.429262
	31.155000	-0.587120
	31.160000	-0.603564
	31.165000	-0.445705
	31.170000	-0.432550
	31.175000	-0.590409
	31.180000	-0.603564
	31.185000	-0.448994
	31.190000	-0.429262
	31.195000	-0.590409
	31.200000	-0.603564
	31.205000	-0.445705
	31.210000	-0.429262
	31.215000	-0.590409
	31.220000	-0.600275
	31.225000	-0.442417
	31.230000	-0.429262
	31.235000	-0.583832
	31.240000	-0.600275
	31.245000	-0.442417
	31.250000	-0.425973
	31.255000	-0.583832
	31.260000	-0.600275
	31.265000	-0.442417
	31.270000	-0.422684
	31.275000	-0.580543
	31.280000	-0.600275
	31.285000	-0.435839
	31.290000	-0.425973
	31.295000	-0.583832
	31.300000	-0.593698
	31.305000	-0.442417
	31.310000	-0.425973
	31.315000	-0.587120
	31.320000	-0.596987
	31.325000	-0.435839
	31.330000	-0.425973
	31.335000	-0.583832
	31.340000	-0.596987
	31.345000	-0.435839
	31.350000	-0.422684
	31.355000	-0.583832
	31.360000	-0.593698
	31.365000	-0.442417
	31.370000	-0.425973
	31.375000	-0.587120
	31.380000	-0.600275
	31.385000	-0.442417
	31.390000	-0.425973
	31.395000	-0.583832
	31.400000	-0.600275
	31.405000	-0.442417
	31.410000	-0.432550
	31.415000	-0.587120
	31.420000	-0.600275
	31.425000	-0.442417
	31.430000	-0.429262
	31.435000	-0.587120
	31.440000	-0.596987
	31.445000	-0.439128
	31.450000	-0.429262
	31.455000	-0.587120
	31.460000	-0.600275
	31.465000	-0.442417
	31.470000	-0.429262
	31.475000	-0.583832
	31.480000	-0.600275
	31.485000	-0.442417
	31.490000	-0.425973
	31.495000	-0.583832
	31.500000	-0.593698
	31.505000	-0.445705
	31.510000	-0.425973
	31.515000	-0.583832
	31.520000	-0.603564
	31.525000	-0.439128
	31.530000	-0.422684
	31.535000	-0.583832
	31.540000	-0.596987
	31.545000	-0.435839
	31.550000	-0.425973
	31.555000	-0.577254
	31.560000	-0.593698
	31.565000	-0.439128
	31.570000	-0.419395
	31.575000	-0.580543
	31.580000	-0.596987
	31.585000	-0.435839
	31.590000	-0.419395
	31.595000	-0.580543
	31.600000	-0.590409
	31.605000	-0.432550
	31.610000	-0.419395
	31.615000	-0.577254
	31.620000	-0.593698
	31.625000	-0.432550
	31.630000	-0.419395
	31.635000	-0.577254
	31.640000	-0.590409
	31.645000	-0.432550
	31.650000	-0.419395
	31.655000	-0.573965
	31.660000	-0.590409
	31.665000	-0.435839
	31.670000	-0.419395
	31.675000	-0.577254
	31.680000	-0.593698
	31.685000	-0.432550
	31.690000	-0.416107
	31.695000	-0.577254
	31.700000	-0.587120
	31.705000	-0.435839
	31.710000	-0.416107
	31.715000	-0.577254
	31.720000	-0.593698
	31.725000	-0.429262
	31.730000	-0.416107
	31.735000	-0.580543
	31.740000	-0.590409
	31.745000	-0.432550
	31.750000	-0.419395
	31.755000	-0.580543
	31.760000	-0.593698
	31.765000	-0.439128
	31.770000	-0.416107
	31.775000	-0.583832
	31.780000	-0.590409
	31.785000	-0.439128
	31.790000	-0.419395
	31.795000	-0.583832
	31.800000	-0.593698
	31.805000	-0.435839
	31.810000	-0.419395
	31.815000	-0.577254
	31.820000	-0.596987
	31.825000	-0.435839
	31.830000	-0.419395
	31.835000	-0.583832
	31.840000	-0.590409
	31.845000	-0.432550
	31.850000	-0.416107
	31.855000	-0.573965
	31.860000	-0.587120
	31.865000	-0.429262
	31.870000	-0.416107
	31.875000	-0.573965
	31.880000	-0.590409
	31.885000	-0.429262
	31.890000	-0.412818
	31.895000	-0.570677
	31.900000	-0.583832
	31.905000	-0.429262
	31.910000	-0.409529
	31.915000	-0.570677
	31.920000	-0.580543
	31.925000	-0.425973
	31.930000	-0.416107
	31.935000	-0.570677
	31.940000	-0.583832
	31.945000	-0.429262
	31.950000	-0.409529
	31.955000	-0.573965
	31.960000	-0.583832
	31.965000	-0.429262
	31.970000	-0.412818
	31.975000	-0.573965
	31.980000	-0.587120
	31.985000	-0.429262
	31.990000	-0.412818
	31.995000	-0.573965
	32.000000	-0.587120
	32.005000	-0.425973
	32.010000	-0.412818
	32.015000	-0.573965
	32.020000	-0.590409
	32.025000	-0.429262
	32.030000	-0.412818
	32.035000	-0.577254
	32.040000	-0.590409
	32.045000	-0.429262
	32.050000	-0.419395
	32.055000	-0.577254
	32.060000	-0.587120
	32.065000	-0.435839
	32.070000	-0.416107
	32.075000	-0.573965
	32.080000	-0.590409
	32.085000	-0.429262
	32.090000	-0.416107
	32.095000	-0.570677
	32.100000	-0.587120
	32.105000	-0.429262
	32.110000	-0.419395
	32.115000	-0.573965
	32.120000	-0.590409
	32.125000	-0.429262
	32.130000	-0.419395
	32.135000	-0.573965
	32.140000	-0.583832
	32.145000	-0.432550
	32.150000	-0.416107
	32.155000	-0.573965
	32.160000	-0.590409
	32.165000	-0.429262
	32.170000	-0.416107
	32.175000	-0.570677
	32.180000	-0.587120
	32.185000	-0.432550
	32.190000	-0.412818
	32.195000	-0.573965
	32.200000	-0.587120
	32.205000	-0.429262
	32.210000	-0.412818
	32.215000	-0.567388
	32.220000	-0.583832
	32.225000	-0.429262
	32.230000	-0.406241
	32.235000	-0.570677
	32.240000	-0.580543
	32.245000	-0.425973
	32.250000	-0.409529
	32.255000	-0.567388
	32.260000	-0.583832
	32.265000	-0.422684
	32.270000	-0.406241
	32.275000	-0.570677
	32.280000	-0.580543
	32.285000	-0.425973
	32.290000	-0.409529
	32.295000	-0.573965
	32.300000	-0.583832
	32.305000	-0.425973
	32.310000	-0.409529
	32.315000	-0.567388
	32.320000	-0.587120
	32.325000	-0.425973
	32.330000	-0.416107
	32.335000	-0.573965
	32.340000	-0.583832
	32.345000	-0.432550
	32.350000	-0.416107
	32.355000	-0.570677
	32.360000	-0.587120
	32.365000	-0.429262
	32.370000	-0.409529
	32.375000	-0.573965
	32.380000	-0.583832
	32.385000	-0.429262
	32.390000	-0.416107
	32.395000	-0.573965
	32.400000	-0.583832
	32.405000	-0.425973
	32.410000	-0.412818
	32.415000	-0.570677
	32.420000	-0.580543
	32.425000	-0.432550
	32.430000	-0.409529
	32.435000	-0.567388
	32.440000	-0.580543
	32.445000	-0.425973
	32.450000	-0.412818
	32.455000	-0.577254
	32.460000	-0.580543
	32.465000	-0.425973
	32.470000	-0.412818
	32.475000	-0.573965
	32.480000	-0.587120
	32.485000	-0.425973
	32.490000	-0.412818
	32.495000	-0.567388
	32.500000	-0.587120
	32.505000	-0.429262
	32.510000	-0.409529
	32.515000	-0.567388
	32.520000	-0.583832
	32.525000	-0.425973
	32.530000	-0.409529
	32.535000	-0.570677
	32.540000	-0.580543
	32.545000	-0.425973
	32.550000	-0.409529
	32.555000	-0.570677
	32.560000	-0.583832
	32.565000	-0.425973
	32.570000	-0.412818
	32.575000	-0.577254
	32.580000	-0.587120
	32.585000	-0.425973
	32.590000	-0.409529
	32.595000	-0.567388
	32.600000	-0.583832
	32.605000	-0.425973
	32.610000	-0.409529
	32.615000	-0.567388
	32.620000	-0.580543
	32.625000	-0.422684
	32.630000	-0.409529
	32.635000	-0.573965
	32.640000	-0.583832
	32.645000	-0.425973
	32.650000	-0.416107
	32.655000	-0.567388
	32.660000	-0.583832
	32.665000	-0.429262
	32.670000	-0.409529
	32.675000	-0.573965
	32.680000	-0.583832
	32.685000	-0.425973
	32.690000	-0.416107
	32.695000	-0.570677
	32.700000	-0.583832
	32.705000	-0.425973
	32.710000	-0.412818
	32.715000	-0.573965
	32.720000	-0.583832
	32.725000	-0.425973
	32.730000	-0.409529
	32.735000	-0.570677
	32.740000	-0.583832
	32.745000	-0.429262
	32.750000	-0.412818
	32.755000	-0.573965
	32.760000	-0.583832
	32.765000	-0.425973
	32.770000	-0.416107
	32.775000	-0.573965
	32.780000	-0.587120
	32.785000	-0.429262
	32.790000	-0.412818
	32.795000	-0.573965
	32.800000	-0.587120
	32.805000	-0.425973
	32.810000	-0.412818
	32.815000	-0.570677
	32.820000	-0.587120
	32.825000	-0.425973
	32.830000	-0.409529
	32.835000	-0.573965
	32.840000	-0.587120
	32.845000	-0.429262
	32.850000	-0.412818
	32.855000	-0.570677
	32.860000	-0.583832
	32.865000	-0.429262
	32.870000	-0.409529
	32.875000	-0.570677
	32.880000	-0.583832
	32.885000	-0.429262
	32.890000	-0.409529
	32.895000	-0.573965
	32.900000	-0.583832
	32.905000	-0.425973
	32.910000	-0.409529
	32.915000	-0.567388
	32.920000	-0.580543
	32.925000	-0.425973
	32.930000	-0.409529
	32.935000	-0.567388
	32.940000	-0.577254
	32.945000	-0.422684
	32.950000	-0.406241
	32.955000	-0.567388
	32.960000	-0.583832
	32.965000	-0.425973
	32.970000	-0.409529
	32.975000	-0.567388
	32.980000	-0.583832
	32.985000	-0.429262
	32.990000	-0.412818
	32.995000	-0.573965
	33.000000	-0.583832
	33.005000	-0.422684
	33.010000	-0.409529
	33.015000	-0.570677
	33.020000	-0.587120
	33.025000	-0.422684
	33.030000	-0.412818
	33.035000	-0.570677
	33.040000	-0.580543
	33.045000	-0.425973
	33.050000	-0.409529
	33.055000	-0.573965
	33.060000	-0.583832
	33.065000	-0.425973
	33.070000	-0.412818
	33.075000	-0.573965
	33.080000	-0.587120
	33.085000	-0.429262
	33.090000	-0.409529
	33.095000	-0.573965
	33.100000	-0.587120
	33.105000	-0.422684
	33.110000	-0.416107
	33.115000	-0.573965
	33.120000	-0.583832
	33.125000	-0.425973
	33.130000	-0.412818
	33.135000	-0.570677
	33.140000	-0.583832
	33.145000	-0.425973
	33.150000	-0.416107
	33.155000	-0.573965
	33.160000	-0.583832
	33.165000	-0.429262
	33.170000	-0.409529
	33.175000	-0.573965
	33.180000	-0.583832
	33.185000	-0.425973
	33.190000	-0.409529
	33.195000	-0.570677
	33.200000	-0.583832
	33.205000	-0.432550
	33.210000	-0.409529
	33.215000	-0.580543
	33.220000	-0.580543
	33.225000	-0.429262
	33.230000	-0.412818
	33.235000	-0.570677
	33.240000	-0.580543
	33.245000	-0.425973
	33.250000	-0.409529
	33.255000	-0.570677
	33.260000	-0.583832
	33.265000	-0.425973
	33.270000	-0.409529
	33.275000	-0.573965
	33.280000	-0.583832
	33.285000	-0.422684
	33.290000	-0.409529
	33.295000	-0.573965
	33.300000	-0.583832
	33.305000	-0.429262
	33.310000	-0.416107
	33.315000	-0.573965
	33.320000	-0.583832
	33.325000	-0.425973
	33.330000	-0.416107
	33.335000	-0.573965
	33.340000	-0.587120
	33.345000	-0.429262
	33.350000	-0.412818
	33.355000	-0.573965
	33.360000	-0.587120
	33.365000	-0.432550
	33.370000	-0.422684
	33.375000	-0.577254
	33.380000	-0.590409
	33.385000	-0.432550
	33.390000	-0.419395
	33.395000	-0.580543
	33.400000	-0.587120
	33.405000	-0.432550
	33.410000	-0.419395
	33.415000	-0.573965
	33.420000	-0.590409
	33.425000	-0.429262
	33.430000	-0.419395
	33.435000	-0.577254
	33.440000	-0.583832
	33.445000	-0.432550
	33.450000	-0.419395
	33.455000	-0.573965
	33.460000	-0.590409
	33.465000	-0.429262
	33.470000	-0.419395
	33.475000	-0.573965
	33.480000	-0.590409
	33.485000	-0.429262
	33.490000	-0.416107
	33.495000	-0.570677
	33.500000	-0.583832
	33.505000	-0.432550
	33.510000	-0.416107
