2024/7/10 	 16:20:33 
 This file comes from Vt only measurement 	 1.000000E-2 
 Voltage Sensitivity 	 0.000000E+0 
 Sampling rate 	 200 
 Number of samples per channel 	 -1 
 No filter from Labview 	 	 	 
 	 
 ***End_of_Header*** 
 	 Time 	  Voltage 	 Filtered Voltage 	 
	0.000000	-21.916333
	0.005000	-22.496538
	0.010000	-22.303136
	0.015000	-21.658465
	0.020000	-21.884100
	0.025000	-22.561005
	0.030000	-22.270903
	0.035000	-21.626231
	0.040000	-21.916333
	0.045000	-22.561005
	0.050000	-22.206436
	0.055000	-21.529530
	0.060000	-21.819632
	0.065000	-22.561005
	0.070000	-22.303136
	0.075000	-21.626231
	0.080000	-21.884100
	0.085000	-22.561005
	0.090000	-22.141968
	0.095000	-21.561764
	0.100000	-21.851866
	0.105000	-22.496538
	0.110000	-22.238669
	0.115000	-21.561764
	0.120000	-21.884100
	0.125000	-22.464304
	0.130000	-22.206436
	0.135000	-21.529530
	0.140000	-21.787399
	0.145000	-22.432071
	0.150000	-22.109735
	0.155000	-21.497297
	0.160000	-21.787399
	0.165000	-22.496538
	0.170000	-22.141968
	0.175000	-21.497297
	0.180000	-21.787399
	0.185000	-22.367603
	0.190000	-22.109735
	0.195000	-21.529530
	0.200000	-21.722932
	0.205000	-22.432071
	0.210000	-22.141968
	0.215000	-21.465063
	0.220000	-21.658465
	0.225000	-22.399837
	0.230000	-22.045268
	0.235000	-21.368362
	0.240000	-21.755165
	0.245000	-22.367603
	0.250000	-22.077501
	0.255000	-21.400596
	0.260000	-21.658465
	0.265000	-22.335370
	0.270000	-22.077501
	0.275000	-21.432829
	0.280000	-21.690698
	0.285000	-22.399837
	0.290000	-22.045268
	0.295000	-21.400596
	0.300000	-21.658465
	0.305000	-22.367603
	0.310000	-22.045268
	0.315000	-21.336129
	0.320000	-21.658465
	0.325000	-22.303136
	0.330000	-22.077501
	0.335000	-21.368362
	0.340000	-21.593997
	0.345000	-22.270903
	0.350000	-22.045268
	0.355000	-21.303895
	0.360000	-21.690698
	0.365000	-22.335370
	0.370000	-22.013034
	0.375000	-21.336129
	0.380000	-21.658465
	0.385000	-22.270903
	0.390000	-22.045268
	0.395000	-21.336129
	0.400000	-21.561764
	0.405000	-22.238669
	0.410000	-22.013034
	0.415000	-21.336129
	0.420000	-21.626231
	0.425000	-22.270903
	0.430000	-21.980800
	0.435000	-21.303895
	0.440000	-21.561764
	0.445000	-22.270903
	0.450000	-21.980800
	0.455000	-21.368362
	0.460000	-21.593997
	0.465000	-22.270903
	0.470000	-21.980800
	0.475000	-21.336129
	0.480000	-21.561764
	0.485000	-22.238669
	0.490000	-22.013034
	0.495000	-21.368362
	0.500000	-21.529530
	0.505000	-22.270903
	0.510000	-22.045268
	0.515000	-21.303895
	0.520000	-21.593997
	0.525000	-22.238669
	0.530000	-21.948567
	0.535000	-21.303895
	0.540000	-21.593997
	0.545000	-22.238669
	0.550000	-21.980800
	0.555000	-21.303895
	0.560000	-21.593997
	0.565000	-22.270903
	0.570000	-22.013034
	0.575000	-21.303895
	0.580000	-21.593997
	0.585000	-22.270903
	0.590000	-21.980800
	0.595000	-21.400596
	0.600000	-21.497297
	0.605000	-22.270903
	0.610000	-21.916333
	0.615000	-21.303895
	0.620000	-21.593997
	0.625000	-22.206436
	0.630000	-21.980800
	0.635000	-21.271661
	0.640000	-21.497297
	0.645000	-22.206436
	0.650000	-21.916333
	0.655000	-21.271661
	0.660000	-21.497297
	0.665000	-22.206436
	0.670000	-21.916333
	0.675000	-21.207194
	0.680000	-21.497297
	0.685000	-22.141968
	0.690000	-21.884100
	0.695000	-21.207194
	0.700000	-21.529530
	0.705000	-22.077501
	0.710000	-21.851866
	0.715000	-21.207194
	0.720000	-21.465063
	0.725000	-22.174202
	0.730000	-21.884100
	0.735000	-21.174961
	0.740000	-21.465063
	0.745000	-22.141968
	0.750000	-21.948567
	0.755000	-21.142727
	0.760000	-21.400596
	0.765000	-22.077501
	0.770000	-21.851866
	0.775000	-21.174961
	0.780000	-21.400596
	0.785000	-22.077501
	0.790000	-21.851866
	0.795000	-21.110493
	0.800000	-21.368362
	0.805000	-22.109735
	0.810000	-21.787399
	0.815000	-21.142727
	0.820000	-21.271661
	0.825000	-22.077501
	0.830000	-21.722932
	0.835000	-21.078260
	0.840000	-21.368362
	0.845000	-22.013034
	0.850000	-21.787399
	0.855000	-21.078260
	0.860000	-21.432829
	0.865000	-22.045268
	0.870000	-21.819632
	0.875000	-21.078260
	0.880000	-21.336129
	0.885000	-21.916333
	0.890000	-21.722932
	0.895000	-21.142727
	0.900000	-21.271661
	0.905000	-21.948567
	0.910000	-21.690698
	0.915000	-20.981559
	0.920000	-21.336129
	0.925000	-21.980800
	0.930000	-21.658465
	0.935000	-21.078260
	0.940000	-21.239428
	0.945000	-21.916333
	0.950000	-21.722932
	0.955000	-21.013793
	0.960000	-21.336129
	0.965000	-22.045268
	0.970000	-21.722932
	0.975000	-21.046026
	0.980000	-21.271661
	0.985000	-22.013034
	0.990000	-21.658465
	0.995000	-21.013793
	1.000000	-21.271661
	1.005000	-21.916333
	1.010000	-21.626231
	1.015000	-21.013793
	1.020000	-21.271661
	1.025000	-21.916333
	1.030000	-21.658465
	1.035000	-21.046026
	1.040000	-21.336129
	1.045000	-22.013034
	1.050000	-21.658465
	1.055000	-21.046026
	1.060000	-21.271661
	1.065000	-21.948567
	1.070000	-21.722932
	1.075000	-21.046026
	1.080000	-21.303895
	1.085000	-21.884100
	1.090000	-21.658465
	1.095000	-21.046026
	1.100000	-21.271661
	1.105000	-21.948567
	1.110000	-21.658465
	1.115000	-21.078260
	1.120000	-21.174961
	1.125000	-21.819632
	1.130000	-21.593997
	1.135000	-20.981559
	1.140000	-21.239428
	1.145000	-21.884100
	1.150000	-21.593997
	1.155000	-20.917092
	1.160000	-21.142727
	1.165000	-21.884100
	1.170000	-21.658465
	1.175000	-20.917092
	1.180000	-21.174961
	1.185000	-21.819632
	1.190000	-21.593997
	1.195000	-20.917092
	1.200000	-21.046026
	1.205000	-21.787399
	1.210000	-21.561764
	1.215000	-20.820391
	1.220000	-21.110493
	1.225000	-21.755165
	1.230000	-21.465063
	1.235000	-20.788158
	1.240000	-21.013793
	1.245000	-21.690698
	1.250000	-21.432829
	1.255000	-20.723690
	1.260000	-20.949326
	1.265000	-21.561764
	1.270000	-21.400596
	1.275000	-20.594756
	1.280000	-20.852625
	1.285000	-21.368362
	1.290000	-21.078260
	1.295000	-20.401355
	1.300000	-20.433588
	1.305000	-20.949326
	1.310000	-20.562522
	1.315000	-19.692216
	1.320000	-19.692216
	1.325000	-20.079019
	1.330000	-19.627748
	1.335000	-18.692974
	1.340000	-18.660741
	1.345000	-19.240945
	1.350000	-18.789675
	1.355000	-17.983835
	1.360000	-17.983835
	1.365000	-18.660741
	1.370000	-18.435106
	1.375000	-17.532565
	1.380000	-17.725967
	1.385000	-18.338405
	1.390000	-18.080536
	1.395000	-17.371397
	1.400000	-17.532565
	1.405000	-18.241704
	1.410000	-18.016069
	1.415000	-17.242463
	1.420000	-17.500331
	1.425000	-18.177237
	1.430000	-17.887135
	1.435000	-17.242463
	1.440000	-17.339164
	1.445000	-18.080536
	1.450000	-17.854901
	1.455000	-17.145762
	1.460000	-17.306930
	1.465000	-17.983835
	1.470000	-17.693733
	1.475000	-17.113528
	1.480000	-17.210229
	1.485000	-17.919368
	1.490000	-17.725967
	1.495000	-17.016828
	1.500000	-17.081295
	1.505000	-17.790434
	1.510000	-17.532565
	1.515000	-16.855660
	1.520000	-17.049061
	1.525000	-17.629266
	1.530000	-17.435864
	1.535000	-16.758959
	1.540000	-16.920127
	1.545000	-17.468098
	1.550000	-17.274696
	1.555000	-16.597791
	1.560000	-16.791192
	1.565000	-17.339164
	1.570000	-17.177996
	1.575000	-16.436623
	1.580000	-16.662258
	1.585000	-17.242463
	1.590000	-17.049061
	1.595000	-16.372156
	1.600000	-16.630025
	1.605000	-17.210229
	1.610000	-17.081295
	1.615000	-16.372156
	1.620000	-16.597791
	1.625000	-17.177996
	1.630000	-17.016828
	1.635000	-16.404389
	1.640000	-16.501090
	1.645000	-17.210229
	1.650000	-16.952360
	1.655000	-16.372156
	1.660000	-16.468857
	1.665000	-17.210229
	1.670000	-17.049061
	1.675000	-16.307689
	1.680000	-16.468857
	1.685000	-17.177996
	1.690000	-16.952360
	1.695000	-16.275455
	1.700000	-16.468857
	1.705000	-17.081295
	1.710000	-16.952360
	1.715000	-16.307689
	1.720000	-16.501090
	1.725000	-17.113528
	1.730000	-16.984594
	1.735000	-16.372156
	1.740000	-16.501090
	1.745000	-17.210229
	1.750000	-17.016828
	1.755000	-16.372156
	1.760000	-16.533324
	1.765000	-17.177996
	1.770000	-17.049061
	1.775000	-16.436623
	1.780000	-16.533324
	1.785000	-17.242463
	1.790000	-16.984594
	1.795000	-16.468857
	1.800000	-16.694492
	1.805000	-17.306930
	1.810000	-17.113528
	1.815000	-16.533324
	1.820000	-16.726725
	1.825000	-17.403631
	1.830000	-17.242463
	1.835000	-16.662258
	1.840000	-16.758959
	1.845000	-17.468098
	1.850000	-17.403631
	1.855000	-16.726725
	1.860000	-16.952360
	1.865000	-17.693733
	1.870000	-17.532565
	1.875000	-16.984594
	1.880000	-17.145762
	1.885000	-17.919368
	1.890000	-17.822667
	1.895000	-17.371397
	1.900000	-17.629266
	1.905000	-18.402872
	1.910000	-18.435106
	1.915000	-17.887135
	1.920000	-18.241704
	1.925000	-18.983077
	1.930000	-18.950843
	1.935000	-18.435106
	1.940000	-18.821909
	1.945000	-19.563281
	1.950000	-19.595515
	1.955000	-19.176478
	1.960000	-19.466580
	1.965000	-20.498055
	1.970000	-20.465822
	1.975000	-20.111252
	1.980000	-20.562522
	1.985000	-21.368362
	1.990000	-21.497297
	1.995000	-21.046026
	2.000000	-21.465063
	2.005000	-22.270903
	2.010000	-22.238669
	2.015000	-21.851866
	2.020000	-22.109735
	2.025000	-22.883341
	2.030000	-22.883341
	2.035000	-22.270903
	2.040000	-22.528771
	2.045000	-23.173443
	2.050000	-23.108976
	2.055000	-22.561005
	2.060000	-22.754407
	2.065000	-23.528013
	2.070000	-23.334611
	2.075000	-22.754407
	2.080000	-22.947808
	2.085000	-23.656947
	2.090000	-23.528013
	2.095000	-22.883341
	2.100000	-23.108976
	2.105000	-23.753648
	2.110000	-23.592480
	2.115000	-23.044509
	2.120000	-23.108976
	2.125000	-23.818115
	2.130000	-23.624713
	2.135000	-23.076742
	2.140000	-23.237910
	2.145000	-23.914816
	2.150000	-23.721414
	2.155000	-23.108976
	2.160000	-23.173443
	2.165000	-23.914816
	2.170000	-23.721414
	2.175000	-23.076742
	2.180000	-23.270144
	2.185000	-23.947049
	2.190000	-23.785881
	2.195000	-23.108976
	2.200000	-23.302378
	2.205000	-23.882582
	2.210000	-23.753648
	2.215000	-23.108976
	2.220000	-23.270144
	2.225000	-23.882582
	2.230000	-23.753648
	2.235000	-23.141210
	2.240000	-23.205677
	2.245000	-23.947049
	2.250000	-23.689181
	2.255000	-23.076742
	2.260000	-23.237910
	2.265000	-23.947049
	2.270000	-23.721414
	2.275000	-23.076742
	2.280000	-23.173443
	2.285000	-23.785881
	2.290000	-23.785881
	2.295000	-23.044509
	2.300000	-23.173443
	2.305000	-23.753648
	2.310000	-23.656947
	2.315000	-23.012275
	2.320000	-23.012275
	2.325000	-23.850349
	2.330000	-23.624713
	2.335000	-22.915574
	2.340000	-23.012275
	2.345000	-23.689181
	2.350000	-23.592480
	2.355000	-22.883341
	2.360000	-22.980042
	2.365000	-23.689181
	2.370000	-23.431312
	2.375000	-22.818874
	2.380000	-22.947808
	2.385000	-23.528013
	2.390000	-23.399078
	2.395000	-22.754407
	2.400000	-22.818874
	2.405000	-23.528013
	2.410000	-23.302378
	2.415000	-22.722173
	2.420000	-22.818874
	2.425000	-23.463546
	2.430000	-23.302378
	2.435000	-22.561005
	2.440000	-22.786640
	2.445000	-23.334611
	2.450000	-23.205677
	2.455000	-22.561005
	2.460000	-22.689939
	2.465000	-23.366845
	2.470000	-23.237910
	2.475000	-22.528771
	2.480000	-22.689939
	2.485000	-23.270144
	2.490000	-23.108976
	2.495000	-22.399837
	2.500000	-22.561005
	2.505000	-23.141210
	2.510000	-23.076742
	2.515000	-22.367603
	2.520000	-22.432071
	2.525000	-23.108976
	2.530000	-22.947808
	2.535000	-22.238669
	2.540000	-22.367603
	2.545000	-23.108976
	2.550000	-22.980042
	2.555000	-22.238669
	2.560000	-22.367603
	2.565000	-23.076742
	2.570000	-22.786640
	2.575000	-22.206436
	2.580000	-22.270903
	2.585000	-23.012275
	2.590000	-22.786640
	2.595000	-22.109735
	2.600000	-22.141968
	2.605000	-22.883341
	2.610000	-22.722173
	2.615000	-22.045268
	2.620000	-22.077501
	2.625000	-22.786640
	2.630000	-22.722173
	2.635000	-21.980800
	2.640000	-22.045268
	2.645000	-22.818874
	2.650000	-22.657706
	2.655000	-21.980800
	2.660000	-22.109735
	2.665000	-22.786640
	2.670000	-22.593239
	2.675000	-21.980800
	2.680000	-22.109735
	2.685000	-22.754407
	2.690000	-22.657706
	2.695000	-21.948567
	2.700000	-22.077501
	2.705000	-22.786640
	2.710000	-22.625472
	2.715000	-21.884100
	2.720000	-22.109735
	2.725000	-22.786640
	2.730000	-22.561005
	2.735000	-21.851866
	2.740000	-22.077501
	2.745000	-22.689939
	2.750000	-22.528771
	2.755000	-21.819632
	2.760000	-21.948567
	2.765000	-22.689939
	2.770000	-22.528771
	2.775000	-21.787399
	2.780000	-21.916333
	2.785000	-22.593239
	2.790000	-22.561005
	2.795000	-21.819632
	2.800000	-21.916333
	2.805000	-22.625472
	2.810000	-22.464304
	2.815000	-21.755165
	2.820000	-21.916333
	2.825000	-22.561005
	2.830000	-22.496538
	2.835000	-21.787399
	2.840000	-21.884100
	2.845000	-22.496538
	2.850000	-22.496538
	2.855000	-21.755165
	2.860000	-21.884100
	2.865000	-22.561005
	2.870000	-22.335370
	2.875000	-21.722932
	2.880000	-21.787399
	2.885000	-22.464304
	2.890000	-22.432071
	2.895000	-21.658465
	2.900000	-21.722932
	2.905000	-22.464304
	2.910000	-22.399837
	2.915000	-21.690698
	2.920000	-21.819632
	2.925000	-22.464304
	2.930000	-22.335370
	2.935000	-21.626231
	2.940000	-21.755165
	2.945000	-22.432071
	2.950000	-22.367603
	2.955000	-21.593997
	2.960000	-21.787399
	2.965000	-22.496538
	2.970000	-22.303136
	2.975000	-21.626231
	2.980000	-21.755165
	2.985000	-22.496538
	2.990000	-22.238669
	2.995000	-21.593997
	3.000000	-21.658465
	3.005000	-22.399837
	3.010000	-22.335370
	3.015000	-21.593997
	3.020000	-21.690698
	3.025000	-22.399837
	3.030000	-22.303136
	3.035000	-21.626231
	3.040000	-21.658465
	3.045000	-22.399837
	3.050000	-22.303136
	3.055000	-21.561764
	3.060000	-21.755165
	3.065000	-22.464304
	3.070000	-22.367603
	3.075000	-21.626231
	3.080000	-21.787399
	3.085000	-22.367603
	3.090000	-22.335370
	3.095000	-21.626231
	3.100000	-21.658465
	3.105000	-22.432071
	3.110000	-22.399837
	3.115000	-21.593997
	3.120000	-21.658465
	3.125000	-22.399837
	3.130000	-22.303136
	3.135000	-21.593997
	3.140000	-21.690698
	3.145000	-22.335370
	3.150000	-22.335370
	3.155000	-21.593997
	3.160000	-21.626231
	3.165000	-22.399837
	3.170000	-22.303136
	3.175000	-21.593997
	3.180000	-21.626231
	3.185000	-22.367603
	3.190000	-22.270903
	3.195000	-21.561764
	3.200000	-21.690698
	3.205000	-22.399837
	3.210000	-22.303136
	3.215000	-21.593997
	3.220000	-21.626231
	3.225000	-22.367603
	3.230000	-22.303136
	3.235000	-21.593997
	3.240000	-21.626231
	3.245000	-22.432071
	3.250000	-22.238669
	3.255000	-21.593997
	3.260000	-21.690698
	3.265000	-22.335370
	3.270000	-22.303136
	3.275000	-21.626231
	3.280000	-21.561764
	3.285000	-22.335370
	3.290000	-22.270903
	3.295000	-21.529530
	3.300000	-21.658465
	3.305000	-22.367603
	3.310000	-22.270903
	3.315000	-21.593997
	3.320000	-21.658465
	3.325000	-22.432071
	3.330000	-22.303136
	3.335000	-21.561764
	3.340000	-21.755165
	3.345000	-22.464304
	3.350000	-22.335370
	3.355000	-21.690698
	3.360000	-21.722932
	3.365000	-22.496538
	3.370000	-22.464304
	3.375000	-21.755165
	3.380000	-21.819632
	3.385000	-22.561005
	3.390000	-22.464304
	3.395000	-21.755165
	3.400000	-21.819632
	3.405000	-22.625472
	3.410000	-22.528771
	3.415000	-21.755165
	3.420000	-21.851866
	3.425000	-22.625472
	3.430000	-22.496538
	3.435000	-21.787399
	3.440000	-21.916333
	3.445000	-22.689939
	3.450000	-22.561005
	3.455000	-21.819632
	3.460000	-21.884100
	3.465000	-22.561005
	3.470000	-22.561005
	3.475000	-21.819632
	3.480000	-21.916333
	3.485000	-22.593239
	3.490000	-22.561005
	3.495000	-21.755165
	3.500000	-21.787399
	3.505000	-22.593239
	3.510000	-22.496538
	3.515000	-21.787399
	3.520000	-21.916333
	3.525000	-22.528771
	3.530000	-22.464304
	3.535000	-21.722932
	3.540000	-21.851866
	3.545000	-22.528771
	3.550000	-22.432071
	3.555000	-21.819632
	3.560000	-21.755165
	3.565000	-22.464304
	3.570000	-22.399837
	3.575000	-21.690698
	3.580000	-21.787399
	3.585000	-22.464304
	3.590000	-22.367603
	3.595000	-21.658465
	3.600000	-21.690698
	3.605000	-22.367603
	3.610000	-22.367603
	3.615000	-21.561764
	3.620000	-21.529530
	3.625000	-22.303136
	3.630000	-22.174202
	3.635000	-21.497297
	3.640000	-21.529530
	3.645000	-22.303136
	3.650000	-22.141968
	3.655000	-21.465063
	3.660000	-21.432829
	3.665000	-22.109735
	3.670000	-22.109735
	3.675000	-21.303895
	3.680000	-21.400596
	3.685000	-22.045268
	3.690000	-22.045268
	3.695000	-21.271661
	3.700000	-21.271661
	3.705000	-22.045268
	3.710000	-21.948567
	3.715000	-21.303895
	3.720000	-21.271661
	3.725000	-21.948567
	3.730000	-21.916333
	3.735000	-21.174961
	3.740000	-21.239428
	3.745000	-21.916333
	3.750000	-21.819632
	3.755000	-21.110493
	3.760000	-21.271661
	3.765000	-21.819632
	3.770000	-21.851866
	3.775000	-21.142727
	3.780000	-21.110493
	3.785000	-21.851866
	3.790000	-21.819632
	3.795000	-21.142727
	3.800000	-21.110493
	3.805000	-21.787399
	3.810000	-21.819632
	3.815000	-21.046026
	3.820000	-21.078260
	3.825000	-21.787399
	3.830000	-21.658465
	3.835000	-20.949326
	3.840000	-21.046026
	3.845000	-21.722932
	3.850000	-21.722932
	3.855000	-20.981559
	3.860000	-20.981559
	3.865000	-21.787399
	3.870000	-21.690698
	3.875000	-20.949326
	3.880000	-20.981559
	3.885000	-21.658465
	3.890000	-21.561764
	3.895000	-20.852625
	3.900000	-20.884858
	3.905000	-21.690698
	3.910000	-21.561764
	3.915000	-20.788158
	3.920000	-20.788158
	3.925000	-21.465063
	3.930000	-21.497297
	3.935000	-20.691457
	3.940000	-20.659223
	3.945000	-21.336129
	3.950000	-21.174961
	3.955000	-20.336887
	3.960000	-20.046785
	3.965000	-20.659223
	3.970000	-20.369121
	3.975000	-19.498814
	3.980000	-19.369880
	3.985000	-19.853383
	3.990000	-19.659982
	3.995000	-18.757441
	4.000000	-18.692974
	4.005000	-19.208712
	4.010000	-19.112011
	4.015000	-18.338405
	4.020000	-18.306171
	4.025000	-18.918609
	4.030000	-18.789675
	4.035000	-18.048302
	4.040000	-17.983835
	4.045000	-18.596274
	4.050000	-18.499573
	4.055000	-17.661499
	4.060000	-17.597032
	4.065000	-18.241704
	4.070000	-18.080536
	4.075000	-17.403631
	4.080000	-17.274696
	4.085000	-17.951602
	4.090000	-17.822667
	4.095000	-17.145762
	4.100000	-17.145762
	4.105000	-17.725967
	4.110000	-17.629266
	4.115000	-16.984594
	4.120000	-16.984594
	4.125000	-17.564799
	4.130000	-17.532565
	4.135000	-16.791192
	4.140000	-16.823426
	4.145000	-17.435864
	4.150000	-17.306930
	4.155000	-16.597791
	4.160000	-16.565557
	4.165000	-17.242463
	4.170000	-17.210229
	4.175000	-16.501090
	4.180000	-16.468857
	4.185000	-17.145762
	4.190000	-17.081295
	4.195000	-16.339922
	4.200000	-16.404389
	4.205000	-17.049061
	4.210000	-16.952360
	4.215000	-16.243221
	4.220000	-16.275455
	4.225000	-16.952360
	4.230000	-16.952360
	4.235000	-16.243221
	4.240000	-16.210988
	4.245000	-16.984594
	4.250000	-16.823426
	4.255000	-16.210988
	4.260000	-16.178754
	4.265000	-16.855660
	4.270000	-16.726725
	4.275000	-16.082054
	4.280000	-16.017586
	4.285000	-16.630025
	4.290000	-16.630025
	4.295000	-15.953119
	4.300000	-15.985353
	4.305000	-16.662258
	4.310000	-16.630025
	4.315000	-15.985353
	4.320000	-16.017586
	4.325000	-16.662258
	4.330000	-16.630025
	4.335000	-15.985353
	4.340000	-16.049820
	4.345000	-16.758959
	4.350000	-16.758959
	4.355000	-16.082054
	4.360000	-16.017586
	4.365000	-16.758959
	4.370000	-16.694492
	4.375000	-16.178754
	4.380000	-16.082054
	4.385000	-16.791192
	4.390000	-16.920127
	4.395000	-16.210988
	4.400000	-16.275455
	4.405000	-16.952360
	4.410000	-16.952360
	4.415000	-16.372156
	4.420000	-16.307689
	4.425000	-17.016828
	4.430000	-17.049061
	4.435000	-16.468857
	4.440000	-16.404389
	4.445000	-17.113528
	4.450000	-17.177996
	4.455000	-16.533324
	4.460000	-16.565557
	4.465000	-17.177996
	4.470000	-17.242463
	4.475000	-16.630025
	4.480000	-16.630025
	4.485000	-17.274696
	4.490000	-17.339164
	4.495000	-16.758959
	4.500000	-16.758959
	4.505000	-17.403631
	4.510000	-17.403631
	4.515000	-16.887893
	4.520000	-16.823426
	4.525000	-17.532565
	4.530000	-17.597032
	4.535000	-16.952360
	4.540000	-17.016828
	4.545000	-17.693733
	4.550000	-17.758200
	4.555000	-17.242463
	4.560000	-17.371397
	4.565000	-18.112770
	4.570000	-18.177237
	4.575000	-17.661499
	4.580000	-17.725967
	4.585000	-18.467339
	4.590000	-18.596274
	4.595000	-18.048302
	4.600000	-18.241704
	4.605000	-19.079777
	4.610000	-19.273179
	4.615000	-18.789675
	4.620000	-19.015310
	4.625000	-19.756683
	4.630000	-19.885617
	4.635000	-19.402113
	4.640000	-19.531048
	4.645000	-20.240187
	4.650000	-20.465822
	4.655000	-20.046785
	4.660000	-20.143486
	4.665000	-20.949326
	4.670000	-21.174961
	4.675000	-20.594756
	4.680000	-20.788158
	4.685000	-21.497297
	4.690000	-21.690698
	4.695000	-21.239428
	4.700000	-21.207194
	4.705000	-22.077501
	4.710000	-22.141968
	4.715000	-21.690698
	4.720000	-21.658465
	4.725000	-22.496538
	4.730000	-22.561005
	4.735000	-22.013034
	4.740000	-22.077501
	4.745000	-22.754407
	4.750000	-22.883341
	4.755000	-22.238669
	4.760000	-22.238669
	4.765000	-23.076742
	4.770000	-23.108976
	4.775000	-22.432071
	4.780000	-22.432071
	4.785000	-23.205677
	4.790000	-23.237910
	4.795000	-22.528771
	4.800000	-22.561005
	4.805000	-23.270144
	4.810000	-23.302378
	4.815000	-22.657706
	4.820000	-22.657706
	4.825000	-23.302378
	4.830000	-23.302378
	4.835000	-22.657706
	4.840000	-22.625472
	4.845000	-23.334611
	4.850000	-23.334611
	4.855000	-22.657706
	4.860000	-22.593239
	4.865000	-23.205677
	4.870000	-23.270144
	4.875000	-22.625472
	4.880000	-22.496538
	4.885000	-23.205677
	4.890000	-23.302378
	4.895000	-22.593239
	4.900000	-22.496538
	4.905000	-23.141210
	4.910000	-23.270144
	4.915000	-22.464304
	4.920000	-22.432071
	4.925000	-23.173443
	4.930000	-23.173443
	4.935000	-22.528771
	4.940000	-22.367603
	4.945000	-23.141210
	4.950000	-23.141210
	4.955000	-22.367603
	4.960000	-22.399837
	4.965000	-23.173443
	4.970000	-23.173443
	4.975000	-22.528771
	4.980000	-22.432071
	4.985000	-23.108976
	4.990000	-23.173443
	4.995000	-22.464304
	5.000000	-22.432071
	5.005000	-23.076742
	5.010000	-23.076742
	5.015000	-22.464304
	5.020000	-22.399837
	5.025000	-23.076742
	5.030000	-23.108976
	5.035000	-22.496538
	5.040000	-22.464304
	5.045000	-23.108976
	5.050000	-23.044509
	5.055000	-22.367603
	5.060000	-22.367603
	5.065000	-23.044509
	5.070000	-23.044509
	5.075000	-22.367603
	5.080000	-22.270903
	5.085000	-22.915574
	5.090000	-23.012275
	5.095000	-22.367603
	5.100000	-22.335370
	5.105000	-23.012275
	5.110000	-23.012275
	5.115000	-22.270903
	5.120000	-22.238669
	5.125000	-22.883341
	5.130000	-22.947808
	5.135000	-22.238669
	5.140000	-22.174202
	5.145000	-22.883341
	5.150000	-22.915574
	5.155000	-22.174202
	5.160000	-22.141968
	5.165000	-22.786640
	5.170000	-22.851107
	5.175000	-22.206436
	5.180000	-22.077501
	5.185000	-22.754407
	5.190000	-22.883341
	5.195000	-22.109735
	5.200000	-22.077501
	5.205000	-22.786640
	5.210000	-22.818874
	5.215000	-22.141968
	5.220000	-22.077501
	5.225000	-22.754407
	5.230000	-22.786640
	5.235000	-22.045268
	5.240000	-21.980800
	5.245000	-22.722173
	5.250000	-22.689939
	5.255000	-22.045268
	5.260000	-22.013034
	5.265000	-22.657706
	5.270000	-22.754407
	5.275000	-22.013034
	5.280000	-21.980800
	5.285000	-22.625472
	5.290000	-22.722173
	5.295000	-21.948567
	5.300000	-21.948567
	5.305000	-22.593239
	5.310000	-22.689939
	5.315000	-21.948567
	5.320000	-21.884100
	5.325000	-22.625472
	5.330000	-22.657706
	5.335000	-21.948567
	5.340000	-21.787399
	5.345000	-22.561005
	5.350000	-22.625472
	5.355000	-21.884100
	5.360000	-21.819632
	5.365000	-22.464304
	5.370000	-22.561005
	5.375000	-21.851866
	5.380000	-21.819632
	5.385000	-22.528771
	5.390000	-22.561005
	5.395000	-21.948567
	5.400000	-21.787399
	5.405000	-22.496538
	5.410000	-22.593239
	5.415000	-21.851866
	5.420000	-21.722932
	5.425000	-22.464304
	5.430000	-22.496538
	5.435000	-21.819632
	5.440000	-21.722932
	5.445000	-22.399837
	5.450000	-22.496538
	5.455000	-21.755165
	5.460000	-21.755165
	5.465000	-22.335370
	5.470000	-22.496538
	5.475000	-21.722932
	5.480000	-21.593997
	5.485000	-22.335370
	5.490000	-22.432071
	5.495000	-21.755165
	5.500000	-21.593997
	5.505000	-22.303136
	5.510000	-22.367603
	5.515000	-21.722932
	5.520000	-21.529530
	5.525000	-22.270903
	5.530000	-22.303136
	5.535000	-21.529530
	5.540000	-21.626231
	5.545000	-22.270903
	5.550000	-22.432071
	5.555000	-21.561764
	5.560000	-21.529530
	5.565000	-22.238669
	5.570000	-22.303136
	5.575000	-21.593997
	5.580000	-21.561764
	5.585000	-22.174202
	5.590000	-22.335370
	5.595000	-21.626231
	5.600000	-21.497297
	5.605000	-22.206436
	5.610000	-22.303136
	5.615000	-21.529530
	5.620000	-21.497297
	5.625000	-22.174202
	5.630000	-22.270903
	5.635000	-21.529530
	5.640000	-21.529530
	5.645000	-22.141968
	5.650000	-22.270903
	5.655000	-21.561764
	5.660000	-21.432829
	5.665000	-22.141968
	5.670000	-22.238669
	5.675000	-21.561764
	5.680000	-21.465063
	5.685000	-22.238669
	5.690000	-22.238669
	5.695000	-21.561764
	5.700000	-21.529530
	5.705000	-22.174202
	5.710000	-22.270903
	5.715000	-21.626231
	5.720000	-21.529530
	5.725000	-22.206436
	5.730000	-22.238669
	5.735000	-21.593997
	5.740000	-21.465063
	5.745000	-22.206436
	5.750000	-22.270903
	5.755000	-21.529530
	5.760000	-21.432829
	5.765000	-22.141968
	5.770000	-22.335370
	5.775000	-21.593997
	5.780000	-21.529530
	5.785000	-22.206436
	5.790000	-22.303136
	5.795000	-21.593997
	5.800000	-21.432829
	5.805000	-22.141968
	5.810000	-22.238669
	5.815000	-21.529530
	5.820000	-21.400596
	5.825000	-22.174202
	5.830000	-22.238669
	5.835000	-21.465063
	5.840000	-21.400596
	5.845000	-22.174202
	5.850000	-22.238669
	5.855000	-21.529530
	5.860000	-21.432829
	5.865000	-22.109735
	5.870000	-22.206436
	5.875000	-21.465063
	5.880000	-21.368362
	5.885000	-22.141968
	5.890000	-22.206436
	5.895000	-21.561764
	5.900000	-21.400596
	5.905000	-22.141968
	5.910000	-22.206436
	5.915000	-21.465063
	5.920000	-21.432829
	5.925000	-22.077501
	5.930000	-22.174202
	5.935000	-21.432829
	5.940000	-21.400596
	5.945000	-22.077501
	5.950000	-22.109735
	5.955000	-21.432829
	5.960000	-21.368362
	5.965000	-22.045268
	5.970000	-22.206436
	5.975000	-21.465063
	5.980000	-21.336129
	5.985000	-22.077501
	5.990000	-22.109735
	5.995000	-21.432829
	6.000000	-21.271661
	6.005000	-22.013034
	6.010000	-22.174202
	6.015000	-21.400596
	6.020000	-21.336129
	6.025000	-21.980800
	6.030000	-22.109735
	6.035000	-21.368362
	6.040000	-21.271661
	6.045000	-21.948567
	6.050000	-22.013034
	6.055000	-21.400596
	6.060000	-21.239428
	6.065000	-21.980800
	6.070000	-22.013034
	6.075000	-21.368362
	6.080000	-21.142727
	6.085000	-22.013034
	6.090000	-21.980800
	6.095000	-21.400596
	6.100000	-21.239428
	6.105000	-21.948567
	6.110000	-22.045268
	6.115000	-21.368362
	6.120000	-21.174961
	6.125000	-21.884100
	6.130000	-22.045268
	6.135000	-21.271661
	6.140000	-21.174961
	6.145000	-21.819632
	6.150000	-21.916333
	6.155000	-21.303895
	6.160000	-21.110493
	6.165000	-21.851866
	6.170000	-21.980800
	6.175000	-21.271661
	6.180000	-21.142727
	6.185000	-21.851866
	6.190000	-21.948567
	6.195000	-21.207194
	6.200000	-21.078260
	6.205000	-21.787399
	6.210000	-21.916333
	6.215000	-21.142727
	6.220000	-20.981559
	6.225000	-21.722932
	6.230000	-21.851866
	6.235000	-21.142727
	6.240000	-21.046026
	6.245000	-21.690698
	6.250000	-21.851866
	6.255000	-21.110493
	6.260000	-21.013793
	6.265000	-21.658465
	6.270000	-21.722932
	6.275000	-21.110493
	6.280000	-20.949326
	6.285000	-21.722932
	6.290000	-21.787399
	6.295000	-21.046026
	6.300000	-20.949326
	6.305000	-21.593997
	6.310000	-21.722932
	6.315000	-21.046026
	6.320000	-20.884858
	6.325000	-21.626231
	6.330000	-21.690698
	6.335000	-21.046026
	6.340000	-20.820391
	6.345000	-21.626231
	6.350000	-21.658465
	6.355000	-21.078260
	6.360000	-20.917092
	6.365000	-21.561764
	6.370000	-21.722932
	6.375000	-20.981559
	6.380000	-20.820391
	6.385000	-21.561764
	6.390000	-21.690698
	6.395000	-20.949326
	6.400000	-20.884858
	6.405000	-21.593997
	6.410000	-21.626231
	6.415000	-20.949326
	6.420000	-20.884858
	6.425000	-21.529530
	6.430000	-21.690698
	6.435000	-20.981559
	6.440000	-20.852625
	6.445000	-21.497297
	6.450000	-21.690698
	6.455000	-20.981559
	6.460000	-20.788158
	6.465000	-21.497297
	6.470000	-21.658465
	6.475000	-20.917092
	6.480000	-20.820391
	6.485000	-21.497297
	6.490000	-21.593997
	6.495000	-20.917092
	6.500000	-20.884858
	6.505000	-21.561764
	6.510000	-21.658465
	6.515000	-20.981559
	6.520000	-20.788158
	6.525000	-21.497297
	6.530000	-21.626231
	6.535000	-20.917092
	6.540000	-20.788158
	6.545000	-21.497297
	6.550000	-21.626231
	6.555000	-20.949326
	6.560000	-20.820391
	6.565000	-21.561764
	6.570000	-21.593997
	6.575000	-20.884858
	6.580000	-20.723690
	6.585000	-21.497297
	6.590000	-21.658465
	6.595000	-20.884858
	6.600000	-20.820391
	6.605000	-21.497297
	6.610000	-21.593997
	6.615000	-20.949326
	6.620000	-20.755924
	6.625000	-21.529530
	6.630000	-21.593997
	6.635000	-20.884858
	6.640000	-20.788158
	6.645000	-21.432829
	6.650000	-21.593997
	6.655000	-20.917092
	6.660000	-20.788158
	6.665000	-21.497297
	6.670000	-21.593997
	6.675000	-20.852625
	6.680000	-20.723690
	6.685000	-21.400596
	6.690000	-21.626231
	6.695000	-20.884858
	6.700000	-20.755924
	6.705000	-21.432829
	6.710000	-21.593997
	6.715000	-20.852625
	6.720000	-20.755924
	6.725000	-21.432829
	6.730000	-21.561764
	6.735000	-20.820391
	6.740000	-20.626990
	6.745000	-21.368362
	6.750000	-21.497297
	6.755000	-20.884858
	6.760000	-20.626990
	6.765000	-21.336129
	6.770000	-21.529530
	6.775000	-20.659223
	6.780000	-20.626990
	6.785000	-21.336129
	6.790000	-21.336129
	6.795000	-20.659223
	6.800000	-20.594756
	6.805000	-21.207194
	6.810000	-21.368362
	6.815000	-20.659223
	6.820000	-20.530289
	6.825000	-21.110493
	6.830000	-21.303895
	6.835000	-20.594756
	6.840000	-20.369121
	6.845000	-21.110493
	6.850000	-21.303895
	6.855000	-20.498055
	6.860000	-20.433588
	6.865000	-20.981559
	6.870000	-21.142727
	6.875000	-20.465822
	6.880000	-20.304654
	6.885000	-20.917092
	6.890000	-21.207194
	6.895000	-20.433588
	6.900000	-20.175719
	6.905000	-20.981559
	6.910000	-21.078260
	6.915000	-20.304654
	6.920000	-20.175719
	6.925000	-20.917092
	6.930000	-21.078260
	6.935000	-20.336887
	6.940000	-20.143486
	6.945000	-20.820391
	6.950000	-21.013793
	6.955000	-20.336887
	6.960000	-20.046785
	6.965000	-20.884858
	6.970000	-20.981559
	6.975000	-20.240187
	6.980000	-20.111252
	6.985000	-20.820391
	6.990000	-20.917092
	6.995000	-20.272420
	7.000000	-20.046785
	7.005000	-20.723690
	7.010000	-20.884858
	7.015000	-20.240187
	7.020000	-19.982318
	7.025000	-20.723690
	7.030000	-20.917092
	7.035000	-20.240187
	7.040000	-19.917851
	7.045000	-20.659223
	7.050000	-20.820391
	7.055000	-20.175719
	7.060000	-20.014551
	7.065000	-20.626990
	7.070000	-20.820391
	7.075000	-20.111252
	7.080000	-19.982318
	7.085000	-20.562522
	7.090000	-20.723690
	7.095000	-20.079019
	7.100000	-19.885617
	7.105000	-20.626990
	7.110000	-20.723690
	7.115000	-20.014551
	7.120000	-19.917851
	7.125000	-20.594756
	7.130000	-20.820391
	7.135000	-20.046785
	7.140000	-19.917851
	7.145000	-20.594756
	7.150000	-20.820391
	7.155000	-20.175719
	7.160000	-19.982318
	7.165000	-20.659223
	7.170000	-20.884858
	7.175000	-20.111252
	7.180000	-20.046785
	7.185000	-20.659223
	7.190000	-20.884858
	7.195000	-20.240187
	7.200000	-20.014551
	7.205000	-20.723690
	7.210000	-20.981559
	7.215000	-20.240187
	7.220000	-20.046785
	7.225000	-20.788158
	7.230000	-20.981559
	7.235000	-20.336887
	7.240000	-20.079019
	7.245000	-20.755924
	7.250000	-20.917092
	7.255000	-20.304654
	7.260000	-20.111252
	7.265000	-20.820391
	7.270000	-21.013793
	7.275000	-20.304654
	7.280000	-20.046785
	7.285000	-20.723690
	7.290000	-20.820391
	7.295000	-20.014551
	7.300000	-19.627748
	7.305000	-20.111252
	7.310000	-19.982318
	7.315000	-19.079777
	7.320000	-18.596274
	7.325000	-19.176478
	7.330000	-19.047544
	7.335000	-18.306171
	7.340000	-17.790434
	7.345000	-18.402872
	7.350000	-18.435106
	7.355000	-17.758200
	7.360000	-17.371397
	7.365000	-17.983835
	7.370000	-18.080536
	7.375000	-17.274696
	7.380000	-17.049061
	7.385000	-17.597032
	7.390000	-17.661499
	7.395000	-16.920127
	7.400000	-16.597791
	7.405000	-17.145762
	7.410000	-17.274696
	7.415000	-16.501090
	7.420000	-16.307689
	7.425000	-16.855660
	7.430000	-17.049061
	7.435000	-16.275455
	7.440000	-16.114287
	7.445000	-16.630025
	7.450000	-16.823426
	7.455000	-16.146521
	7.460000	-15.920886
	7.465000	-16.436623
	7.470000	-16.662258
	7.475000	-15.920886
	7.480000	-15.727484
	7.485000	-16.307689
	7.490000	-16.501090
	7.495000	-15.888652
	7.500000	-15.566316
	7.505000	-16.210988
	7.510000	-16.404389
	7.515000	-15.727484
	7.520000	-15.534083
	7.525000	-16.146521
	7.530000	-16.339922
	7.535000	-15.695250
	7.540000	-15.437382
	7.545000	-16.146521
	7.550000	-16.275455
	7.555000	-15.630783
	7.560000	-15.437382
	7.565000	-16.082054
	7.570000	-16.243221
	7.575000	-15.663017
	7.580000	-15.437382
	7.585000	-16.082054
	7.590000	-16.243221
	7.595000	-15.534083
	7.600000	-15.372915
	7.605000	-16.049820
	7.610000	-16.210988
	7.615000	-15.566316
	7.620000	-15.308447
	7.625000	-15.985353
	7.630000	-16.114287
	7.635000	-15.630783
	7.640000	-15.405148
	7.645000	-16.017586
	7.650000	-16.210988
	7.655000	-15.630783
	7.660000	-15.469615
	7.665000	-16.049820
	7.670000	-16.178754
	7.675000	-15.663017
	7.680000	-15.534083
	7.685000	-16.178754
	7.690000	-16.339922
	7.695000	-15.727484
	7.700000	-15.630783
	7.705000	-16.243221
	7.710000	-16.436623
	7.715000	-15.888652
	7.720000	-15.727484
	7.725000	-16.339922
	7.730000	-16.468857
	7.735000	-15.953119
	7.740000	-15.759718
	7.745000	-16.372156
	7.750000	-16.662258
	7.755000	-16.017586
	7.760000	-15.856418
	7.765000	-16.501090
	7.770000	-16.791192
	7.775000	-16.178754
	7.780000	-16.049820
	7.785000	-16.694492
	7.790000	-16.887893
	7.795000	-16.339922
	7.800000	-16.178754
	7.805000	-16.791192
	7.810000	-17.145762
	7.815000	-16.565557
	7.820000	-16.372156
	7.825000	-17.081295
	7.830000	-17.468098
	7.835000	-16.855660
	7.840000	-16.694492
	7.845000	-17.435864
	7.850000	-17.758200
	7.855000	-17.210229
	7.860000	-17.210229
	7.865000	-17.951602
	7.870000	-18.273938
	7.875000	-17.822667
	7.880000	-17.822667
	7.885000	-18.596274
	7.890000	-18.983077
	7.895000	-18.499573
	7.900000	-18.435106
	7.905000	-19.144245
	7.910000	-19.498814
	7.915000	-19.047544
	7.920000	-19.079777
	7.925000	-19.853383
	7.930000	-20.240187
	7.935000	-19.788916
	7.940000	-19.821150
	7.945000	-20.691457
	7.950000	-21.078260
	7.955000	-20.594756
	7.960000	-20.530289
	7.965000	-21.303895
	7.970000	-21.690698
	7.975000	-21.110493
	7.980000	-21.110493
	7.985000	-21.787399
	7.990000	-22.077501
	7.995000	-21.626231
	8.000000	-21.368362
	8.005000	-22.109735
	8.010000	-22.367603
	8.015000	-21.819632
	8.020000	-21.690698
	8.025000	-22.335370
	8.030000	-22.593239
	8.035000	-21.948567
	8.040000	-21.755165
	8.045000	-22.528771
	8.050000	-22.754407
	8.055000	-22.206436
	8.060000	-21.980800
	8.065000	-22.625472
	8.070000	-22.883341
	8.075000	-22.270903
	8.080000	-21.980800
	8.085000	-22.689939
	8.090000	-22.818874
	8.095000	-22.238669
	8.100000	-21.916333
	8.105000	-22.561005
	8.110000	-22.754407
	8.115000	-22.141968
	8.120000	-21.916333
	8.125000	-22.561005
	8.130000	-22.754407
	8.135000	-21.948567
	8.140000	-21.819632
	8.145000	-22.432071
	8.150000	-22.625472
	8.155000	-21.948567
	8.160000	-21.626231
	8.165000	-22.238669
	8.170000	-22.496538
	8.175000	-21.884100
	8.180000	-21.658465
	8.185000	-22.335370
	8.190000	-22.561005
	8.195000	-21.819632
	8.200000	-21.658465
	8.205000	-22.303136
	8.210000	-22.561005
	8.215000	-21.948567
	8.220000	-21.658465
	8.225000	-22.367603
	8.230000	-22.561005
	8.235000	-21.819632
	8.240000	-21.722932
	8.245000	-22.303136
	8.250000	-22.561005
	8.255000	-21.884100
	8.260000	-21.722932
	8.265000	-22.303136
	8.270000	-22.496538
	8.275000	-21.948567
	8.280000	-21.690698
	8.285000	-22.303136
	8.290000	-22.528771
	8.295000	-21.884100
	8.300000	-21.658465
	8.305000	-22.303136
	8.310000	-22.561005
	8.315000	-21.851866
	8.320000	-21.626231
	8.325000	-22.270903
	8.330000	-22.496538
	8.335000	-21.787399
	8.340000	-21.593997
	8.345000	-22.270903
	8.350000	-22.367603
	8.355000	-21.755165
	8.360000	-21.529530
	8.365000	-22.174202
	8.370000	-22.464304
	8.375000	-21.755165
	8.380000	-21.465063
	8.385000	-22.141968
	8.390000	-22.335370
	8.395000	-21.755165
	8.400000	-21.497297
	8.405000	-22.077501
	8.410000	-22.432071
	8.415000	-21.658465
	8.420000	-21.529530
	8.425000	-22.141968
	8.430000	-22.432071
	8.435000	-21.722932
	8.440000	-21.432829
	8.445000	-22.174202
	8.450000	-22.335370
	8.455000	-21.722932
	8.460000	-21.529530
	8.465000	-22.174202
	8.470000	-22.399837
	8.475000	-21.787399
	8.480000	-21.561764
	8.485000	-22.141968
	8.490000	-22.432071
	8.495000	-21.819632
	8.500000	-21.497297
	8.505000	-22.238669
	8.510000	-22.464304
	8.515000	-21.787399
	8.520000	-21.497297
	8.525000	-22.174202
	8.530000	-22.367603
	8.535000	-21.819632
	8.540000	-21.529530
	8.545000	-22.206436
	8.550000	-22.367603
	8.555000	-21.722932
	8.560000	-21.497297
	8.565000	-22.206436
	8.570000	-22.399837
	8.575000	-21.722932
	8.580000	-21.497297
	8.585000	-22.238669
	8.590000	-22.464304
	8.595000	-21.722932
	8.600000	-21.465063
	8.605000	-22.174202
	8.610000	-22.335370
	8.615000	-21.690698
	8.620000	-21.400596
	8.625000	-22.077501
	8.630000	-22.335370
	8.635000	-21.658465
	8.640000	-21.432829
	8.645000	-22.109735
	8.650000	-22.335370
	8.655000	-21.787399
	8.660000	-21.465063
	8.665000	-22.109735
	8.670000	-22.335370
	8.675000	-21.626231
	8.680000	-21.400596
	8.685000	-22.077501
	8.690000	-22.335370
	8.695000	-21.658465
	8.700000	-21.465063
	8.705000	-22.077501
	8.710000	-22.303136
	8.715000	-21.593997
	8.720000	-21.400596
	8.725000	-22.077501
	8.730000	-22.303136
	8.735000	-21.658465
	8.740000	-21.368362
	8.745000	-22.045268
	8.750000	-22.270903
	8.755000	-21.626231
	8.760000	-21.368362
	8.765000	-22.013034
	8.770000	-22.238669
	8.775000	-21.626231
	8.780000	-21.336129
	8.785000	-21.948567
	8.790000	-22.238669
	8.795000	-21.593997
	8.800000	-21.368362
	8.805000	-22.045268
	8.810000	-22.174202
	8.815000	-21.529530
	8.820000	-21.303895
	8.825000	-21.980800
	8.830000	-22.109735
	8.835000	-21.593997
	8.840000	-21.239428
	8.845000	-21.916333
	8.850000	-22.174202
	8.855000	-21.497297
	8.860000	-21.271661
	8.865000	-21.916333
	8.870000	-22.206436
	8.875000	-21.497297
	8.880000	-21.207194
	8.885000	-21.916333
	8.890000	-22.174202
	8.895000	-21.497297
	8.900000	-21.271661
	8.905000	-21.916333
	8.910000	-22.077501
	8.915000	-21.529530
	8.920000	-21.174961
	8.925000	-21.851866
	8.930000	-22.077501
	8.935000	-21.432829
	8.940000	-21.174961
	8.945000	-21.851866
	8.950000	-22.174202
	8.955000	-21.465063
	8.960000	-21.174961
	8.965000	-21.819632
	8.970000	-22.077501
	8.975000	-21.368362
	8.980000	-21.110493
	8.985000	-21.851866
	8.990000	-22.109735
	8.995000	-21.368362
	9.000000	-21.174961
	9.005000	-21.755165
	9.010000	-22.013034
	9.015000	-21.400596
	9.020000	-21.013793
	9.025000	-21.787399
	9.030000	-22.013034
	9.035000	-21.303895
	9.040000	-21.046026
	9.045000	-21.755165
	9.050000	-21.948567
	9.055000	-21.303895
	9.060000	-21.046026
	9.065000	-21.755165
	9.070000	-21.980800
	9.075000	-21.400596
	9.080000	-21.078260
	9.085000	-21.722932
	9.090000	-21.980800
	9.095000	-21.336129
	9.100000	-21.046026
	9.105000	-21.755165
	9.110000	-21.980800
	9.115000	-21.336129
	9.120000	-21.110493
	9.125000	-21.722932
	9.130000	-22.109735
	9.135000	-21.368362
	9.140000	-21.013793
	9.145000	-21.722932
	9.150000	-22.045268
	9.155000	-21.368362
	9.160000	-21.078260
	9.165000	-21.755165
	9.170000	-22.045268
	9.175000	-21.400596
	9.180000	-21.013793
	9.185000	-21.787399
	9.190000	-21.980800
	9.195000	-21.336129
	9.200000	-21.046026
	9.205000	-21.626231
	9.210000	-21.980800
	9.215000	-21.303895
	9.220000	-21.013793
	9.225000	-21.722932
	9.230000	-21.948567
	9.235000	-21.303895
	9.240000	-21.013793
	9.245000	-21.626231
	9.250000	-21.916333
	9.255000	-21.207194
	9.260000	-21.013793
	9.265000	-21.626231
	9.270000	-21.851866
	9.275000	-21.174961
	9.280000	-20.949326
	9.285000	-21.593997
	9.290000	-21.755165
	9.295000	-21.271661
	9.300000	-20.852625
	9.305000	-21.626231
	9.310000	-21.884100
	9.315000	-21.239428
	9.320000	-20.917092
	9.325000	-21.529530
	9.330000	-21.787399
	9.335000	-21.110493
	9.340000	-20.917092
	9.345000	-21.529530
	9.350000	-21.819632
	9.355000	-21.174961
	9.360000	-20.852625
	9.365000	-21.529530
	9.370000	-21.755165
	9.375000	-21.046026
	9.380000	-20.820391
	9.385000	-21.465063
	9.390000	-21.690698
	9.395000	-21.142727
	9.400000	-20.788158
	9.405000	-21.497297
	9.410000	-21.755165
	9.415000	-21.046026
	9.420000	-20.884858
	9.425000	-21.465063
	9.430000	-21.626231
	9.435000	-21.013793
	9.440000	-20.852625
	9.445000	-21.465063
	9.450000	-21.755165
	9.455000	-21.078260
	9.460000	-20.884858
	9.465000	-21.432829
	9.470000	-21.690698
	9.475000	-21.110493
	9.480000	-20.755924
	9.485000	-21.400596
	9.490000	-21.690698
	9.495000	-21.046026
	9.500000	-20.755924
	9.505000	-21.432829
	9.510000	-21.722932
	9.515000	-21.013793
	9.520000	-20.788158
	9.525000	-21.432829
	9.530000	-21.755165
	9.535000	-21.013793
	9.540000	-20.626990
	9.545000	-21.368362
	9.550000	-21.658465
	9.555000	-20.981559
	9.560000	-20.755924
	9.565000	-21.432829
	9.570000	-21.690698
	9.575000	-21.046026
	9.580000	-20.659223
	9.585000	-21.368362
	9.590000	-21.593997
	9.595000	-21.013793
	9.600000	-20.788158
	9.605000	-21.400596
	9.610000	-21.593997
	9.615000	-20.884858
	9.620000	-20.723690
	9.625000	-21.336129
	9.630000	-21.593997
	9.635000	-20.949326
	9.640000	-20.723690
	9.645000	-21.303895
	9.650000	-21.658465
	9.655000	-20.917092
	9.660000	-20.594756
	9.665000	-21.303895
	9.670000	-21.593997
	9.675000	-20.949326
	9.680000	-20.691457
	9.685000	-21.271661
	9.690000	-21.561764
	9.695000	-20.884858
	9.700000	-20.530289
	9.705000	-21.303895
	9.710000	-21.561764
	9.715000	-20.852625
	9.720000	-20.530289
	9.725000	-21.271661
	9.730000	-21.561764
	9.735000	-20.981559
	9.740000	-20.626990
	9.745000	-21.336129
	9.750000	-21.561764
	9.755000	-20.852625
	9.760000	-20.594756
	9.765000	-21.239428
	9.770000	-21.561764
	9.775000	-20.949326
	9.780000	-20.691457
	9.785000	-21.336129
	9.790000	-21.561764
	9.795000	-20.981559
	9.800000	-20.755924
	9.805000	-21.400596
	9.810000	-21.690698
	9.815000	-21.013793
	9.820000	-20.820391
	9.825000	-21.400596
	9.830000	-21.819632
	9.835000	-21.110493
	9.840000	-20.820391
	9.845000	-21.529530
	9.850000	-21.787399
	9.855000	-21.142727
	9.860000	-20.917092
	9.865000	-21.529530
	9.870000	-21.819632
	9.875000	-21.239428
	9.880000	-20.949326
	9.885000	-21.658465
	9.890000	-21.851866
	9.895000	-21.239428
	9.900000	-20.981559
	9.905000	-21.658465
	9.910000	-21.948567
	9.915000	-21.303895
	9.920000	-21.013793
	9.925000	-21.658465
	9.930000	-21.884100
	9.935000	-21.271661
	9.940000	-21.046026
	9.945000	-21.722932
	9.950000	-22.109735
	9.955000	-21.368362
	9.960000	-21.046026
	9.965000	-21.787399
	9.970000	-22.045268
	9.975000	-21.432829
	9.980000	-21.013793
	9.985000	-21.755165
	9.990000	-22.045268
	9.995000	-21.336129
	10.000000	-21.046026
	10.005000	-21.755165
	10.010000	-21.980800
	10.015000	-21.336129
	10.020000	-20.949326
	10.025000	-21.690698
	10.030000	-21.851866
	10.035000	-21.239428
	10.040000	-20.917092
	10.045000	-21.593997
	10.050000	-21.787399
	10.055000	-21.142727
	10.060000	-20.788158
	10.065000	-21.400596
	10.070000	-21.722932
	10.075000	-21.013793
	10.080000	-20.691457
	10.085000	-21.303895
	10.090000	-21.529530
	10.095000	-20.949326
	10.100000	-20.562522
	10.105000	-21.207194
	10.110000	-21.432829
	10.115000	-20.820391
	10.120000	-20.433588
	10.125000	-21.046026
	10.130000	-21.336129
	10.135000	-20.659223
	10.140000	-20.433588
	10.145000	-21.013793
	10.150000	-21.336129
	10.155000	-20.530289
	10.160000	-20.304654
	10.165000	-21.013793
	10.170000	-21.271661
	10.175000	-20.562522
	10.180000	-20.272420
	10.185000	-20.917092
	10.190000	-21.207194
	10.195000	-20.594756
	10.200000	-20.272420
	10.205000	-20.917092
	10.210000	-21.239428
	10.215000	-20.498055
	10.220000	-20.240187
	10.225000	-20.884858
	10.230000	-21.207194
	10.235000	-20.594756
	10.240000	-20.369121
	10.245000	-20.981559
	10.250000	-21.239428
	10.255000	-20.530289
	10.260000	-20.369121
	10.265000	-20.949326
	10.270000	-21.174961
	10.275000	-20.691457
	10.280000	-20.304654
	10.285000	-21.013793
	10.290000	-21.303895
	10.295000	-20.626990
	10.300000	-20.369121
	10.305000	-20.981559
	10.310000	-21.239428
	10.315000	-20.626990
	10.320000	-20.304654
	10.325000	-20.917092
	10.330000	-21.239428
	10.335000	-20.691457
	10.340000	-20.369121
	10.345000	-20.917092
	10.350000	-21.368362
	10.355000	-20.594756
	10.360000	-20.369121
	10.365000	-21.046026
	10.370000	-21.271661
	10.375000	-20.594756
	10.380000	-20.272420
	10.385000	-20.917092
	10.390000	-21.174961
	10.395000	-20.562522
	10.400000	-20.304654
	10.405000	-20.884858
	10.410000	-21.207194
	10.415000	-20.530289
	10.420000	-20.272420
	10.425000	-20.852625
	10.430000	-21.239428
	10.435000	-20.562522
	10.440000	-20.304654
	10.445000	-20.884858
	10.450000	-21.174961
	10.455000	-20.594756
	10.460000	-20.240187
	10.465000	-20.852625
	10.470000	-21.207194
	10.475000	-20.594756
	10.480000	-20.272420
	10.485000	-20.949326
	10.490000	-21.271661
	10.495000	-20.562522
	10.500000	-20.304654
	10.505000	-20.949326
	10.510000	-21.239428
	10.515000	-20.594756
	10.520000	-20.240187
	10.525000	-20.981559
	10.530000	-21.239428
	10.535000	-20.594756
	10.540000	-20.240187
	10.545000	-20.949326
	10.550000	-21.239428
	10.555000	-20.562522
	10.560000	-20.240187
	10.565000	-20.820391
	10.570000	-21.207194
	10.575000	-20.465822
	10.580000	-20.175719
	10.585000	-20.755924
	10.590000	-20.981559
	10.595000	-20.304654
	10.600000	-19.821150
	10.605000	-20.240187
	10.610000	-20.272420
	10.615000	-19.402113
	10.620000	-18.757441
	10.625000	-19.144245
	10.630000	-19.047544
	10.635000	-18.209470
	10.640000	-17.693733
	10.645000	-18.145003
	10.650000	-18.241704
	10.655000	-17.564799
	10.660000	-17.081295
	10.665000	-17.693733
	10.670000	-17.790434
	10.675000	-17.113528
	10.680000	-16.662258
	10.685000	-17.081295
	10.690000	-17.274696
	10.695000	-16.597791
	10.700000	-16.178754
	10.705000	-16.597791
	10.710000	-16.855660
	10.715000	-16.082054
	10.720000	-15.727484
	10.725000	-16.275455
	10.730000	-16.501090
	10.735000	-15.791951
	10.740000	-15.469615
	10.745000	-15.985353
	10.750000	-16.146521
	10.755000	-15.501849
	10.760000	-15.147279
	10.765000	-15.727484
	10.770000	-15.920886
	10.775000	-15.211747
	10.780000	-14.921644
	10.785000	-15.501849
	10.790000	-15.791951
	10.795000	-15.018345
	10.800000	-14.696009
	10.805000	-15.276214
	10.810000	-15.598550
	10.815000	-14.986111
	10.820000	-14.631542
	10.825000	-15.243980
	10.830000	-15.598550
	10.835000	-14.921644
	10.840000	-14.696009
	10.845000	-15.276214
	10.850000	-15.534083
	10.855000	-14.986111
	10.860000	-14.728243
	10.865000	-15.340681
	10.870000	-15.630783
	10.875000	-15.050579
	10.880000	-14.824944
	10.885000	-15.405148
	10.890000	-15.695250
	10.895000	-15.147279
	10.900000	-14.792710
	10.905000	-15.405148
	10.910000	-15.791951
	10.915000	-15.147279
	10.920000	-14.889411
	10.925000	-15.437382
	10.930000	-15.791951
	10.935000	-15.211747
	10.940000	-14.953878
	10.945000	-15.501849
	10.950000	-15.888652
	10.955000	-15.211747
	10.960000	-15.082812
	10.965000	-15.663017
	10.970000	-15.985353
	10.975000	-15.340681
	10.980000	-15.179513
	10.985000	-15.727484
	10.990000	-16.082054
	10.995000	-15.437382
	11.000000	-15.276214
	11.005000	-15.856418
	11.010000	-16.178754
	11.015000	-15.534083
	11.020000	-15.308447
	11.025000	-15.953119
	11.030000	-16.243221
	11.035000	-15.727484
	11.040000	-15.437382
	11.045000	-15.953119
	11.050000	-16.339922
	11.055000	-15.791951
	11.060000	-15.469615
	11.065000	-16.049820
	11.070000	-16.468857
	11.075000	-15.888652
	11.080000	-15.598550
	11.085000	-16.178754
	11.090000	-16.597791
	11.095000	-15.985353
	11.100000	-15.759718
	11.105000	-16.404389
	11.110000	-16.694492
	11.115000	-16.114287
	11.120000	-15.888652
	11.125000	-16.565557
	11.130000	-16.823426
	11.135000	-16.339922
	11.140000	-16.082054
	11.145000	-16.758959
	11.150000	-17.049061
	11.155000	-16.630025
	11.160000	-16.436623
	11.165000	-17.081295
	11.170000	-17.403631
	11.175000	-16.952360
	11.180000	-16.855660
	11.185000	-17.468098
	11.190000	-17.854901
	11.195000	-17.435864
	11.200000	-17.274696
	11.205000	-17.983835
	11.210000	-18.499573
	11.215000	-18.048302
	11.220000	-17.854901
	11.225000	-18.692974
	11.230000	-19.079777
	11.235000	-18.692974
	11.240000	-18.564040
	11.245000	-19.466580
	11.250000	-19.950084
	11.255000	-19.563281
	11.260000	-19.498814
	11.265000	-20.240187
	11.270000	-20.691457
	11.275000	-20.336887
	11.280000	-20.079019
	11.285000	-20.884858
	11.290000	-21.271661
	11.295000	-20.755924
	11.300000	-20.498055
	11.305000	-21.239428
	11.310000	-21.690698
	11.315000	-21.174961
	11.320000	-21.013793
	11.325000	-21.755165
	11.330000	-22.141968
	11.335000	-21.561764
	11.340000	-21.432829
	11.345000	-22.077501
	11.350000	-22.593239
	11.355000	-22.045268
	11.360000	-21.787399
	11.365000	-22.528771
	11.370000	-22.883341
	11.375000	-22.335370
	11.380000	-22.045268
	11.385000	-22.689939
	11.390000	-23.076742
	11.395000	-22.464304
	11.400000	-22.270903
	11.405000	-22.883341
	11.410000	-23.270144
	11.415000	-22.689939
	11.420000	-22.464304
	11.425000	-23.012275
	11.430000	-23.431312
	11.435000	-22.883341
	11.440000	-22.561005
	11.445000	-23.173443
	11.450000	-23.463546
	11.455000	-22.883341
	11.460000	-22.657706
	11.465000	-23.237910
	11.470000	-23.592480
	11.475000	-22.947808
	11.480000	-22.722173
	11.485000	-23.302378
	11.490000	-23.689181
	11.495000	-23.012275
	11.500000	-22.754407
	11.505000	-23.302378
	11.510000	-23.721414
	11.515000	-23.012275
	11.520000	-22.786640
	11.525000	-23.399078
	11.530000	-23.689181
	11.535000	-23.076742
	11.540000	-22.851107
	11.545000	-23.431312
	11.550000	-23.785881
	11.555000	-23.173443
	11.560000	-22.883341
	11.565000	-23.399078
	11.570000	-23.656947
	11.575000	-23.141210
	11.580000	-22.754407
	11.585000	-23.431312
	11.590000	-23.656947
	11.595000	-23.076742
	11.600000	-22.754407
	11.605000	-23.237910
	11.610000	-23.624713
	11.615000	-22.915574
	11.620000	-22.593239
	11.625000	-23.205677
	11.630000	-23.528013
	11.635000	-22.883341
	11.640000	-22.625472
	11.645000	-23.108976
	11.650000	-23.528013
	11.655000	-22.915574
	11.660000	-22.593239
	11.665000	-23.237910
	11.670000	-23.463546
	11.675000	-22.786640
	11.680000	-22.561005
	11.685000	-23.141210
	11.690000	-23.431312
	11.695000	-22.915574
	11.700000	-22.528771
	11.705000	-23.141210
	11.710000	-23.399078
	11.715000	-22.851107
	11.720000	-22.432071
	11.725000	-23.076742
	11.730000	-23.431312
	11.735000	-22.851107
	11.740000	-22.496538
	11.745000	-23.076742
	11.750000	-23.366845
	11.755000	-22.722173
	11.760000	-22.496538
	11.765000	-23.044509
	11.770000	-23.302378
	11.775000	-22.786640
	11.780000	-22.432071
	11.785000	-23.044509
	11.790000	-23.302378
	11.795000	-22.786640
	11.800000	-22.432071
	11.805000	-23.012275
	11.810000	-23.270144
	11.815000	-22.689939
	11.820000	-22.335370
	11.825000	-22.947808
	11.830000	-23.302378
	11.835000	-22.625472
	11.840000	-22.335370
	11.845000	-22.883341
	11.850000	-23.302378
	11.855000	-22.625472
	11.860000	-22.335370
	11.865000	-22.980042
	11.870000	-23.237910
	11.875000	-22.625472
	11.880000	-22.238669
	11.885000	-22.818874
	11.890000	-23.173443
	11.895000	-22.496538
	11.900000	-22.206436
	11.905000	-22.818874
	11.910000	-23.173443
	11.915000	-22.561005
	11.920000	-22.174202
	11.925000	-22.754407
	11.930000	-23.076742
	11.935000	-22.464304
	11.940000	-22.141968
	11.945000	-22.818874
	11.950000	-23.108976
	11.955000	-22.528771
	11.960000	-22.109735
	11.965000	-22.689939
	11.970000	-23.012275
	11.975000	-22.464304
	11.980000	-22.077501
	11.985000	-22.625472
	11.990000	-22.915574
	11.995000	-22.367603
	12.000000	-21.948567
	12.005000	-22.561005
	12.010000	-22.947808
	12.015000	-22.335370
	12.020000	-21.916333
	12.025000	-22.593239
	12.030000	-22.851107
	12.035000	-22.238669
	12.040000	-21.819632
	12.045000	-22.528771
	12.050000	-22.818874
	12.055000	-22.238669
	12.060000	-21.851866
	12.065000	-22.496538
	12.070000	-22.786640
	12.075000	-22.109735
	12.080000	-21.851866
	12.085000	-22.528771
	12.090000	-22.722173
	12.095000	-22.141968
	12.100000	-21.787399
	12.105000	-22.496538
	12.110000	-22.722173
	12.115000	-22.174202
	12.120000	-21.787399
	12.125000	-22.399837
	12.130000	-22.786640
	12.135000	-22.141968
	12.140000	-21.819632
	12.145000	-22.367603
	12.150000	-22.786640
	12.155000	-22.109735
	12.160000	-21.787399
	12.165000	-22.464304
	12.170000	-22.754407
	12.175000	-22.109735
	12.180000	-21.787399
	12.185000	-22.399837
	12.190000	-22.818874
	12.195000	-22.109735
	12.200000	-21.787399
	12.205000	-22.432071
	12.210000	-22.722173
	12.215000	-22.206436
	12.220000	-21.787399
	12.225000	-22.335370
	12.230000	-22.722173
	12.235000	-22.109735
	12.240000	-21.787399
	12.245000	-22.335370
	12.250000	-22.722173
	12.255000	-22.077501
	12.260000	-21.851866
	12.265000	-22.432071
	12.270000	-22.722173
	12.275000	-22.109735
	12.280000	-21.722932
	12.285000	-22.367603
	12.290000	-22.657706
	12.295000	-22.109735
	12.300000	-21.722932
	12.305000	-22.367603
	12.310000	-22.689939
	12.315000	-22.013034
	12.320000	-21.755165
	12.325000	-22.335370
	12.330000	-22.657706
	12.335000	-21.980800
	12.340000	-21.755165
	12.345000	-22.367603
	12.350000	-22.689939
	12.355000	-21.980800
	12.360000	-21.690698
	12.365000	-22.335370
	12.370000	-22.657706
	12.375000	-22.013034
	12.380000	-21.755165
	12.385000	-22.270903
	12.390000	-22.657706
	12.395000	-22.013034
	12.400000	-21.626231
	12.405000	-22.206436
	12.410000	-22.593239
	12.415000	-21.980800
	12.420000	-21.690698
	12.425000	-22.238669
	12.430000	-22.528771
	12.435000	-21.948567
	12.440000	-21.529530
	12.445000	-22.174202
	12.450000	-22.561005
	12.455000	-21.819632
	12.460000	-21.497297
	12.465000	-22.045268
	12.470000	-22.464304
	12.475000	-21.851866
	12.480000	-21.529530
	12.485000	-22.045268
	12.490000	-22.399837
	12.495000	-21.755165
	12.500000	-21.400596
	12.505000	-22.077501
	12.510000	-22.399837
	12.515000	-21.722932
	12.520000	-21.368362
	12.525000	-22.013034
	12.530000	-22.303136
	12.535000	-21.658465
	12.540000	-21.336129
	12.545000	-21.948567
	12.550000	-22.303136
	12.555000	-21.658465
	12.560000	-21.271661
	12.565000	-21.916333
	12.570000	-22.206436
	12.575000	-21.593997
	12.580000	-21.142727
	12.585000	-21.851866
	12.590000	-22.141968
	12.595000	-21.529530
	12.600000	-21.142727
	12.605000	-21.819632
	12.610000	-22.045268
	12.615000	-21.432829
	12.620000	-21.013793
	12.625000	-21.690698
	12.630000	-22.013034
	12.635000	-21.368362
	12.640000	-21.046026
	12.645000	-21.626231
	12.650000	-21.980800
	12.655000	-21.336129
	12.660000	-20.981559
	12.665000	-21.561764
	12.670000	-21.884100
	12.675000	-21.271661
	12.680000	-20.917092
	12.685000	-21.593997
	12.690000	-21.819632
	12.695000	-21.174961
	12.700000	-20.820391
	12.705000	-21.432829
	12.710000	-21.787399
	12.715000	-21.110493
	12.720000	-20.723690
	12.725000	-21.400596
	12.730000	-21.722932
	12.735000	-21.142727
	12.740000	-20.788158
	12.745000	-21.368362
	12.750000	-21.658465
	12.755000	-21.046026
	12.760000	-20.755924
	12.765000	-21.303895
	12.770000	-21.722932
	12.775000	-21.078260
	12.780000	-20.723690
	12.785000	-21.336129
	12.790000	-21.626231
	12.795000	-20.981559
	12.800000	-20.659223
	12.805000	-21.303895
	12.810000	-21.561764
	12.815000	-20.949326
	12.820000	-20.594756
	12.825000	-21.207194
	12.830000	-21.593997
	12.835000	-20.820391
	12.840000	-20.562522
	12.845000	-21.174961
	12.850000	-21.465063
	12.855000	-20.755924
	12.860000	-20.498055
	12.865000	-21.110493
	12.870000	-21.497297
	12.875000	-20.884858
	12.880000	-20.498055
	12.885000	-21.110493
	12.890000	-21.432829
	12.895000	-20.755924
	12.900000	-20.465822
	12.905000	-21.078260
	12.910000	-21.400596
	12.915000	-20.788158
	12.920000	-20.465822
	12.925000	-21.046026
	12.930000	-21.400596
	12.935000	-20.755924
	12.940000	-20.498055
	12.945000	-20.981559
	12.950000	-21.465063
	12.955000	-20.820391
	12.960000	-20.433588
	12.965000	-21.013793
	12.970000	-21.432829
	12.975000	-20.755924
	12.980000	-20.401355
	12.985000	-21.078260
	12.990000	-21.400596
	12.995000	-20.755924
	13.000000	-20.465822
	13.005000	-21.078260
	13.010000	-21.400596
	13.015000	-20.820391
	13.020000	-20.433588
	13.025000	-21.174961
	13.030000	-21.465063
	13.035000	-20.788158
	13.040000	-20.498055
	13.045000	-21.078260
	13.050000	-21.432829
	13.055000	-20.788158
	13.060000	-20.433588
	13.065000	-21.078260
	13.070000	-21.432829
	13.075000	-20.820391
	13.080000	-20.465822
	13.085000	-21.046026
	13.090000	-21.400596
	13.095000	-20.788158
	13.100000	-20.562522
	13.105000	-21.078260
	13.110000	-21.465063
	13.115000	-20.788158
	13.120000	-20.530289
	13.125000	-21.110493
	13.130000	-21.465063
	13.135000	-20.788158
	13.140000	-20.369121
	13.145000	-21.078260
	13.150000	-21.336129
	13.155000	-20.788158
	13.160000	-20.433588
	13.165000	-21.078260
	13.170000	-21.432829
	13.175000	-20.723690
	13.180000	-20.465822
	13.185000	-21.078260
	13.190000	-21.400596
	13.195000	-20.755924
	13.200000	-20.433588
	13.205000	-21.046026
	13.210000	-21.400596
	13.215000	-20.723690
	13.220000	-20.369121
	13.225000	-21.078260
	13.230000	-21.336129
	13.235000	-20.820391
	13.240000	-20.401355
	13.245000	-21.110493
	13.250000	-21.400596
	13.255000	-20.788158
	13.260000	-20.465822
	13.265000	-21.110493
	13.270000	-21.432829
	13.275000	-20.788158
	13.280000	-20.433588
	13.285000	-21.013793
	13.290000	-21.432829
	13.295000	-20.755924
	13.300000	-20.433588
	13.305000	-21.142727
	13.310000	-21.465063
	13.315000	-20.755924
	13.320000	-20.401355
	13.325000	-21.078260
	13.330000	-21.465063
	13.335000	-20.820391
	13.340000	-20.401355
	13.345000	-21.013793
	13.350000	-21.368362
	13.355000	-20.723690
	13.360000	-20.401355
	13.365000	-21.046026
	13.370000	-21.336129
	13.375000	-20.820391
	13.380000	-20.433588
	13.385000	-21.046026
	13.390000	-21.368362
	13.395000	-20.723690
	13.400000	-20.433588
	13.405000	-21.078260
	13.410000	-21.368362
	13.415000	-20.788158
	13.420000	-20.401355
	13.425000	-21.078260
	13.430000	-21.368362
	13.435000	-20.755924
	13.440000	-20.401355
	13.445000	-20.981559
	13.450000	-21.432829
	13.455000	-20.691457
	13.460000	-20.433588
	13.465000	-21.013793
	13.470000	-21.400596
	13.475000	-20.788158
	13.480000	-20.433588
	13.485000	-21.078260
	13.490000	-21.336129
	13.495000	-20.820391
	13.500000	-20.369121
	13.505000	-21.110493
	13.510000	-21.400596
	13.515000	-20.659223
	13.520000	-20.369121
	13.525000	-20.981559
	13.530000	-21.336129
	13.535000	-20.755924
	13.540000	-20.433588
	13.545000	-20.981559
	13.550000	-21.336129
	13.555000	-20.659223
	13.560000	-20.369121
	13.565000	-21.013793
	13.570000	-21.400596
	13.575000	-20.691457
	13.580000	-20.304654
	13.585000	-20.981559
	13.590000	-21.303895
	13.595000	-20.594756
	13.600000	-20.336887
	13.605000	-20.981559
	13.610000	-21.303895
	13.615000	-20.723690
	13.620000	-20.336887
	13.625000	-21.013793
	13.630000	-21.271661
	13.635000	-20.659223
	13.640000	-20.369121
	13.645000	-20.949326
	13.650000	-21.336129
	13.655000	-20.659223
	13.660000	-20.272420
	13.665000	-21.013793
	13.670000	-21.336129
	13.675000	-20.691457
	13.680000	-20.401355
	13.685000	-21.046026
	13.690000	-21.303895
	13.695000	-20.626990
	13.700000	-20.336887
	13.705000	-20.981559
	13.710000	-21.400596
	13.715000	-20.659223
	13.720000	-20.369121
	13.725000	-21.046026
	13.730000	-21.432829
	13.735000	-20.755924
	13.740000	-20.433588
	13.745000	-21.013793
	13.750000	-21.432829
	13.755000	-20.755924
	13.760000	-20.433588
	13.765000	-21.046026
	13.770000	-21.400596
	13.775000	-20.723690
	13.780000	-20.401355
	13.785000	-20.981559
	13.790000	-21.400596
	13.795000	-20.659223
	13.800000	-20.401355
	13.805000	-20.917092
	13.810000	-21.271661
	13.815000	-20.626990
	13.820000	-20.336887
	13.825000	-20.981559
	13.830000	-21.207194
	13.835000	-20.626990
	13.840000	-20.272420
	13.845000	-20.820391
	13.850000	-21.271661
	13.855000	-20.465822
	13.860000	-20.207953
	13.865000	-20.788158
	13.870000	-21.142727
	13.875000	-20.498055
	13.880000	-20.143486
	13.885000	-20.659223
	13.890000	-21.078260
	13.895000	-20.433588
	13.900000	-20.046785
	13.905000	-20.659223
	13.910000	-20.917092
	13.915000	-20.272420
	13.920000	-19.982318
	13.925000	-20.594756
	13.930000	-20.884858
	13.935000	-20.143486
	13.940000	-19.853383
	13.945000	-20.498055
	13.950000	-20.788158
	13.955000	-20.111252
	13.960000	-19.724449
	13.965000	-20.336887
	13.970000	-20.626990
	13.975000	-19.950084
	13.980000	-19.627748
	13.985000	-20.240187
	13.990000	-20.530289
	13.995000	-19.853383
	14.000000	-19.595515
	14.005000	-20.143486
	14.010000	-20.465822
	14.015000	-19.853383
	14.020000	-19.595515
	14.025000	-20.175719
	14.030000	-20.465822
	14.035000	-19.885617
	14.040000	-19.531048
	14.045000	-20.240187
	14.050000	-20.530289
	14.055000	-19.853383
	14.060000	-19.627748
	14.065000	-20.175719
	14.070000	-20.498055
	14.075000	-19.917851
	14.080000	-19.595515
	14.085000	-20.272420
	14.090000	-20.594756
	14.095000	-19.982318
	14.100000	-19.692216
	14.105000	-20.336887
	14.110000	-20.691457
	14.115000	-20.046785
	14.120000	-19.724449
	14.125000	-20.336887
	14.130000	-20.723690
	14.135000	-20.111252
	14.140000	-19.788916
	14.145000	-20.498055
	14.150000	-20.723690
	14.155000	-20.111252
	14.160000	-19.821150
	14.165000	-20.498055
	14.170000	-20.852625
	14.175000	-20.240187
	14.180000	-19.853383
	14.185000	-20.433588
	14.190000	-20.852625
	14.195000	-20.240187
	14.200000	-19.917851
	14.205000	-20.562522
	14.210000	-20.884858
	14.215000	-20.336887
	14.220000	-19.917851
	14.225000	-20.626990
	14.230000	-20.884858
	14.235000	-20.304654
	14.240000	-20.046785
	14.245000	-20.562522
	14.250000	-20.949326
	14.255000	-20.304654
	14.260000	-20.079019
	14.265000	-20.626990
	14.270000	-21.078260
	14.275000	-20.433588
	14.280000	-20.079019
	14.285000	-20.659223
	14.290000	-21.013793
	14.295000	-20.369121
	14.300000	-20.046785
	14.305000	-20.755924
	14.310000	-21.013793
	14.315000	-20.465822
	14.320000	-20.143486
	14.325000	-20.788158
	14.330000	-21.110493
	14.335000	-20.465822
	14.340000	-20.046785
	14.345000	-20.723690
	14.350000	-21.174961
	14.355000	-20.530289
	14.360000	-20.175719
	14.365000	-20.820391
	14.370000	-21.110493
	14.375000	-20.530289
	14.380000	-20.111252
	14.385000	-20.820391
	14.390000	-21.142727
	14.395000	-20.562522
	14.400000	-20.175719
	14.405000	-20.820391
	14.410000	-21.239428
	14.415000	-20.498055
	14.420000	-20.240187
	14.425000	-20.884858
	14.430000	-21.110493
	14.435000	-20.465822
	14.440000	-20.111252
	14.445000	-20.659223
	14.450000	-20.917092
	14.455000	-20.079019
	14.460000	-19.595515
	14.465000	-19.950084
	14.470000	-19.917851
	14.475000	-18.918609
	14.480000	-18.209470
	14.485000	-18.531806
	14.490000	-18.596274
	14.495000	-17.790434
	14.500000	-17.274696
	14.505000	-17.629266
	14.510000	-17.822667
	14.515000	-17.113528
	14.520000	-16.630025
	14.525000	-17.113528
	14.530000	-17.242463
	14.535000	-16.339922
	14.540000	-15.985353
	14.545000	-16.468857
	14.550000	-16.662258
	14.555000	-15.953119
	14.560000	-15.534083
	14.565000	-16.017586
	14.570000	-16.339922
	14.575000	-15.598550
	14.580000	-15.147279
	14.585000	-15.759718
	14.590000	-16.049820
	14.595000	-15.437382
	14.600000	-15.050579
	14.605000	-15.534083
	14.610000	-15.856418
	14.615000	-15.179513
	14.620000	-14.792710
	14.625000	-15.340681
	14.630000	-15.598550
	14.635000	-15.018345
	14.640000	-14.696009
	14.645000	-15.179513
	14.650000	-15.534083
	14.655000	-14.889411
	14.660000	-14.631542
	14.665000	-15.211747
	14.670000	-15.501849
	14.675000	-14.824944
	14.680000	-14.567075
	14.685000	-15.115046
	14.690000	-15.372915
	14.695000	-14.889411
	14.700000	-14.567075
	14.705000	-15.082812
	14.710000	-15.469615
	14.715000	-14.857177
	14.720000	-14.470374
	14.725000	-15.147279
	14.730000	-15.437382
	14.735000	-14.824944
	14.740000	-14.631542
	14.745000	-15.211747
	14.750000	-15.598550
	14.755000	-14.953878
	14.760000	-14.696009
	14.765000	-15.276214
	14.770000	-15.534083
	14.775000	-14.986111
	14.780000	-14.696009
	14.785000	-15.308447
	14.790000	-15.566316
	14.795000	-15.018345
	14.800000	-14.760476
	14.805000	-15.340681
	14.810000	-15.663017
	14.815000	-15.147279
	14.820000	-14.792710
	14.825000	-15.469615
	14.830000	-15.663017
	14.835000	-15.211747
	14.840000	-14.889411
	14.845000	-15.469615
	14.850000	-15.791951
	14.855000	-15.276214
	14.860000	-14.986111
	14.865000	-15.566316
	14.870000	-15.953119
	14.875000	-15.340681
	14.880000	-15.179513
	14.885000	-15.663017
	14.890000	-16.049820
	14.895000	-15.469615
	14.900000	-15.211747
	14.905000	-15.888652
	14.910000	-16.210988
	14.915000	-15.727484
	14.920000	-15.437382
	14.925000	-15.985353
	14.930000	-16.404389
	14.935000	-15.856418
	14.940000	-15.630783
	14.945000	-16.275455
	14.950000	-16.565557
	14.955000	-16.114287
	14.960000	-15.888652
	14.965000	-16.533324
	14.970000	-16.920127
	14.975000	-16.307689
	14.980000	-16.114287
	14.985000	-16.791192
	14.990000	-17.242463
	14.995000	-16.758959
	15.000000	-16.662258
	15.005000	-17.306930
	15.010000	-17.790434
	15.015000	-17.306930
	15.020000	-17.274696
	15.025000	-17.983835
	15.030000	-18.531806
	15.035000	-18.145003
	15.040000	-18.080536
	15.045000	-18.918609
	15.050000	-19.434347
	15.055000	-19.144245
	15.060000	-18.918609
	15.065000	-19.724449
	15.070000	-20.240187
	15.075000	-19.821150
	15.080000	-19.659982
	15.085000	-20.369121
	15.090000	-20.852625
	15.095000	-20.401355
	15.100000	-20.272420
	15.105000	-20.884858
	15.110000	-21.368362
	15.115000	-20.852625
	15.120000	-20.659223
	15.125000	-21.303895
	15.130000	-21.755165
	15.135000	-21.239428
	15.140000	-21.078260
	15.145000	-21.755165
	15.150000	-22.141968
	15.155000	-21.593997
	15.160000	-21.400596
	15.165000	-22.109735
	15.170000	-22.432071
	15.175000	-21.948567
	15.180000	-21.755165
	15.185000	-22.335370
	15.190000	-22.818874
	15.195000	-22.238669
	15.200000	-22.045268
	15.205000	-22.722173
	15.210000	-23.141210
	15.215000	-22.528771
	15.220000	-22.367603
	15.225000	-23.012275
	15.230000	-23.366845
	15.235000	-22.786640
	15.240000	-22.496538
	15.245000	-23.141210
	15.250000	-23.495779
	15.255000	-23.012275
	15.260000	-22.689939
	15.265000	-23.270144
	15.270000	-23.592480
	15.275000	-22.947808
	15.280000	-22.754407
	15.285000	-23.334611
	15.290000	-23.624713
	15.295000	-23.044509
	15.300000	-22.689939
	15.305000	-23.302378
	15.310000	-23.656947
	15.315000	-23.012275
	15.320000	-22.657706
	15.325000	-23.302378
	15.330000	-23.656947
	15.335000	-23.044509
	15.340000	-22.689939
	15.345000	-23.205677
	15.350000	-23.560246
	15.355000	-22.980042
	15.360000	-22.593239
	15.365000	-23.270144
	15.370000	-23.463546
	15.375000	-22.818874
	15.380000	-22.528771
	15.385000	-23.141210
	15.390000	-23.431312
	15.395000	-22.786640
	15.400000	-22.496538
	15.405000	-23.108976
	15.410000	-23.302378
	15.415000	-22.754407
	15.420000	-22.432071
	15.425000	-23.012275
	15.430000	-23.366845
	15.435000	-22.754407
	15.440000	-22.432071
	15.445000	-22.915574
	15.450000	-23.237910
	15.455000	-22.657706
	15.460000	-22.399837
	15.465000	-23.012275
	15.470000	-23.334611
	15.475000	-22.689939
	15.480000	-22.270903
	15.485000	-23.044509
	15.490000	-23.237910
	15.495000	-22.561005
	15.500000	-22.270903
	15.505000	-22.883341
	15.510000	-23.205677
	15.515000	-22.528771
	15.520000	-22.206436
	15.525000	-22.851107
	15.530000	-23.173443
	15.535000	-22.528771
	15.540000	-22.238669
	15.545000	-22.851107
	15.550000	-23.205677
	15.555000	-22.561005
	15.560000	-22.206436
	15.565000	-22.818874
	15.570000	-23.108976
	15.575000	-22.496538
	15.580000	-22.109735
	15.585000	-22.754407
	15.590000	-23.076742
	15.595000	-22.528771
	15.600000	-22.109735
	15.605000	-22.786640
	15.610000	-23.012275
	15.615000	-22.496538
	15.620000	-22.109735
	15.625000	-22.786640
	15.630000	-22.947808
	15.635000	-22.335370
	15.640000	-22.109735
	15.645000	-22.657706
	15.650000	-23.012275
	15.655000	-22.303136
	15.660000	-21.916333
	15.665000	-22.625472
	15.670000	-22.980042
	15.675000	-22.303136
	15.680000	-22.013034
	15.685000	-22.689939
	15.690000	-23.012275
	15.695000	-22.335370
	15.700000	-22.077501
	15.705000	-22.689939
	15.710000	-23.012275
	15.715000	-22.335370
	15.720000	-22.077501
	15.725000	-22.689939
	15.730000	-23.012275
	15.735000	-22.335370
	15.740000	-22.141968
	15.745000	-22.689939
	15.750000	-23.012275
	15.755000	-22.367603
	15.760000	-22.045268
	15.765000	-22.657706
	15.770000	-22.980042
	15.775000	-22.303136
	15.780000	-22.077501
	15.785000	-22.561005
	15.790000	-22.947808
	15.795000	-22.270903
	15.800000	-21.916333
	15.805000	-22.625472
	15.810000	-22.915574
	15.815000	-22.335370
	15.820000	-21.948567
	15.825000	-22.625472
	15.830000	-22.851107
	15.835000	-22.335370
	15.840000	-21.916333
	15.845000	-22.528771
	15.850000	-22.818874
	15.855000	-22.270903
	15.860000	-21.980800
	15.865000	-22.561005
	15.870000	-22.851107
	15.875000	-22.206436
	15.880000	-21.948567
	15.885000	-22.625472
	15.890000	-22.883341
	15.895000	-22.270903
	15.900000	-21.980800
	15.905000	-22.528771
	15.910000	-22.915574
	15.915000	-22.238669
	15.920000	-21.916333
	15.925000	-22.593239
	15.930000	-22.818874
	15.935000	-22.174202
	15.940000	-21.851866
	15.945000	-22.528771
	15.950000	-22.851107
	15.955000	-22.174202
	15.960000	-21.916333
	15.965000	-22.496538
	15.970000	-22.786640
	15.975000	-22.109735
	15.980000	-21.787399
	15.985000	-22.432071
	15.990000	-22.722173
	15.995000	-22.077501
	16.000000	-21.819632
	16.005000	-22.399837
	16.010000	-22.593239
	16.015000	-22.077501
	16.020000	-21.658465
	16.025000	-22.367603
	16.030000	-22.528771
	16.035000	-21.980800
	16.040000	-21.658465
	16.045000	-22.270903
	16.050000	-22.625472
	16.055000	-21.916333
	16.060000	-21.658465
	16.065000	-22.206436
	16.070000	-22.593239
	16.075000	-21.851866
	16.080000	-21.561764
	16.085000	-22.270903
	16.090000	-22.496538
	16.095000	-21.787399
	16.100000	-21.626231
	16.105000	-22.174202
	16.110000	-22.399837
	16.115000	-21.787399
	16.120000	-21.497297
	16.125000	-22.141968
	16.130000	-22.335370
	16.135000	-21.755165
	16.140000	-21.465063
	16.145000	-22.013034
	16.150000	-22.303136
	16.155000	-21.561764
	16.160000	-21.400596
	16.165000	-22.077501
	16.170000	-22.303136
	16.175000	-21.593997
	16.180000	-21.303895
	16.185000	-21.948567
	16.190000	-22.238669
	16.195000	-21.626231
	16.200000	-21.239428
	16.205000	-21.948567
	16.210000	-22.174202
	16.215000	-21.626231
	16.220000	-21.174961
	16.225000	-22.013034
	16.230000	-22.238669
	16.235000	-21.465063
	16.240000	-21.174961
	16.245000	-21.819632
	16.250000	-22.141968
	16.255000	-21.497297
	16.260000	-21.142727
	16.265000	-21.755165
	16.270000	-22.109735
	16.275000	-21.400596
	16.280000	-21.174961
	16.285000	-21.755165
	16.290000	-21.980800
	16.295000	-21.368362
	16.300000	-21.078260
	16.305000	-21.690698
	16.310000	-22.013034
	16.315000	-21.336129
	16.320000	-21.013793
	16.325000	-21.658465
	16.330000	-21.980800
	16.335000	-21.368362
	16.340000	-20.981559
	16.345000	-21.690698
	16.350000	-21.948567
	16.355000	-21.303895
	16.360000	-20.949326
	16.365000	-21.561764
	16.370000	-21.916333
	16.375000	-21.207194
	16.380000	-20.981559
	16.385000	-21.593997
	16.390000	-21.851866
	16.395000	-21.207194
	16.400000	-20.981559
	16.405000	-21.593997
	16.410000	-21.755165
	16.415000	-21.142727
	16.420000	-20.852625
	16.425000	-21.529530
	16.430000	-21.819632
	16.435000	-21.174961
	16.440000	-20.884858
	16.445000	-21.561764
	16.450000	-21.819632
	16.455000	-21.142727
	16.460000	-20.884858
	16.465000	-21.497297
	16.470000	-21.787399
	16.475000	-21.142727
	16.480000	-20.852625
	16.485000	-21.561764
	16.490000	-21.722932
	16.495000	-21.078260
	16.500000	-20.884858
	16.505000	-21.497297
	16.510000	-21.755165
	16.515000	-21.078260
	16.520000	-20.820391
	16.525000	-21.497297
	16.530000	-21.722932
	16.535000	-21.046026
	16.540000	-20.755924
	16.545000	-21.465063
	16.550000	-21.755165
	16.555000	-21.078260
	16.560000	-20.820391
	16.565000	-21.497297
	16.570000	-21.851866
	16.575000	-21.046026
	16.580000	-20.884858
	16.585000	-21.465063
	16.590000	-21.787399
	16.595000	-21.078260
	16.600000	-20.820391
	16.605000	-21.497297
	16.610000	-21.690698
	16.615000	-21.207194
	16.620000	-20.820391
	16.625000	-21.432829
	16.630000	-21.787399
	16.635000	-21.142727
	16.640000	-20.788158
	16.645000	-21.529530
	16.650000	-21.755165
	16.655000	-21.110493
	16.660000	-20.755924
	16.665000	-21.432829
	16.670000	-21.722932
	16.675000	-21.046026
	16.680000	-20.820391
	16.685000	-21.465063
	16.690000	-21.658465
	16.695000	-21.110493
	16.700000	-20.723690
	16.705000	-21.400596
	16.710000	-21.626231
	16.715000	-21.046026
	16.720000	-20.723690
	16.725000	-21.368362
	16.730000	-21.722932
	16.735000	-21.013793
	16.740000	-20.691457
	16.745000	-21.336129
	16.750000	-21.626231
	16.755000	-20.981559
	16.760000	-20.691457
	16.765000	-21.271661
	16.770000	-21.626231
	16.775000	-20.949326
	16.780000	-20.659223
	16.785000	-21.271661
	16.790000	-21.529530
	16.795000	-20.949326
	16.800000	-20.562522
	16.805000	-21.271661
	16.810000	-21.593997
	16.815000	-20.949326
	16.820000	-20.626990
	16.825000	-21.271661
	16.830000	-21.593997
	16.835000	-20.949326
	16.840000	-20.626990
	16.845000	-21.368362
	16.850000	-21.626231
	16.855000	-20.852625
	16.860000	-20.691457
	16.865000	-21.336129
	16.870000	-21.561764
	16.875000	-20.917092
	16.880000	-20.659223
	16.885000	-21.271661
	16.890000	-21.593997
	16.895000	-20.917092
	16.900000	-20.626990
	16.905000	-21.271661
	16.910000	-21.593997
	16.915000	-21.013793
	16.920000	-20.691457
	16.925000	-21.303895
	16.930000	-21.658465
	16.935000	-21.013793
	16.940000	-20.626990
	16.945000	-21.336129
	16.950000	-21.593997
	16.955000	-20.981559
	16.960000	-20.723690
	16.965000	-21.336129
	16.970000	-21.690698
	16.975000	-21.013793
	16.980000	-20.755924
	16.985000	-21.368362
	16.990000	-21.722932
	16.995000	-21.110493
	17.000000	-20.723690
	17.005000	-21.529530
	17.010000	-21.755165
	17.015000	-21.110493
	17.020000	-20.820391
	17.025000	-21.465063
	17.030000	-21.819632
	17.035000	-21.110493
	17.040000	-20.884858
	17.045000	-21.497297
	17.050000	-21.755165
	17.055000	-21.142727
	17.060000	-20.884858
	17.065000	-21.561764
	17.070000	-21.819632
	17.075000	-21.207194
	17.080000	-20.917092
	17.085000	-21.593997
	17.090000	-21.851866
	17.095000	-21.110493
	17.100000	-20.884858
	17.105000	-21.561764
	17.110000	-21.851866
	17.115000	-21.207194
	17.120000	-20.917092
	17.125000	-21.529530
	17.130000	-21.755165
	17.135000	-21.078260
	17.140000	-20.884858
	17.145000	-21.529530
	17.150000	-21.787399
	17.155000	-21.174961
	17.160000	-20.820391
	17.165000	-21.497297
	17.170000	-21.787399
	17.175000	-21.142727
	17.180000	-20.884858
	17.185000	-21.465063
	17.190000	-21.851866
	17.195000	-21.142727
	17.200000	-20.917092
	17.205000	-21.529530
	17.210000	-21.851866
	17.215000	-21.207194
	17.220000	-20.917092
	17.225000	-21.529530
	17.230000	-21.884100
	17.235000	-21.142727
	17.240000	-20.884858
	17.245000	-21.593997
	17.250000	-21.819632
	17.255000	-21.239428
	17.260000	-20.884858
	17.265000	-21.658465
	17.270000	-21.819632
	17.275000	-21.239428
	17.280000	-20.884858
	17.285000	-21.593997
	17.290000	-21.851866
	17.295000	-21.207194
	17.300000	-20.949326
	17.305000	-21.593997
	17.310000	-21.884100
	17.315000	-21.239428
	17.320000	-20.981559
	17.325000	-21.593997
	17.330000	-21.884100
	17.335000	-21.174961
	17.340000	-20.981559
	17.345000	-21.529530
	17.350000	-21.916333
	17.355000	-21.174961
	17.360000	-20.884858
	17.365000	-21.497297
	17.370000	-21.819632
	17.375000	-21.142727
	17.380000	-20.917092
	17.385000	-21.497297
	17.390000	-21.787399
	17.395000	-21.142727
	17.400000	-20.884858
	17.405000	-21.497297
	17.410000	-21.755165
	17.415000	-20.981559
	17.420000	-20.852625
	17.425000	-21.465063
	17.430000	-21.787399
	17.435000	-21.110493
	17.440000	-20.788158
	17.445000	-21.497297
	17.450000	-21.722932
	17.455000	-21.078260
	17.460000	-20.884858
	17.465000	-21.561764
	17.470000	-21.819632
	17.475000	-21.078260
	17.480000	-20.852625
	17.485000	-21.432829
	17.490000	-21.851866
	17.495000	-21.142727
	17.500000	-20.820391
	17.505000	-21.400596
	17.510000	-21.722932
	17.515000	-20.949326
	17.520000	-20.755924
	17.525000	-21.432829
	17.530000	-21.690698
	17.535000	-21.013793
	17.540000	-20.626990
	17.545000	-21.271661
	17.550000	-21.593997
	17.555000	-20.949326
	17.560000	-20.659223
	17.565000	-21.239428
	17.570000	-21.465063
	17.575000	-20.788158
	17.580000	-20.562522
	17.585000	-21.142727
	17.590000	-21.432829
	17.595000	-20.755924
	17.600000	-20.498055
	17.605000	-21.142727
	17.610000	-21.368362
	17.615000	-20.723690
	17.620000	-20.433588
	17.625000	-21.046026
	17.630000	-21.368362
	17.635000	-20.723690
	17.640000	-20.465822
	17.645000	-21.110493
	17.650000	-21.336129
	17.655000	-20.659223
	17.660000	-20.369121
	17.665000	-21.013793
	17.670000	-21.239428
	17.675000	-20.626990
	17.680000	-20.304654
	17.685000	-20.949326
	17.690000	-21.174961
	17.695000	-20.530289
	17.700000	-20.272420
	17.705000	-20.917092
	17.710000	-21.207194
	17.715000	-20.562522
	17.720000	-20.175719
	17.725000	-20.820391
	17.730000	-21.110493
	17.735000	-20.465822
	17.740000	-20.079019
	17.745000	-20.755924
	17.750000	-21.046026
	17.755000	-20.304654
	17.760000	-20.111252
	17.765000	-20.659223
	17.770000	-20.884858
	17.775000	-20.272420
	17.780000	-19.982318
	17.785000	-20.530289
	17.790000	-20.884858
	17.795000	-20.207953
	17.800000	-19.982318
	17.805000	-20.594756
	17.810000	-20.852625
	17.815000	-20.207953
	17.820000	-19.885617
	17.825000	-20.594756
	17.830000	-20.788158
	17.835000	-20.143486
	17.840000	-19.982318
	17.845000	-20.594756
	17.850000	-20.788158
	17.855000	-20.207953
	17.860000	-19.885617
	17.865000	-20.626990
	17.870000	-20.917092
	17.875000	-20.272420
	17.880000	-20.014551
	17.885000	-20.691457
	17.890000	-20.917092
	17.895000	-20.272420
	17.900000	-20.014551
	17.905000	-20.691457
	17.910000	-21.013793
	17.915000	-20.304654
	17.920000	-20.046785
	17.925000	-20.659223
	17.930000	-20.981559
	17.935000	-20.304654
	17.940000	-20.079019
	17.945000	-20.659223
	17.950000	-21.013793
	17.955000	-20.369121
	17.960000	-20.111252
	17.965000	-20.691457
	17.970000	-21.078260
	17.975000	-20.304654
	17.980000	-20.079019
	17.985000	-20.820391
	17.990000	-20.981559
	17.995000	-20.369121
	18.000000	-20.079019
	18.005000	-20.755924
	18.010000	-20.981559
	18.015000	-20.369121
	18.020000	-20.175719
	18.025000	-20.788158
	18.030000	-21.078260
	18.035000	-20.401355
	18.040000	-20.143486
	18.045000	-20.820391
	18.050000	-20.981559
	18.055000	-20.433588
	18.060000	-20.175719
	18.065000	-20.755924
	18.070000	-21.078260
	18.075000	-20.401355
	18.080000	-20.175719
	18.085000	-20.788158
	18.090000	-21.046026
	18.095000	-20.401355
	18.100000	-20.175719
	18.105000	-20.788158
	18.110000	-21.142727
	18.115000	-20.401355
	18.120000	-20.207953
	18.125000	-20.820391
	18.130000	-21.078260
	18.135000	-20.498055
	18.140000	-20.207953
	18.145000	-20.820391
	18.150000	-21.078260
	18.155000	-20.369121
	18.160000	-20.143486
	18.165000	-20.723690
	18.170000	-20.981559
	18.175000	-20.175719
	18.180000	-19.756683
	18.185000	-20.304654
	18.190000	-20.240187
	18.195000	-19.305412
	18.200000	-18.725208
	18.205000	-18.983077
	18.210000	-19.047544
	18.215000	-18.209470
	18.220000	-17.661499
	18.225000	-18.209470
	18.230000	-18.273938
	18.235000	-17.403631
	18.240000	-17.113528
	18.245000	-17.564799
	18.250000	-17.693733
	18.255000	-16.855660
	18.260000	-16.436623
	18.265000	-16.984594
	18.270000	-17.081295
	18.275000	-16.275455
	18.280000	-15.985353
	18.285000	-16.436623
	18.290000	-16.565557
	18.295000	-15.985353
	18.300000	-15.566316
	18.305000	-16.178754
	18.310000	-16.307689
	18.315000	-15.727484
	18.320000	-15.340681
	18.325000	-15.953119
	18.330000	-16.146521
	18.335000	-15.501849
	18.340000	-15.211747
	18.345000	-15.824185
	18.350000	-15.920886
	18.355000	-15.308447
	18.360000	-15.018345
	18.365000	-15.630783
	18.370000	-15.856418
	18.375000	-15.211747
	18.380000	-14.986111
	18.385000	-15.534083
	18.390000	-15.888652
	18.395000	-15.211747
	18.400000	-14.986111
	18.405000	-15.630783
	18.410000	-15.953119
	18.415000	-15.340681
	18.420000	-15.050579
	18.425000	-15.759718
	18.430000	-15.920886
	18.435000	-15.405148
	18.440000	-15.179513
	18.445000	-15.856418
	18.450000	-16.049820
	18.455000	-15.469615
	18.460000	-15.179513
	18.465000	-15.856418
	18.470000	-16.146521
	18.475000	-15.534083
	18.480000	-15.211747
	18.485000	-15.856418
	18.490000	-16.146521
	18.495000	-15.469615
	18.500000	-15.211747
	18.505000	-15.953119
	18.510000	-16.114287
	18.515000	-15.534083
	18.520000	-15.308447
	18.525000	-15.985353
	18.530000	-16.146521
	18.535000	-15.663017
	18.540000	-15.405148
	18.545000	-15.985353
	18.550000	-16.307689
	18.555000	-15.695250
	18.560000	-15.405148
	18.565000	-16.049820
	18.570000	-16.372156
	18.575000	-15.759718
	18.580000	-15.598550
	18.585000	-16.146521
	18.590000	-16.372156
	18.595000	-15.824185
	18.600000	-15.663017
	18.605000	-16.307689
	18.610000	-16.533324
	18.615000	-15.856418
	18.620000	-15.791951
	18.625000	-16.307689
	18.630000	-16.597791
	18.635000	-16.049820
	18.640000	-15.856418
	18.645000	-16.468857
	18.650000	-16.694492
	18.655000	-16.082054
	18.660000	-15.953119
	18.665000	-16.565557
	18.670000	-16.855660
	18.675000	-16.307689
	18.680000	-16.049820
	18.685000	-16.758959
	18.690000	-17.016828
	18.695000	-16.404389
	18.700000	-16.243221
	18.705000	-16.887893
	18.710000	-17.113528
	18.715000	-16.758959
	18.720000	-16.501090
	18.725000	-17.274696
	18.730000	-17.500331
	18.735000	-17.016828
	18.740000	-16.855660
	18.745000	-17.532565
	18.750000	-17.887135
	18.755000	-17.339164
	18.760000	-17.306930
	18.765000	-18.112770
	18.770000	-18.435106
	18.775000	-18.112770
	18.780000	-18.048302
	18.785000	-18.886376
	18.790000	-19.337646
	18.795000	-18.983077
	18.800000	-18.886376
	18.805000	-19.563281
	18.810000	-20.014551
	18.815000	-19.531048
	18.820000	-19.498814
	18.825000	-20.240187
	18.830000	-20.562522
	18.835000	-20.240187
	18.840000	-20.143486
	18.845000	-20.949326
	18.850000	-21.336129
	18.855000	-21.013793
	18.860000	-20.852625
	18.865000	-21.690698
	18.870000	-22.077501
	18.875000	-21.658465
	18.880000	-21.400596
	18.885000	-22.141968
	18.890000	-22.528771
	18.895000	-21.948567
	18.900000	-21.787399
	18.905000	-22.464304
	18.910000	-22.786640
	18.915000	-22.141968
	18.920000	-21.980800
	18.925000	-22.625472
	18.930000	-22.915574
	18.935000	-22.367603
	18.940000	-22.045268
	18.945000	-22.818874
	18.950000	-23.108976
	18.955000	-22.464304
	18.960000	-22.303136
	18.965000	-22.947808
	18.970000	-23.141210
	18.975000	-22.625472
	18.980000	-22.335370
	18.985000	-23.044509
	18.990000	-23.270144
	18.995000	-22.722173
	19.000000	-22.496538
	19.005000	-23.141210
	19.010000	-23.302378
	19.015000	-22.722173
	19.020000	-22.496538
	19.025000	-23.076742
	19.030000	-23.366845
	19.035000	-22.786640
	19.040000	-22.561005
	19.045000	-23.108976
	19.050000	-23.399078
	19.055000	-22.754407
	19.060000	-22.496538
	19.065000	-23.205677
	19.070000	-23.399078
	19.075000	-22.754407
	19.080000	-22.561005
	19.085000	-23.076742
	19.090000	-23.431312
	19.095000	-22.722173
	19.100000	-22.496538
	19.105000	-23.108976
	19.110000	-23.334611
	19.115000	-22.625472
	19.120000	-22.399837
	19.125000	-23.044509
	19.130000	-23.302378
	19.135000	-22.561005
	19.140000	-22.399837
	19.145000	-23.044509
	19.150000	-23.141210
	19.155000	-22.496538
	19.160000	-22.335370
	19.165000	-22.915574
	19.170000	-23.205677
	19.175000	-22.561005
	19.180000	-22.270903
	19.185000	-22.947808
	19.190000	-23.108976
	19.195000	-22.496538
	19.200000	-22.206436
	19.205000	-22.915574
	19.210000	-23.205677
	19.215000	-22.496538
	19.220000	-22.270903
	19.225000	-22.947808
	19.230000	-23.108976
	19.235000	-22.432071
	19.240000	-22.238669
	19.245000	-22.947808
	19.250000	-23.108976
	19.255000	-22.432071
	19.260000	-22.238669
	19.265000	-22.883341
	19.270000	-23.076742
	19.275000	-22.399837
	19.280000	-22.174202
	19.285000	-22.818874
	19.290000	-23.108976
	19.295000	-22.335370
	19.300000	-22.141968
	19.305000	-22.722173
	19.310000	-23.076742
	19.315000	-22.367603
	19.320000	-22.077501
	19.325000	-22.722173
	19.330000	-22.947808
	19.335000	-22.270903
	19.340000	-22.077501
	19.345000	-22.722173
	19.350000	-22.980042
	19.355000	-22.238669
	19.360000	-22.045268
	19.365000	-22.722173
	19.370000	-23.012275
	19.375000	-22.206436
	19.380000	-22.077501
	19.385000	-22.786640
	19.390000	-22.915574
	19.395000	-22.270903
	19.400000	-22.077501
	19.405000	-22.722173
	19.410000	-22.883341
	19.415000	-22.206436
	19.420000	-21.980800
	19.425000	-22.689939
	19.430000	-22.915574
	19.435000	-22.303136
	19.440000	-22.013034
	19.445000	-22.722173
	19.450000	-22.980042
	19.455000	-22.238669
	19.460000	-22.045268
	19.465000	-22.593239
	19.470000	-22.851107
	19.475000	-22.174202
	19.480000	-21.980800
	19.485000	-22.561005
	19.490000	-22.818874
	19.495000	-22.141968
	19.500000	-21.948567
	19.505000	-22.528771
	19.510000	-22.818874
	19.515000	-22.109735
	19.520000	-21.884100
	19.525000	-22.496538
	19.530000	-22.754407
	19.535000	-22.045268
	19.540000	-21.787399
	19.545000	-22.496538
	19.550000	-22.722173
	19.555000	-22.045268
	19.560000	-21.722932
	19.565000	-22.432071
	19.570000	-22.625472
	19.575000	-21.948567
	19.580000	-21.690698
	19.585000	-22.399837
	19.590000	-22.561005
	19.595000	-21.851866
	19.600000	-21.690698
	19.605000	-22.206436
	19.610000	-22.496538
	19.615000	-21.851866
	19.620000	-21.658465
	19.625000	-22.303136
	19.630000	-22.432071
	19.635000	-21.884100
	19.640000	-21.497297
	19.645000	-22.206436
	19.650000	-22.464304
	19.655000	-21.819632
	19.660000	-21.593997
	19.665000	-22.238669
	19.670000	-22.496538
	19.675000	-21.787399
	19.680000	-21.561764
	19.685000	-22.238669
	19.690000	-22.528771
	19.695000	-21.884100
	19.700000	-21.561764
	19.705000	-22.206436
	19.710000	-22.464304
	19.715000	-21.819632
	19.720000	-21.561764
	19.725000	-22.270903
	19.730000	-22.528771
	19.735000	-21.819632
	19.740000	-21.658465
	19.745000	-22.270903
	19.750000	-22.496538
	19.755000	-21.787399
	19.760000	-21.561764
	19.765000	-22.141968
	19.770000	-22.399837
	19.775000	-21.755165
	19.780000	-21.529530
	19.785000	-22.174202
	19.790000	-22.464304
	19.795000	-21.755165
	19.800000	-21.497297
	19.805000	-22.174202
	19.810000	-22.367603
	19.815000	-21.722932
	19.820000	-21.432829
	19.825000	-22.141968
	19.830000	-22.432071
	19.835000	-21.755165
	19.840000	-21.465063
	19.845000	-22.174202
	19.850000	-22.367603
	19.855000	-21.755165
	19.860000	-21.497297
	19.865000	-22.077501
	19.870000	-22.335370
	19.875000	-21.755165
	19.880000	-21.465063
	19.885000	-22.077501
	19.890000	-22.303136
	19.895000	-21.755165
	19.900000	-21.432829
	19.905000	-22.109735
	19.910000	-22.399837
	19.915000	-21.722932
	19.920000	-21.497297
	19.925000	-22.141968
	19.930000	-22.335370
	19.935000	-21.658465
	19.940000	-21.400596
	19.945000	-22.077501
	19.950000	-22.335370
	19.955000	-21.658465
	19.960000	-21.432829
	19.965000	-22.109735
	19.970000	-22.303136
	19.975000	-21.626231
	19.980000	-21.432829
	19.985000	-22.109735
	19.990000	-22.303136
	19.995000	-21.690698
	20.000000	-21.432829
	20.005000	-22.045268
	20.010000	-22.270903
	20.015000	-21.690698
	20.020000	-21.336129
	20.025000	-22.045268
	20.030000	-22.270903
	20.035000	-21.593997
	20.040000	-21.400596
	20.045000	-21.980800
	20.050000	-22.174202
	20.055000	-21.529530
	20.060000	-21.368362
	20.065000	-22.013034
	20.070000	-22.174202
	20.075000	-21.497297
	20.080000	-21.336129
	20.085000	-21.980800
	20.090000	-22.238669
	20.095000	-21.497297
	20.100000	-21.271661
	20.105000	-21.884100
	20.110000	-22.174202
	20.115000	-21.465063
	20.120000	-21.207194
	20.125000	-21.980800
	20.130000	-22.206436
	20.135000	-21.400596
	20.140000	-21.271661
	20.145000	-21.948567
	20.150000	-22.174202
	20.155000	-21.497297
	20.160000	-21.271661
	20.165000	-21.948567
	20.170000	-22.109735
	20.175000	-21.368362
	20.180000	-21.271661
	20.185000	-21.884100
	20.190000	-22.077501
	20.195000	-21.432829
	20.200000	-21.110493
	20.205000	-21.755165
	20.210000	-22.077501
	20.215000	-21.303895
	20.220000	-21.078260
	20.225000	-21.787399
	20.230000	-21.980800
	20.235000	-21.368362
	20.240000	-21.078260
	20.245000	-21.787399
	20.250000	-21.948567
	20.255000	-21.207194
	20.260000	-21.013793
	20.265000	-21.787399
	20.270000	-21.884100
	20.275000	-21.239428
	20.280000	-20.981559
	20.285000	-21.787399
	20.290000	-21.916333
	20.295000	-21.271661
	20.300000	-21.046026
	20.305000	-21.722932
	20.310000	-21.980800
	20.315000	-21.239428
	20.320000	-21.078260
	20.325000	-21.819632
	20.330000	-21.980800
	20.335000	-21.239428
	20.340000	-21.046026
	20.345000	-21.690698
	20.350000	-21.948567
	20.355000	-21.174961
	20.360000	-21.013793
	20.365000	-21.722932
	20.370000	-21.884100
	20.375000	-21.271661
	20.380000	-20.981559
	20.385000	-21.593997
	20.390000	-21.916333
	20.395000	-21.239428
	20.400000	-21.046026
	20.405000	-21.658465
	20.410000	-21.916333
	20.415000	-21.271661
	20.420000	-21.013793
	20.425000	-21.722932
	20.430000	-21.916333
	20.435000	-21.303895
	20.440000	-21.078260
	20.445000	-21.722932
	20.450000	-21.916333
	20.455000	-21.336129
	20.460000	-21.078260
	20.465000	-21.787399
	20.470000	-21.948567
	20.475000	-21.239428
	20.480000	-21.013793
	20.485000	-21.755165
	20.490000	-21.980800
	20.495000	-21.239428
	20.500000	-21.046026
	20.505000	-21.722932
	20.510000	-21.980800
	20.515000	-21.303895
	20.520000	-21.046026
	20.525000	-21.755165
	20.530000	-21.916333
	20.535000	-21.271661
	20.540000	-21.046026
	20.545000	-21.787399
	20.550000	-21.948567
	20.555000	-21.271661
	20.560000	-20.981559
	20.565000	-21.755165
	20.570000	-21.916333
	20.575000	-21.271661
	20.580000	-20.981559
	20.585000	-21.690698
	20.590000	-21.884100
	20.595000	-21.207194
	20.600000	-21.078260
	20.605000	-21.690698
	20.610000	-21.884100
	20.615000	-21.174961
	20.620000	-20.981559
	20.625000	-21.626231
	20.630000	-21.819632
	20.635000	-21.142727
	20.640000	-20.884858
	20.645000	-21.626231
	20.650000	-21.787399
	20.655000	-21.078260
	20.660000	-21.013793
	20.665000	-21.593997
	20.670000	-21.755165
	20.675000	-21.142727
	20.680000	-20.852625
	20.685000	-21.593997
	20.690000	-21.851866
	20.695000	-21.174961
	20.700000	-20.949326
	20.705000	-21.658465
	20.710000	-21.787399
	20.715000	-21.110493
	20.720000	-20.884858
	20.725000	-21.561764
	20.730000	-21.755165
	20.735000	-21.142727
	20.740000	-20.852625
	20.745000	-21.593997
	20.750000	-21.787399
	20.755000	-21.142727
	20.760000	-20.884858
	20.765000	-21.593997
	20.770000	-21.787399
	20.775000	-21.046026
	20.780000	-20.884858
	20.785000	-21.497297
	20.790000	-21.787399
	20.795000	-21.078260
	20.800000	-20.820391
	20.805000	-21.465063
	20.810000	-21.658465
	20.815000	-21.046026
	20.820000	-20.820391
	20.825000	-21.561764
	20.830000	-21.722932
	20.835000	-21.013793
	20.840000	-20.852625
	20.845000	-21.432829
	20.850000	-21.658465
	20.855000	-20.981559
	20.860000	-20.755924
	20.865000	-21.432829
	20.870000	-21.658465
	20.875000	-20.981559
	20.880000	-20.755924
	20.885000	-21.368362
	20.890000	-21.690698
	20.895000	-20.981559
	20.900000	-20.723690
	20.905000	-21.432829
	20.910000	-21.626231
	20.915000	-20.981559
	20.920000	-20.788158
	20.925000	-21.432829
	20.930000	-21.593997
	20.935000	-20.949326
	20.940000	-20.755924
	20.945000	-21.432829
	20.950000	-21.722932
	20.955000	-21.046026
	20.960000	-20.788158
	20.965000	-21.432829
	20.970000	-21.755165
	20.975000	-21.013793
	20.980000	-20.755924
	20.985000	-21.529530
	20.990000	-21.658465
	20.995000	-20.949326
	21.000000	-20.723690
	21.005000	-21.432829
	21.010000	-21.658465
	21.015000	-20.981559
	21.020000	-20.691457
	21.025000	-21.400596
	21.030000	-21.658465
	21.035000	-20.820391
	21.040000	-20.659223
	21.045000	-21.271661
	21.050000	-21.529530
	21.055000	-20.788158
	21.060000	-20.562522
	21.065000	-21.271661
	21.070000	-21.400596
	21.075000	-20.755924
	21.080000	-20.465822
	21.085000	-21.174961
	21.090000	-21.336129
	21.095000	-20.659223
	21.100000	-20.401355
	21.105000	-21.046026
	21.110000	-21.368362
	21.115000	-20.626990
	21.120000	-20.401355
	21.125000	-21.046026
	21.130000	-21.207194
	21.135000	-20.530289
	21.140000	-20.336887
	21.145000	-21.110493
	21.150000	-21.336129
	21.155000	-20.562522
	21.160000	-20.336887
	21.165000	-21.046026
	21.170000	-21.207194
	21.175000	-20.530289
	21.180000	-20.369121
	21.185000	-21.013793
	21.190000	-21.207194
	21.195000	-20.498055
	21.200000	-20.304654
	21.205000	-21.046026
	21.210000	-21.336129
	21.215000	-20.562522
	21.220000	-20.304654
	21.225000	-21.078260
	21.230000	-21.239428
	21.235000	-20.562522
	21.240000	-20.369121
	21.245000	-21.046026
	21.250000	-21.368362
	21.255000	-20.594756
	21.260000	-20.465822
	21.265000	-21.142727
	21.270000	-21.303895
	21.275000	-20.594756
	21.280000	-20.401355
	21.285000	-21.078260
	21.290000	-21.303895
	21.295000	-20.626990
	21.300000	-20.369121
	21.305000	-21.046026
	21.310000	-21.303895
	21.315000	-20.594756
	21.320000	-20.336887
	21.325000	-21.046026
	21.330000	-21.239428
	21.335000	-20.594756
	21.340000	-20.401355
	21.345000	-21.078260
	21.350000	-21.239428
	21.355000	-20.465822
	21.360000	-20.369121
	21.365000	-21.046026
	21.370000	-21.174961
	21.375000	-20.562522
	21.380000	-20.336887
	21.385000	-21.013793
	21.390000	-21.207194
	21.395000	-20.562522
	21.400000	-20.336887
	21.405000	-20.981559
	21.410000	-21.239428
	21.415000	-20.530289
	21.420000	-20.240187
	21.425000	-21.078260
	21.430000	-21.271661
	21.435000	-20.562522
	21.440000	-20.369121
	21.445000	-21.013793
	21.450000	-21.142727
	21.455000	-20.530289
	21.460000	-20.336887
	21.465000	-21.046026
	21.470000	-21.174961
	21.475000	-20.562522
	21.480000	-20.304654
	21.485000	-21.046026
	21.490000	-21.142727
	21.495000	-20.465822
	21.500000	-20.304654
	21.505000	-20.949326
	21.510000	-21.078260
	21.515000	-20.240187
	21.520000	-19.950084
	21.525000	-20.498055
	21.530000	-20.433588
	21.535000	-19.402113
	21.540000	-18.918609
	21.545000	-19.273179
	21.550000	-19.273179
	21.555000	-18.402872
	21.560000	-18.048302
	21.565000	-18.564040
	21.570000	-18.596274
	21.575000	-17.790434
	21.580000	-17.468098
	21.585000	-17.951602
	21.590000	-18.048302
	21.595000	-17.210229
	21.600000	-16.984594
	21.605000	-17.500331
	21.610000	-17.532565
	21.615000	-16.791192
	21.620000	-16.468857
	21.625000	-17.049061
	21.630000	-17.081295
	21.635000	-16.275455
	21.640000	-16.049820
	21.645000	-16.662258
	21.650000	-16.758959
	21.655000	-16.049820
	21.660000	-15.824185
	21.665000	-16.436623
	21.670000	-16.565557
	21.675000	-15.791951
	21.680000	-15.630783
	21.685000	-16.275455
	21.690000	-16.404389
	21.695000	-15.663017
	21.700000	-15.437382
	21.705000	-16.114287
	21.710000	-16.339922
	21.715000	-15.566316
	21.720000	-15.405148
	21.725000	-16.017586
	21.730000	-16.210988
	21.735000	-15.598550
	21.740000	-15.372915
	21.745000	-16.082054
	21.750000	-16.275455
	21.755000	-15.630783
	21.760000	-15.469615
	21.765000	-16.114287
	21.770000	-16.146521
	21.775000	-15.630783
	21.780000	-15.405148
	21.785000	-16.114287
	21.790000	-16.339922
	21.795000	-15.727484
	21.800000	-15.501849
	21.805000	-16.178754
	21.810000	-16.372156
	21.815000	-15.791951
	21.820000	-15.598550
	21.825000	-16.307689
	21.830000	-16.339922
	21.835000	-15.791951
	21.840000	-15.566316
	21.845000	-16.243221
	21.850000	-16.372156
	21.855000	-15.791951
	21.860000	-15.598550
	21.865000	-16.275455
	21.870000	-16.372156
	21.875000	-15.856418
	21.880000	-15.663017
	21.885000	-16.243221
	21.890000	-16.436623
	21.895000	-15.791951
	21.900000	-15.727484
	21.905000	-16.339922
	21.910000	-16.501090
	21.915000	-15.953119
	21.920000	-15.759718
	21.925000	-16.468857
	21.930000	-16.565557
	21.935000	-15.920886
	21.940000	-15.824185
	21.945000	-16.436623
	21.950000	-16.662258
	21.955000	-16.049820
	21.960000	-15.791951
	21.965000	-16.533324
	21.970000	-16.662258
	21.975000	-16.082054
	21.980000	-15.953119
	21.985000	-16.662258
	21.990000	-16.758959
	21.995000	-16.210988
	22.000000	-16.049820
	22.005000	-16.726725
	22.010000	-16.952360
	22.015000	-16.468857
	22.020000	-16.307689
	22.025000	-17.113528
	22.030000	-17.339164
	22.035000	-16.791192
	22.040000	-16.758959
	22.045000	-17.468098
	22.050000	-17.758200
	22.055000	-17.339164
	22.060000	-17.242463
	22.065000	-18.080536
	22.070000	-18.402872
	22.075000	-18.080536
	22.080000	-18.145003
	22.085000	-18.983077
	22.090000	-19.402113
	22.095000	-18.821909
	22.100000	-18.950843
	22.105000	-19.788916
	22.110000	-20.111252
	22.115000	-19.756683
	22.120000	-19.756683
	22.125000	-20.594756
	22.130000	-21.013793
	22.135000	-20.626990
	22.140000	-20.788158
	22.145000	-21.787399
	22.150000	-22.109735
	22.155000	-21.755165
	22.160000	-21.819632
	22.165000	-22.689939
	22.170000	-22.915574
	22.175000	-22.464304
	22.180000	-22.303136
	22.185000	-23.012275
	22.190000	-23.302378
	22.195000	-22.657706
	22.200000	-22.464304
	22.205000	-23.141210
	22.210000	-23.431312
	22.215000	-22.818874
	22.220000	-22.689939
	22.225000	-23.334611
	22.230000	-23.463546
	22.235000	-22.851107
	22.240000	-22.657706
	22.245000	-23.334611
	22.250000	-23.463546
	22.255000	-22.851107
	22.260000	-22.625472
	22.265000	-23.334611
	22.270000	-23.463546
	22.275000	-22.786640
	22.280000	-22.657706
	22.285000	-23.366845
	22.290000	-23.431312
	22.295000	-22.818874
	22.300000	-22.689939
	22.305000	-23.302378
	22.310000	-23.495779
	22.315000	-22.722173
	22.320000	-22.561005
	22.325000	-23.270144
	22.330000	-23.270144
	22.335000	-22.593239
	22.340000	-22.432071
	22.345000	-23.108976
	22.350000	-23.302378
	22.355000	-22.593239
	22.360000	-22.367603
	22.365000	-23.044509
	22.370000	-23.205677
	22.375000	-22.399837
	22.380000	-22.270903
	22.385000	-22.915574
	22.390000	-23.076742
	22.395000	-22.464304
	22.400000	-22.206436
	22.405000	-22.883341
	22.410000	-23.044509
	22.415000	-22.335370
	22.420000	-22.174202
	22.425000	-22.786640
	22.430000	-22.883341
	22.435000	-22.238669
	22.440000	-22.141968
	22.445000	-22.786640
	22.450000	-22.980042
	22.455000	-22.238669
	22.460000	-22.077501
	22.465000	-22.754407
	22.470000	-22.851107
	22.475000	-22.174202
	22.480000	-22.141968
	22.485000	-22.818874
	22.490000	-22.980042
	22.495000	-22.367603
	22.500000	-22.141968
	22.505000	-22.851107
	22.510000	-23.012275
	22.515000	-22.367603
	22.520000	-22.206436
	22.525000	-22.851107
	22.530000	-23.044509
	22.535000	-22.367603
	22.540000	-22.238669
	22.545000	-23.012275
	22.550000	-23.044509
	22.555000	-22.432071
	22.560000	-22.270903
	22.565000	-23.012275
	22.570000	-23.141210
	22.575000	-22.496538
	22.580000	-22.367603
	22.585000	-23.076742
	22.590000	-23.076742
	22.595000	-22.496538
	22.600000	-22.399837
	22.605000	-23.076742
	22.610000	-23.173443
	22.615000	-22.593239
	22.620000	-22.432071
	22.625000	-23.108976
	22.630000	-23.173443
	22.635000	-22.528771
	22.640000	-22.335370
	22.645000	-23.044509
	22.650000	-23.205677
	22.655000	-22.496538
	22.660000	-22.335370
	22.665000	-23.044509
	22.670000	-23.205677
	22.675000	-22.561005
	22.680000	-22.335370
	22.685000	-23.076742
	22.690000	-23.173443
	22.695000	-22.432071
	22.700000	-22.335370
	22.705000	-23.012275
	22.710000	-23.205677
	22.715000	-22.464304
	22.720000	-22.367603
	22.725000	-23.076742
	22.730000	-23.173443
	22.735000	-22.496538
	22.740000	-22.335370
	22.745000	-23.012275
	22.750000	-23.205677
	22.755000	-22.432071
	22.760000	-22.270903
	22.765000	-23.076742
	22.770000	-23.141210
	22.775000	-22.464304
	22.780000	-22.270903
	22.785000	-23.012275
	22.790000	-23.173443
	22.795000	-22.432071
	22.800000	-22.303136
	22.805000	-23.044509
	22.810000	-23.108976
	22.815000	-22.335370
	22.820000	-22.206436
	22.825000	-22.851107
	22.830000	-23.076742
	22.835000	-22.270903
	22.840000	-22.174202
	22.845000	-22.883341
	22.850000	-22.947808
	22.855000	-22.238669
	22.860000	-22.109735
	22.865000	-22.818874
	22.870000	-22.980042
	22.875000	-22.238669
	22.880000	-22.077501
	22.885000	-22.754407
	22.890000	-22.851107
	22.895000	-22.238669
	22.900000	-22.109735
	22.905000	-22.722173
	22.910000	-22.883341
	22.915000	-22.206436
	22.920000	-22.045268
	22.925000	-22.754407
	22.930000	-22.883341
	22.935000	-22.206436
	22.940000	-22.045268
	22.945000	-22.689939
	22.950000	-22.851107
	22.955000	-22.141968
	22.960000	-22.013034
	22.965000	-22.689939
	22.970000	-22.786640
	22.975000	-22.013034
	22.980000	-21.916333
	22.985000	-22.593239
	22.990000	-22.722173
	22.995000	-21.948567
	23.000000	-21.948567
	23.005000	-22.561005
	23.010000	-22.689939
	23.015000	-22.013034
	23.020000	-21.819632
	23.025000	-22.496538
	23.030000	-22.561005
	23.035000	-21.948567
	23.040000	-21.722932
	23.045000	-22.464304
	23.050000	-22.561005
	23.055000	-21.884100
	23.060000	-21.755165
	23.065000	-22.496538
	23.070000	-22.496538
	23.075000	-21.884100
	23.080000	-21.819632
	23.085000	-22.432071
	23.090000	-22.593239
	23.095000	-21.884100
	23.100000	-21.755165
	23.105000	-22.464304
	23.110000	-22.528771
	23.115000	-21.819632
	23.120000	-21.690698
	23.125000	-22.464304
	23.130000	-22.561005
	23.135000	-21.787399
	23.140000	-21.658465
	23.145000	-22.528771
	23.150000	-22.496538
	23.155000	-21.819632
	23.160000	-21.722932
	23.165000	-22.432071
	23.170000	-22.528771
	23.175000	-21.819632
	23.180000	-21.722932
	23.185000	-22.335370
	23.190000	-22.464304
	23.195000	-21.755165
	23.200000	-21.626231
	23.205000	-22.335370
	23.210000	-22.496538
	23.215000	-21.755165
	23.220000	-21.626231
	23.225000	-22.238669
	23.230000	-22.335370
	23.235000	-21.658465
	23.240000	-21.529530
	23.245000	-22.238669
	23.250000	-22.367603
	23.255000	-21.658465
	23.260000	-21.497297
	23.265000	-22.206436
	23.270000	-22.367603
	23.275000	-21.658465
	23.280000	-21.465063
	23.285000	-22.174202
	23.290000	-22.270903
	23.295000	-21.593997
	23.300000	-21.497297
	23.305000	-22.141968
	23.310000	-22.238669
	23.315000	-21.497297
	23.320000	-21.400596
	23.325000	-22.077501
	23.330000	-22.270903
	23.335000	-21.432829
	23.340000	-21.368362
	23.345000	-22.109735
	23.350000	-22.174202
	23.355000	-21.400596
	23.360000	-21.432829
	23.365000	-22.045268
	23.370000	-22.109735
	23.375000	-21.497297
	23.380000	-21.336129
	23.385000	-22.109735
	23.390000	-22.141968
	23.395000	-21.432829
	23.400000	-21.303895
	23.405000	-22.045268
	23.410000	-22.077501
	23.415000	-21.432829
	23.420000	-21.336129
	23.425000	-22.045268
	23.430000	-22.077501
	23.435000	-21.303895
	23.440000	-21.271661
	23.445000	-22.013034
	23.450000	-22.013034
	23.455000	-21.400596
	23.460000	-21.303895
	23.465000	-22.013034
	23.470000	-22.045268
	23.475000	-21.336129
	23.480000	-21.174961
	23.485000	-21.980800
	23.490000	-21.948567
	23.495000	-21.239428
	23.500000	-21.142727
	23.505000	-21.851866
	23.510000	-21.884100
	23.515000	-21.239428
	23.520000	-21.046026
	23.525000	-21.851866
	23.530000	-21.916333
	23.535000	-21.336129
	23.540000	-21.174961
	23.545000	-21.819632
	23.550000	-21.980800
	23.555000	-21.239428
	23.560000	-21.078260
	23.565000	-21.819632
	23.570000	-21.884100
	23.575000	-21.207194
	23.580000	-21.110493
	23.585000	-21.787399
	23.590000	-21.916333
	23.595000	-21.239428
	23.600000	-21.110493
	23.605000	-21.851866
	23.610000	-21.884100
	23.615000	-21.174961
	23.620000	-21.078260
	23.625000	-21.722932
	23.630000	-21.884100
	23.635000	-21.207194
	23.640000	-21.013793
	23.645000	-21.819632
	23.650000	-21.851866
	23.655000	-21.207194
	23.660000	-21.046026
	23.665000	-21.787399
	23.670000	-21.851866
	23.675000	-21.142727
	23.680000	-21.078260
	23.685000	-21.722932
	23.690000	-21.819632
	23.695000	-21.110493
	23.700000	-21.013793
	23.705000	-21.658465
	23.710000	-21.819632
	23.715000	-21.046026
	23.720000	-20.981559
	23.725000	-21.722932
	23.730000	-21.851866
	23.735000	-21.013793
	23.740000	-20.949326
	23.745000	-21.593997
	23.750000	-21.658465
	23.755000	-21.013793
	23.760000	-20.917092
	23.765000	-21.626231
	23.770000	-21.690698
	23.775000	-21.046026
	23.780000	-20.884858
	23.785000	-21.561764
	23.790000	-21.722932
	23.795000	-20.981559
	23.800000	-20.917092
	23.805000	-21.690698
	23.810000	-21.819632
	23.815000	-21.142727
	23.820000	-21.013793
	23.825000	-21.658465
	23.830000	-21.851866
	23.835000	-21.207194
	23.840000	-21.046026
	23.845000	-21.819632
	23.850000	-21.851866
	23.855000	-21.046026
	23.860000	-21.078260
	23.865000	-21.787399
	23.870000	-21.819632
	23.875000	-21.110493
	23.880000	-21.013793
	23.885000	-21.755165
	23.890000	-21.787399
	23.895000	-21.110493
	23.900000	-20.949326
	23.905000	-21.658465
	23.910000	-21.819632
	23.915000	-21.046026
	23.920000	-21.046026
	23.925000	-21.658465
	23.930000	-21.819632
	23.935000	-21.046026
	23.940000	-20.981559
	23.945000	-21.690698
	23.950000	-21.787399
	23.955000	-21.078260
	23.960000	-20.917092
	23.965000	-21.593997
	23.970000	-21.755165
	23.975000	-21.013793
	23.980000	-20.949326
	23.985000	-21.690698
	23.990000	-21.690698
	23.995000	-21.013793
	24.000000	-20.949326
	24.005000	-21.626231
	24.010000	-21.722932
	24.015000	-21.046026
	24.020000	-20.981559
	24.025000	-21.529530
	24.030000	-21.755165
	24.035000	-21.013793
	24.040000	-20.917092
	24.045000	-21.626231
	24.050000	-21.658465
	24.055000	-21.013793
	24.060000	-20.820391
	24.065000	-21.626231
	24.070000	-21.690698
	24.075000	-21.013793
	24.080000	-20.949326
	24.085000	-21.690698
	24.090000	-21.755165
	24.095000	-21.046026
	24.100000	-20.981559
	24.105000	-21.658465
	24.110000	-21.690698
	24.115000	-20.981559
	24.120000	-20.884858
	24.125000	-21.561764
	24.130000	-21.755165
	24.135000	-20.949326
	24.140000	-20.820391
	24.145000	-21.593997
	24.150000	-21.593997
	24.155000	-20.949326
	24.160000	-20.884858
	24.165000	-21.561764
	24.170000	-21.690698
	24.175000	-20.981559
	24.180000	-20.884858
	24.185000	-21.690698
	24.190000	-21.722932
	24.195000	-21.110493
	24.200000	-20.981559
	24.205000	-21.626231
	24.210000	-21.755165
	24.215000	-21.078260
	24.220000	-21.046026
	24.225000	-21.690698
	24.230000	-21.819632
	24.235000	-21.174961
	24.240000	-21.013793
	24.245000	-21.819632
	24.250000	-21.851866
	24.255000	-21.078260
	24.260000	-21.110493
	24.265000	-21.787399
	24.270000	-21.884100
	24.275000	-21.142727
	24.280000	-21.013793
	24.285000	-21.851866
	24.290000	-21.916333
	24.295000	-21.174961
	24.300000	-21.078260
	24.305000	-21.722932
	24.310000	-21.851866
	24.315000	-21.142727
	24.320000	-21.046026
	24.325000	-21.819632
	24.330000	-21.851866
	24.335000	-21.239428
	24.340000	-21.078260
	24.345000	-21.787399
	24.350000	-21.884100
	24.355000	-21.239428
	24.360000	-21.110493
	24.365000	-21.884100
	24.370000	-21.916333
	24.375000	-21.239428
	24.380000	-21.207194
	24.385000	-21.980800
	24.390000	-22.013034
	24.395000	-21.400596
	24.400000	-21.271661
	24.405000	-22.045268
	24.410000	-22.174202
	24.415000	-21.529530
	24.420000	-21.336129
	24.425000	-22.141968
	24.430000	-22.206436
	24.435000	-21.561764
	24.440000	-21.400596
	24.445000	-22.174202
	24.450000	-22.238669
	24.455000	-21.529530
	24.460000	-21.432829
	24.465000	-22.141968
	24.470000	-22.270903
	24.475000	-21.561764
	24.480000	-21.400596
	24.485000	-22.141968
	24.490000	-22.206436
	24.495000	-21.465063
	24.500000	-21.400596
	24.505000	-22.013034
	24.510000	-22.045268
	24.515000	-21.432829
	24.520000	-21.336129
	24.525000	-21.980800
	24.530000	-22.013034
	24.535000	-21.336129
	24.540000	-21.239428
	24.545000	-21.980800
	24.550000	-21.948567
	24.555000	-21.174961
	24.560000	-21.110493
	24.565000	-21.884100
	24.570000	-21.916333
	24.575000	-21.239428
	24.580000	-21.078260
	24.585000	-21.787399
	24.590000	-21.851866
	24.595000	-21.142727
	24.600000	-21.078260
	24.605000	-21.722932
	24.610000	-21.755165
	24.615000	-21.013793
	24.620000	-20.917092
	24.625000	-21.755165
	24.630000	-21.722932
	24.635000	-20.981559
	24.640000	-20.949326
	24.645000	-21.561764
	24.650000	-21.626231
	24.655000	-20.917092
	24.660000	-20.820391
	24.665000	-21.497297
	24.670000	-21.561764
	24.675000	-20.852625
	24.680000	-20.659223
	24.685000	-21.432829
	24.690000	-21.529530
	24.695000	-20.788158
	24.700000	-20.691457
	24.705000	-21.432829
	24.710000	-21.368362
	24.715000	-20.691457
	24.720000	-20.659223
	24.725000	-21.368362
	24.730000	-21.368362
	24.735000	-20.723690
	24.740000	-20.594756
	24.745000	-21.303895
	24.750000	-21.400596
	24.755000	-20.659223
	24.760000	-20.594756
	24.765000	-21.303895
	24.770000	-21.303895
	24.775000	-20.691457
	24.780000	-20.562522
	24.785000	-21.336129
	24.790000	-21.432829
	24.795000	-20.691457
	24.800000	-20.530289
	24.805000	-21.271661
	24.810000	-21.465063
	24.815000	-20.691457
	24.820000	-20.659223
	24.825000	-21.400596
	24.830000	-21.465063
	24.835000	-20.755924
	24.840000	-20.755924
	24.845000	-21.432829
	24.850000	-21.529530
	24.855000	-20.788158
	24.860000	-20.691457
	24.865000	-21.497297
	24.870000	-21.626231
	24.875000	-20.852625
	24.880000	-20.755924
	24.885000	-21.432829
	24.890000	-21.561764
	24.895000	-20.852625
	24.900000	-20.723690
	24.905000	-21.465063
	24.910000	-21.529530
	24.915000	-20.917092
	24.920000	-20.820391
	24.925000	-21.529530
	24.930000	-21.561764
	24.935000	-20.884858
	24.940000	-20.852625
	24.945000	-21.529530
	24.950000	-21.529530
	24.955000	-20.852625
	24.960000	-20.788158
	24.965000	-21.529530
	24.970000	-21.626231
	24.975000	-20.852625
	24.980000	-20.852625
	24.985000	-21.529530
	24.990000	-21.658465
	24.995000	-20.884858
	25.000000	-20.820391
	25.005000	-21.593997
	25.010000	-21.561764
	25.015000	-20.852625
	25.020000	-20.755924
	25.025000	-21.529530
	25.030000	-21.593997
	25.035000	-20.917092
	25.040000	-20.723690
	25.045000	-21.561764
	25.050000	-21.593997
	25.055000	-20.852625
	25.060000	-20.788158
	25.065000	-21.497297
	25.070000	-21.626231
	25.075000	-20.852625
	25.080000	-20.788158
	25.085000	-21.561764
	25.090000	-21.626231
	25.095000	-20.884858
	25.100000	-20.820391
	25.105000	-21.529530
	25.110000	-21.593997
	25.115000	-20.884858
	25.120000	-20.788158
	25.125000	-21.561764
	25.130000	-21.529530
	25.135000	-20.852625
	25.140000	-20.820391
	25.145000	-21.497297
	25.150000	-21.497297
	25.155000	-20.820391
	25.160000	-20.788158
	25.165000	-21.432829
	25.170000	-21.497297
	25.175000	-20.820391
	25.180000	-20.691457
	25.185000	-21.432829
	25.190000	-21.561764
	25.195000	-20.723690
	25.200000	-20.691457
	25.205000	-21.497297
	25.210000	-21.465063
	25.215000	-20.788158
	25.220000	-20.788158
	25.225000	-21.432829
	25.230000	-21.497297
	25.235000	-20.755924
	25.240000	-20.723690
	25.245000	-21.432829
	25.250000	-21.529530
	25.255000	-20.820391
	25.260000	-20.691457
	25.265000	-21.432829
	25.270000	-21.497297
	25.275000	-20.755924
	25.280000	-20.723690
	25.285000	-21.432829
	25.290000	-21.497297
	25.295000	-20.788158
	25.300000	-20.659223
	25.305000	-21.400596
	25.310000	-21.561764
	25.315000	-20.723690
	25.320000	-20.755924
	25.325000	-21.465063
	25.330000	-21.529530
	25.335000	-20.820391
	25.340000	-20.788158
	25.345000	-21.465063
	25.350000	-21.561764
	25.355000	-20.788158
	25.360000	-20.755924
	25.365000	-21.465063
	25.370000	-21.497297
	25.375000	-20.820391
	25.380000	-20.820391
	25.385000	-21.529530
	25.390000	-21.626231
	25.395000	-20.820391
	25.400000	-20.852625
	25.405000	-21.529530
	25.410000	-21.529530
	25.415000	-20.884858
	25.420000	-20.852625
	25.425000	-21.529530
	25.430000	-21.561764
	25.435000	-20.917092
	25.440000	-20.723690
	25.445000	-21.529530
	25.450000	-21.561764
	25.455000	-20.949326
	25.460000	-20.788158
	25.465000	-21.529530
	25.470000	-21.529530
	25.475000	-20.852625
	25.480000	-20.852625
	25.485000	-21.497297
	25.490000	-21.593997
	25.495000	-20.917092
	25.500000	-20.820391
	25.505000	-21.561764
	25.510000	-21.593997
	25.515000	-20.852625
	25.520000	-20.820391
	25.525000	-21.593997
	25.530000	-21.561764
	25.535000	-20.884858
	25.540000	-20.820391
	25.545000	-21.529530
	25.550000	-21.626231
	25.555000	-20.949326
	25.560000	-20.820391
	25.565000	-21.561764
	25.570000	-21.593997
	25.575000	-20.884858
	25.580000	-20.820391
	25.585000	-21.465063
	25.590000	-21.593997
	25.595000	-20.820391
	25.600000	-20.820391
	25.605000	-21.529530
	25.610000	-21.529530
	25.615000	-20.755924
	25.620000	-20.723690
	25.625000	-21.465063
	25.630000	-21.529530
	25.635000	-20.820391
	25.640000	-20.723690
	25.645000	-21.336129
	25.650000	-21.529530
	25.655000	-20.691457
	25.660000	-20.659223
	25.665000	-21.368362
	25.670000	-21.368362
	25.675000	-20.691457
	25.680000	-20.594756
	25.685000	-21.336129
	25.690000	-21.432829
	25.695000	-20.659223
	25.700000	-20.659223
	25.705000	-21.368362
	25.710000	-21.368362
	25.715000	-20.659223
	25.720000	-20.626990
	25.725000	-21.400596
	25.730000	-21.336129
	25.735000	-20.594756
	25.740000	-20.626990
	25.745000	-21.336129
	25.750000	-21.368362
	25.755000	-20.626990
	25.760000	-20.530289
	25.765000	-21.303895
	25.770000	-21.432829
	25.775000	-20.626990
	25.780000	-20.530289
	25.785000	-21.368362
	25.790000	-21.368362
	25.795000	-20.594756
	25.800000	-20.562522
	25.805000	-21.336129
	25.810000	-21.303895
	25.815000	-20.691457
	25.820000	-20.530289
	25.825000	-21.336129
	25.830000	-21.432829
	25.835000	-20.691457
	25.840000	-20.626990
	25.845000	-21.432829
	25.850000	-21.303895
	25.855000	-20.723690
	25.860000	-20.723690
	25.865000	-21.368362
	25.870000	-21.336129
	25.875000	-20.691457
	25.880000	-20.723690
	25.885000	-21.368362
	25.890000	-21.465063
	25.895000	-20.755924
	25.900000	-20.723690
	25.905000	-21.400596
	25.910000	-21.432829
	25.915000	-20.755924
	25.920000	-20.691457
	25.925000	-21.400596
	25.930000	-21.368362
	25.935000	-20.723690
	25.940000	-20.626990
	25.945000	-21.400596
	25.950000	-21.497297
	25.955000	-20.755924
	25.960000	-20.659223
	25.965000	-21.432829
	25.970000	-21.336129
	25.975000	-20.788158
	25.980000	-20.659223
	25.985000	-21.368362
	25.990000	-21.497297
	25.995000	-20.755924
	26.000000	-20.755924
	26.005000	-21.432829
	26.010000	-21.465063
	26.015000	-20.691457
	26.020000	-20.723690
	26.025000	-21.432829
	26.030000	-21.400596
	26.035000	-20.755924
	26.040000	-20.723690
	26.045000	-21.400596
	26.050000	-21.432829
	26.055000	-20.594756
	26.060000	-20.691457
	26.065000	-21.400596
	26.070000	-21.465063
	26.075000	-20.691457
	26.080000	-20.659223
	26.085000	-21.368362
	26.090000	-21.465063
	26.095000	-20.723690
	26.100000	-20.691457
	26.105000	-21.432829
	26.110000	-21.400596
	26.115000	-20.755924
	26.120000	-20.755924
	26.125000	-21.336129
	26.130000	-21.465063
	26.135000	-20.691457
	26.140000	-20.691457
	26.145000	-21.432829
	26.150000	-21.400596
	26.155000	-20.691457
	26.160000	-20.691457
	26.165000	-21.400596
	26.170000	-21.465063
	26.175000	-20.691457
	26.180000	-20.659223
	26.185000	-21.400596
	26.190000	-21.368362
	26.195000	-20.691457
	26.200000	-20.755924
	26.205000	-21.400596
	26.210000	-21.368362
	26.215000	-20.626990
	26.220000	-20.530289
	26.225000	-21.336129
	26.230000	-21.303895
	26.235000	-20.626990
	26.240000	-20.659223
	26.245000	-21.368362
	26.250000	-21.303895
	26.255000	-20.626990
	26.260000	-20.626990
	26.265000	-21.368362
	26.270000	-21.303895
	26.275000	-20.562522
	26.280000	-20.498055
	26.285000	-21.271661
	26.290000	-21.271661
	26.295000	-20.562522
	26.300000	-20.594756
	26.305000	-21.271661
	26.310000	-21.239428
	26.315000	-20.562522
	26.320000	-20.530289
	26.325000	-21.271661
	26.330000	-21.303895
	26.335000	-20.594756
	26.340000	-20.433588
	26.345000	-21.239428
	26.350000	-21.174961
	26.355000	-20.498055
	26.360000	-20.465822
	26.365000	-21.174961
	26.370000	-21.303895
	26.375000	-20.465822
	26.380000	-20.465822
	26.385000	-21.239428
	26.390000	-21.271661
	26.395000	-20.498055
	26.400000	-20.465822
	26.405000	-21.207194
	26.410000	-21.207194
	26.415000	-20.498055
	26.420000	-20.498055
	26.425000	-21.271661
	26.430000	-21.174961
	26.435000	-20.465822
	26.440000	-20.498055
	26.445000	-21.207194
	26.450000	-21.207194
	26.455000	-20.594756
	26.460000	-20.465822
	26.465000	-21.174961
	26.470000	-21.239428
	26.475000	-20.530289
	26.480000	-20.530289
	26.485000	-21.271661
	26.490000	-21.207194
	26.495000	-20.626990
	26.500000	-20.594756
	26.505000	-21.239428
	26.510000	-21.239428
	26.515000	-20.626990
	26.520000	-20.626990
	26.525000	-21.368362
	26.530000	-21.400596
	26.535000	-20.723690
	26.540000	-20.659223
	26.545000	-21.303895
	26.550000	-21.368362
	26.555000	-20.626990
	26.560000	-20.626990
	26.565000	-21.400596
	26.570000	-21.368362
	26.575000	-20.594756
	26.580000	-20.691457
	26.585000	-21.336129
	26.590000	-21.303895
	26.595000	-20.659223
	26.600000	-20.659223
	26.605000	-21.336129
	26.610000	-21.368362
	26.615000	-20.723690
	26.620000	-20.659223
	26.625000	-21.400596
	26.630000	-21.368362
	26.635000	-20.691457
	26.640000	-20.691457
	26.645000	-21.336129
	26.650000	-21.336129
	26.655000	-20.659223
	26.660000	-20.755924
	26.665000	-21.303895
	26.670000	-21.400596
	26.675000	-20.723690
	26.680000	-20.659223
	26.685000	-21.400596
	26.690000	-21.432829
	26.695000	-20.691457
	26.700000	-20.691457
	26.705000	-21.400596
	26.710000	-21.400596
	26.715000	-20.723690
	26.720000	-20.626990
	26.725000	-21.465063
	26.730000	-21.497297
	26.735000	-20.691457
	26.740000	-20.723690
	26.745000	-21.432829
	26.750000	-21.432829
	26.755000	-20.691457
	26.760000	-20.788158
	26.765000	-21.400596
	26.770000	-21.432829
	26.775000	-20.723690
	26.780000	-20.691457
	26.785000	-21.432829
	26.790000	-21.368362
	26.795000	-20.659223
	26.800000	-20.755924
	26.805000	-21.400596
	26.810000	-21.368362
	26.815000	-20.691457
	26.820000	-20.755924
	26.825000	-21.400596
	26.830000	-21.368362
	26.835000	-20.659223
	26.840000	-20.659223
	26.845000	-21.400596
	26.850000	-21.400596
	26.855000	-20.723690
	26.860000	-20.659223
	26.865000	-21.465063
	26.870000	-21.432829
	26.875000	-20.691457
	26.880000	-20.659223
	26.885000	-21.368362
	26.890000	-21.336129
	26.895000	-20.626990
	26.900000	-20.594756
	26.905000	-21.303895
	26.910000	-21.336129
	26.915000	-20.626990
	26.920000	-20.594756
	26.925000	-21.336129
	26.930000	-21.271661
	26.935000	-20.562522
	26.940000	-20.594756
	26.945000	-21.271661
	26.950000	-21.271661
	26.955000	-20.530289
	26.960000	-20.594756
	26.965000	-21.239428
	26.970000	-21.271661
	26.975000	-20.530289
	26.980000	-20.594756
	26.985000	-21.271661
	26.990000	-21.239428
	26.995000	-20.498055
	27.000000	-20.530289
	27.005000	-21.174961
	27.010000	-21.174961
	27.015000	-20.530289
	27.020000	-20.465822
	27.025000	-21.207194
	27.030000	-21.142727
	27.035000	-20.465822
	27.040000	-20.498055
	27.045000	-21.174961
	27.050000	-21.207194
	27.055000	-20.465822
	27.060000	-20.498055
	27.065000	-21.239428
	27.070000	-21.174961
	27.075000	-20.433588
	27.080000	-20.498055
	27.085000	-21.142727
	27.090000	-21.110493
	27.095000	-20.433588
	27.100000	-20.465822
	27.105000	-21.239428
	27.110000	-21.142727
	27.115000	-20.433588
	27.120000	-20.401355
	27.125000	-21.207194
	27.130000	-21.078260
	27.135000	-20.369121
	27.140000	-20.401355
	27.145000	-21.174961
	27.150000	-21.142727
	27.155000	-20.336887
	27.160000	-20.401355
	27.165000	-21.110493
	27.170000	-21.110493
	27.175000	-20.401355
	27.180000	-20.336887
	27.185000	-21.110493
	27.190000	-21.013793
	27.195000	-20.369121
	27.200000	-20.336887
	27.205000	-21.110493
	27.210000	-20.981559
	27.215000	-20.304654
	27.220000	-20.304654
	27.225000	-21.013793
	27.230000	-21.013793
	27.235000	-20.272420
	27.240000	-20.304654
	27.245000	-21.046026
	27.250000	-21.046026
	27.255000	-20.175719
	27.260000	-20.336887
	27.265000	-21.013793
	27.270000	-20.949326
	27.275000	-20.272420
	27.280000	-20.272420
	27.285000	-20.949326
	27.290000	-20.949326
	27.295000	-20.175719
	27.300000	-20.175719
	27.305000	-20.981559
	27.310000	-20.917092
	27.315000	-20.240187
	27.320000	-20.175719
	27.325000	-20.981559
	27.330000	-20.949326
	27.335000	-20.304654
	27.340000	-20.240187
	27.345000	-20.981559
	27.350000	-20.884858
	27.355000	-20.336887
	27.360000	-20.272420
	27.365000	-21.013793
	27.370000	-20.981559
	27.375000	-20.207953
	27.380000	-20.240187
	27.385000	-21.046026
	27.390000	-20.949326
	27.395000	-20.336887
	27.400000	-20.336887
	27.405000	-21.013793
	27.410000	-21.013793
	27.415000	-20.336887
	27.420000	-20.498055
	27.425000	-21.110493
	27.430000	-21.110493
	27.435000	-20.401355
	27.440000	-20.433588
	27.445000	-21.142727
	27.450000	-21.174961
	27.455000	-20.498055
	27.460000	-20.465822
	27.465000	-21.207194
	27.470000	-21.142727
	27.475000	-20.433588
	27.480000	-20.498055
	27.485000	-21.239428
	27.490000	-21.239428
	27.495000	-20.530289
	27.500000	-20.594756
	27.505000	-21.271661
	27.510000	-21.239428
	27.515000	-20.530289
	27.520000	-20.498055
	27.525000	-21.303895
	27.530000	-21.239428
	27.535000	-20.530289
	27.540000	-20.530289
	27.545000	-21.271661
	27.550000	-21.239428
	27.555000	-20.594756
	27.560000	-20.530289
	27.565000	-21.303895
	27.570000	-21.207194
	27.575000	-20.498055
	27.580000	-20.594756
	27.585000	-21.239428
	27.590000	-21.174961
	27.595000	-20.530289
	27.600000	-20.498055
	27.605000	-21.239428
	27.610000	-21.142727
	27.615000	-20.433588
	27.620000	-20.530289
	27.625000	-21.303895
	27.630000	-21.207194
	27.635000	-20.433588
	27.640000	-20.562522
	27.645000	-21.303895
	27.650000	-21.174961
	27.655000	-20.465822
	27.660000	-20.594756
	27.665000	-21.303895
	27.670000	-21.303895
	27.675000	-20.530289
	27.680000	-20.498055
	27.685000	-21.303895
	27.690000	-21.239428
	27.695000	-20.498055
	27.700000	-20.594756
	27.705000	-21.239428
	27.710000	-21.142727
	27.715000	-20.530289
	27.720000	-20.498055
	27.725000	-21.303895
	27.730000	-21.336129
	27.735000	-20.562522
	27.740000	-20.594756
	27.745000	-21.303895
	27.750000	-21.271661
	27.755000	-20.562522
	27.760000	-20.594756
	27.765000	-21.303895
	27.770000	-21.271661
	27.775000	-20.626990
	27.780000	-20.691457
	27.785000	-21.336129
	27.790000	-21.303895
	27.795000	-20.562522
	27.800000	-20.626990
	27.805000	-21.368362
	27.810000	-21.336129
	27.815000	-20.562522
	27.820000	-20.659223
	27.825000	-21.400596
	27.830000	-21.303895
	27.835000	-20.626990
	27.840000	-20.723690
	27.845000	-21.336129
	27.850000	-21.303895
	27.855000	-20.594756
	27.860000	-20.659223
	27.865000	-21.303895
	27.870000	-21.303895
	27.875000	-20.594756
	27.880000	-20.659223
	27.885000	-21.432829
	27.890000	-21.368362
	27.895000	-20.659223
	27.900000	-20.626990
	27.905000	-21.400596
	27.910000	-21.303895
	27.915000	-20.530289
	27.920000	-20.594756
	27.925000	-21.303895
	27.930000	-21.271661
	27.935000	-20.530289
	27.940000	-20.562522
	27.945000	-21.368362
	27.950000	-21.207194
	27.955000	-20.433588
	27.960000	-20.498055
	27.965000	-21.207194
	27.970000	-21.013793
	27.975000	-20.272420
	27.980000	-20.143486
	27.985000	-20.659223
	27.990000	-20.304654
	27.995000	-19.273179
	28.000000	-19.047544
	28.005000	-19.434347
	28.010000	-19.208712
	28.015000	-18.306171
	28.020000	-18.145003
	28.025000	-18.725208
	28.030000	-18.531806
	28.035000	-17.790434
	28.040000	-17.597032
	28.045000	-18.177237
	28.050000	-18.080536
	28.055000	-17.274696
	28.060000	-17.210229
	28.065000	-17.758200
	28.070000	-17.564799
	28.075000	-16.758959
	28.080000	-16.726725
	28.085000	-17.306930
	28.090000	-17.081295
	28.095000	-16.372156
	28.100000	-16.243221
	28.105000	-16.984594
	28.110000	-16.758959
	28.115000	-16.082054
	28.120000	-16.049820
	28.125000	-16.726725
	28.130000	-16.597791
	28.135000	-15.856418
	28.140000	-15.824185
	28.145000	-16.533324
	28.150000	-16.404389
	28.155000	-15.727484
	28.160000	-15.856418
	28.165000	-16.436623
	28.170000	-16.307689
	28.175000	-15.630783
	28.180000	-15.727484
	28.185000	-16.307689
	28.190000	-16.243221
	28.195000	-15.630783
	28.200000	-15.630783
	28.205000	-16.339922
	28.210000	-16.178754
	28.215000	-15.501849
	28.220000	-15.501849
	28.225000	-16.178754
	28.230000	-16.146521
	28.235000	-15.469615
	28.240000	-15.534083
	28.245000	-16.275455
	28.250000	-16.082054
	28.255000	-15.437382
	28.260000	-15.501849
	28.265000	-16.210988
	28.270000	-16.114287
	28.275000	-15.405148
	28.280000	-15.534083
	28.285000	-16.178754
	28.290000	-16.114287
	28.295000	-15.501849
	28.300000	-15.534083
	28.305000	-16.082054
	28.310000	-16.017586
	28.315000	-15.372915
	28.320000	-15.469615
	28.325000	-16.049820
	28.330000	-16.178754
	28.335000	-15.405148
	28.340000	-15.405148
	28.345000	-16.114287
	28.350000	-16.049820
	28.355000	-15.405148
	28.360000	-15.469615
	28.365000	-16.049820
	28.370000	-15.985353
	28.375000	-15.437382
	28.380000	-15.469615
	28.385000	-16.114287
	28.390000	-16.114287
	28.395000	-15.534083
	28.400000	-15.534083
	28.405000	-16.210988
	28.410000	-16.178754
	28.415000	-15.566316
	28.420000	-15.598550
	28.425000	-16.307689
	28.430000	-16.275455
	28.435000	-15.663017
	28.440000	-15.759718
	28.445000	-16.436623
	28.450000	-16.468857
	28.455000	-15.888652
	28.460000	-15.920886
	28.465000	-16.630025
	28.470000	-16.597791
	28.475000	-16.049820
	28.480000	-16.178754
	28.485000	-16.952360
	28.490000	-16.952360
	28.495000	-16.372156
	28.500000	-16.533324
	28.505000	-17.403631
	28.510000	-17.532565
	28.515000	-17.113528
	28.520000	-17.403631
	28.525000	-18.306171
	28.530000	-18.467339
	28.535000	-17.919368
	28.540000	-18.241704
	28.545000	-18.918609
	28.550000	-19.047544
	28.555000	-18.564040
	28.560000	-18.821909
	28.565000	-19.659982
	28.570000	-19.821150
	28.575000	-19.369880
	28.580000	-19.627748
	28.585000	-20.530289
	28.590000	-20.626990
	28.595000	-20.207953
	28.600000	-20.530289
	28.605000	-21.400596
	28.610000	-21.400596
	28.615000	-20.981559
	28.620000	-21.207194
	28.625000	-21.980800
	28.630000	-21.980800
	28.635000	-21.497297
	28.640000	-21.626231
	28.645000	-22.464304
	28.650000	-22.367603
	28.655000	-21.787399
	28.660000	-21.916333
	28.665000	-22.689939
	28.670000	-22.561005
	28.675000	-21.948567
	28.680000	-22.077501
	28.685000	-22.754407
	28.690000	-22.754407
	28.695000	-22.109735
	28.700000	-22.206436
	28.705000	-22.818874
	28.710000	-22.851107
	28.715000	-22.109735
	28.720000	-22.303136
	28.725000	-22.947808
	28.730000	-22.851107
	28.735000	-22.238669
	28.740000	-22.238669
	28.745000	-22.947808
	28.750000	-22.883341
	28.755000	-22.174202
	28.760000	-22.335370
	28.765000	-23.044509
	28.770000	-22.915574
	28.775000	-22.238669
	28.780000	-22.303136
	28.785000	-23.012275
	28.790000	-23.044509
	28.795000	-22.303136
	28.800000	-22.464304
	28.805000	-23.141210
	28.810000	-23.108976
	28.815000	-22.399837
	28.820000	-22.496538
	28.825000	-23.173443
	28.830000	-22.980042
	28.835000	-22.432071
	28.840000	-22.432071
	28.845000	-23.205677
	28.850000	-23.108976
	28.855000	-22.464304
	28.860000	-22.496538
	28.865000	-23.205677
	28.870000	-23.205677
	28.875000	-22.528771
	28.880000	-22.496538
	28.885000	-23.205677
	28.890000	-23.044509
	28.895000	-22.367603
	28.900000	-22.528771
	28.905000	-23.108976
	28.910000	-23.108976
	28.915000	-22.367603
	28.920000	-22.464304
	28.925000	-23.173443
	28.930000	-23.076742
	28.935000	-22.335370
	28.940000	-22.399837
	28.945000	-22.980042
	28.950000	-22.947808
	28.955000	-22.206436
	28.960000	-22.270903
	28.965000	-22.980042
	28.970000	-22.851107
	28.975000	-22.141968
	28.980000	-22.238669
	28.985000	-22.883341
	28.990000	-22.754407
	28.995000	-22.206436
	29.000000	-22.238669
	29.005000	-22.818874
	29.010000	-22.786640
	29.015000	-22.174202
	29.020000	-22.270903
	29.025000	-22.851107
	29.030000	-22.786640
	29.035000	-22.013034
	29.040000	-22.206436
	29.045000	-22.947808
	29.050000	-22.786640
	29.055000	-22.013034
	29.060000	-22.174202
	29.065000	-22.851107
	29.070000	-22.818874
	29.075000	-22.141968
	29.080000	-22.174202
	29.085000	-22.851107
	29.090000	-22.818874
	29.095000	-22.077501
	29.100000	-22.174202
	29.105000	-22.883341
	29.110000	-22.786640
	29.115000	-22.109735
	29.120000	-22.238669
	29.125000	-22.947808
	29.130000	-22.754407
	29.135000	-22.077501
	29.140000	-22.335370
	29.145000	-22.915574
	29.150000	-22.851107
	29.155000	-22.174202
	29.160000	-22.238669
	29.165000	-22.915574
	29.170000	-22.883341
	29.175000	-22.141968
	29.180000	-22.270903
	29.185000	-22.980042
	29.190000	-22.818874
	29.195000	-22.109735
	29.200000	-22.174202
	29.205000	-22.915574
	29.210000	-22.786640
	29.215000	-22.077501
	29.220000	-22.174202
	29.225000	-22.883341
	29.230000	-22.786640
	29.235000	-22.045268
	29.240000	-22.109735
	29.245000	-22.851107
	29.250000	-22.722173
	29.255000	-22.077501
	29.260000	-22.109735
	29.265000	-22.851107
	29.270000	-22.722173
	29.275000	-21.980800
	29.280000	-22.077501
	29.285000	-22.786640
	29.290000	-22.593239
	29.295000	-21.948567
	29.300000	-22.077501
	29.305000	-22.786640
	29.310000	-22.625472
	29.315000	-21.819632
	29.320000	-21.948567
	29.325000	-22.754407
	29.330000	-22.528771
	29.335000	-21.884100
	29.340000	-21.980800
	29.345000	-22.657706
	29.350000	-22.464304
	29.355000	-21.851866
	29.360000	-21.884100
	29.365000	-22.528771
	29.370000	-22.432071
	29.375000	-21.787399
	29.380000	-21.884100
	29.385000	-22.593239
	29.390000	-22.335370
	29.395000	-21.755165
	29.400000	-21.787399
	29.405000	-22.528771
	29.410000	-22.367603
	29.415000	-21.658465
	29.420000	-21.658465
	29.425000	-22.399837
	29.430000	-22.303136
	29.435000	-21.529530
	29.440000	-21.658465
	29.445000	-22.335370
	29.450000	-22.206436
	29.455000	-21.465063
	29.460000	-21.626231
	29.465000	-22.335370
	29.470000	-22.206436
	29.475000	-21.400596
	29.480000	-21.529530
	29.485000	-22.270903
	29.490000	-22.141968
	29.495000	-21.368362
	29.500000	-21.593997
	29.505000	-22.206436
	29.510000	-22.077501
	29.515000	-21.336129
	29.520000	-21.497297
	29.525000	-22.238669
	29.530000	-22.077501
	29.535000	-21.400596
	29.540000	-21.497297
	29.545000	-22.174202
	29.550000	-22.045268
	29.555000	-21.303895
	29.560000	-21.400596
	29.565000	-22.206436
	29.570000	-22.013034
	29.575000	-21.400596
	29.580000	-21.497297
	29.585000	-22.174202
	29.590000	-22.077501
	29.595000	-21.368362
	29.600000	-21.400596
	29.605000	-22.109735
	29.610000	-21.948567
	29.615000	-21.239428
	29.620000	-21.400596
	29.625000	-22.141968
	29.630000	-21.980800
	29.635000	-21.271661
	29.640000	-21.432829
	29.645000	-22.141968
	29.650000	-21.948567
	29.655000	-21.303895
	29.660000	-21.368362
	29.665000	-22.141968
	29.670000	-22.013034
	29.675000	-21.271661
	29.680000	-21.465063
	29.685000	-22.174202
	29.690000	-22.045268
	29.695000	-21.336129
	29.700000	-21.497297
	29.705000	-22.238669
	29.710000	-22.077501
	29.715000	-21.400596
	29.720000	-21.529530
	29.725000	-22.238669
	29.730000	-22.109735
	29.735000	-21.465063
	29.740000	-21.626231
	29.745000	-22.270903
	29.750000	-22.174202
	29.755000	-21.465063
	29.760000	-21.658465
	29.765000	-22.335370
	29.770000	-22.174202
	29.775000	-21.529530
	29.780000	-21.561764
	29.785000	-22.399837
	29.790000	-22.238669
	29.795000	-21.497297
	29.800000	-21.658465
	29.805000	-22.399837
	29.810000	-22.238669
	29.815000	-21.593997
	29.820000	-21.722932
	29.825000	-22.432071
	29.830000	-22.206436
	29.835000	-21.593997
	29.840000	-21.626231
	29.845000	-22.335370
	29.850000	-22.238669
	29.855000	-21.593997
	29.860000	-21.755165
	29.865000	-22.399837
	29.870000	-22.303136
	29.875000	-21.561764
	29.880000	-21.690698
	29.885000	-22.432071
	29.890000	-22.270903
	29.895000	-21.561764
	29.900000	-21.658465
	29.905000	-22.335370
	29.910000	-22.303136
	29.915000	-21.561764
	29.920000	-21.690698
	29.925000	-22.367603
	29.930000	-22.174202
	29.935000	-21.497297
	29.940000	-21.690698
	29.945000	-22.335370
	29.950000	-22.174202
	29.955000	-21.529530
	29.960000	-21.658465
	29.965000	-22.367603
	29.970000	-22.238669
	29.975000	-21.529530
	29.980000	-21.626231
	29.985000	-22.367603
	29.990000	-22.174202
	29.995000	-21.432829
	30.000000	-21.626231
	30.005000	-22.335370
	30.010000	-22.238669
	30.015000	-21.529530
	30.020000	-21.593997
	30.025000	-22.335370
	30.030000	-22.206436
	30.035000	-21.497297
	30.040000	-21.593997
	30.045000	-22.335370
	30.050000	-22.109735
	30.055000	-21.465063
	30.060000	-21.561764
	30.065000	-22.270903
	30.070000	-22.141968
	30.075000	-21.432829
	30.080000	-21.593997
	30.085000	-22.303136
	30.090000	-22.109735
	30.095000	-21.432829
	30.100000	-21.529530
	30.105000	-22.206436
	30.110000	-22.077501
	30.115000	-21.336129
	30.120000	-21.561764
	30.125000	-22.174202
	30.130000	-22.077501
	30.135000	-21.368362
	30.140000	-21.400596
	30.145000	-22.206436
	30.150000	-22.045268
	30.155000	-21.336129
	30.160000	-21.497297
	30.165000	-22.109735
	30.170000	-21.948567
	30.175000	-21.303895
	30.180000	-21.497297
	30.185000	-22.141968
	30.190000	-21.980800
	30.195000	-21.303895
	30.200000	-21.368362
	30.205000	-22.238669
	30.210000	-21.916333
	30.215000	-21.303895
	30.220000	-21.400596
	30.225000	-22.109735
	30.230000	-21.948567
	30.235000	-21.303895
	30.240000	-21.432829
	30.245000	-22.077501
	30.250000	-22.013034
	30.255000	-21.271661
	30.260000	-21.432829
	30.265000	-22.045268
	30.270000	-21.916333
	30.275000	-21.207194
	30.280000	-21.271661
	30.285000	-22.109735
	30.290000	-21.884100
	30.295000	-21.207194
	30.300000	-21.303895
	30.305000	-22.109735
	30.310000	-21.916333
	30.315000	-21.207194
	30.320000	-21.400596
	30.325000	-22.077501
	30.330000	-21.819632
	30.335000	-21.271661
	30.340000	-21.400596
	30.345000	-22.077501
	30.350000	-21.916333
	30.355000	-21.207194
	30.360000	-21.336129
	30.365000	-22.045268
	30.370000	-21.884100
	30.375000	-21.271661
	30.380000	-21.400596
	30.385000	-22.077501
	30.390000	-21.916333
	30.395000	-21.271661
	30.400000	-21.368362
	30.405000	-22.109735
	30.410000	-21.916333
	30.415000	-21.239428
	30.420000	-21.368362
	30.425000	-22.077501
	30.430000	-21.980800
	30.435000	-21.239428
	30.440000	-21.400596
	30.445000	-22.045268
	30.450000	-21.980800
	30.455000	-21.271661
	30.460000	-21.465063
	30.465000	-22.013034
	30.470000	-21.884100
	30.475000	-21.271661
	30.480000	-21.368362
	30.485000	-22.109735
	30.490000	-21.916333
	30.495000	-21.207194
	30.500000	-21.400596
	30.505000	-22.109735
	30.510000	-21.884100
	30.515000	-21.174961
	30.520000	-21.400596
	30.525000	-22.077501
	30.530000	-21.884100
	30.535000	-21.303895
	30.540000	-21.400596
	30.545000	-22.077501
	30.550000	-21.916333
	30.555000	-21.239428
	30.560000	-21.368362
	30.565000	-22.109735
	30.570000	-21.884100
	30.575000	-21.207194
	30.580000	-21.368362
	30.585000	-22.045268
	30.590000	-21.884100
	30.595000	-21.207194
	30.600000	-21.336129
	30.605000	-22.077501
	30.610000	-21.916333
	30.615000	-21.207194
	30.620000	-21.400596
	30.625000	-22.077501
	30.630000	-21.851866
	30.635000	-21.207194
	30.640000	-21.432829
	30.645000	-22.045268
	30.650000	-21.819632
	30.655000	-21.239428
	30.660000	-21.336129
	30.665000	-21.980800
	30.670000	-21.755165
	30.675000	-21.207194
	30.680000	-21.336129
	30.685000	-22.077501
	30.690000	-21.884100
	30.695000	-21.142727
	30.700000	-21.336129
	30.705000	-22.013034
	30.710000	-21.851866
	30.715000	-21.174961
	30.720000	-21.336129
	30.725000	-22.045268
	30.730000	-21.884100
	30.735000	-21.142727
	30.740000	-21.336129
	30.745000	-21.980800
	30.750000	-21.787399
	30.755000	-21.207194
	30.760000	-21.336129
	30.765000	-21.980800
	30.770000	-21.884100
	30.775000	-21.174961
	30.780000	-21.271661
	30.785000	-21.980800
	30.790000	-21.851866
	30.795000	-21.142727
	30.800000	-21.303895
	30.805000	-21.980800
	30.810000	-21.884100
	30.815000	-21.174961
	30.820000	-21.336129
	30.825000	-22.045268
	30.830000	-21.916333
	30.835000	-21.207194
	30.840000	-21.271661
	30.845000	-22.045268
	30.850000	-21.916333
	30.855000	-21.174961
	30.860000	-21.336129
	30.865000	-22.109735
	30.870000	-21.851866
	30.875000	-21.174961
	30.880000	-21.271661
	30.885000	-22.045268
	30.890000	-21.755165
	30.895000	-21.174961
	30.900000	-21.271661
	30.905000	-21.948567
	30.910000	-21.787399
	30.915000	-21.110493
	30.920000	-21.303895
	30.925000	-21.916333
	30.930000	-21.819632
	30.935000	-21.078260
	30.940000	-21.239428
	30.945000	-21.884100
	30.950000	-21.787399
	30.955000	-21.046026
	30.960000	-21.271661
	30.965000	-21.980800
	30.970000	-21.722932
	30.975000	-21.078260
	30.980000	-21.239428
	30.985000	-21.916333
	30.990000	-21.722932
	30.995000	-21.046026
	31.000000	-21.207194
	31.005000	-21.851866
	31.010000	-21.787399
	31.015000	-21.078260
	31.020000	-21.239428
	31.025000	-21.916333
	31.030000	-21.690698
	31.035000	-21.013793
	31.040000	-21.142727
	31.045000	-21.851866
	31.050000	-21.658465
	31.055000	-20.981559
	31.060000	-21.110493
	31.065000	-21.916333
	31.070000	-21.722932
	31.075000	-20.981559
	31.080000	-21.207194
	31.085000	-21.916333
	31.090000	-21.658465
	31.095000	-20.981559
	31.100000	-21.142727
	31.105000	-21.916333
	31.110000	-21.690698
	31.115000	-20.917092
	31.120000	-21.078260
	31.125000	-21.851866
	31.130000	-21.561764
	31.135000	-20.884858
	31.140000	-21.174961
	31.145000	-21.690698
	31.150000	-21.497297
	31.155000	-20.820391
	31.160000	-20.949326
	31.165000	-21.593997
	31.170000	-21.368362
	31.175000	-20.594756
	31.180000	-20.788158
	31.185000	-21.497297
	31.190000	-21.271661
	31.195000	-20.562522
	31.200000	-20.691457
	31.205000	-21.336129
	31.210000	-21.174961
	31.215000	-20.369121
	31.220000	-20.594756
	31.225000	-21.336129
	31.230000	-21.110493
	31.235000	-20.401355
	31.240000	-20.562522
	31.245000	-21.303895
	31.250000	-21.110493
	31.255000	-20.304654
	31.260000	-20.562522
	31.265000	-21.239428
	31.270000	-21.046026
	31.275000	-20.401355
	31.280000	-20.562522
	31.285000	-21.239428
	31.290000	-21.013793
	31.295000	-20.369121
	31.300000	-20.498055
	31.305000	-21.207194
	31.310000	-21.046026
	31.315000	-20.336887
	31.320000	-20.498055
	31.325000	-21.207194
	31.330000	-20.981559
	31.335000	-20.369121
	31.340000	-20.562522
	31.345000	-21.207194
	31.350000	-21.046026
	31.355000	-20.336887
	31.360000	-20.562522
	31.365000	-21.174961
	31.370000	-21.046026
	31.375000	-20.401355
	31.380000	-20.465822
	31.385000	-21.207194
	31.390000	-21.046026
	31.395000	-20.369121
	31.400000	-20.530289
	31.405000	-21.271661
	31.410000	-21.078260
	31.415000	-20.433588
	31.420000	-20.530289
	31.425000	-21.207194
	31.430000	-21.013793
	31.435000	-20.401355
	31.440000	-20.530289
	31.445000	-21.271661
	31.450000	-21.142727
	31.455000	-20.433588
	31.460000	-20.691457
	31.465000	-21.400596
	31.470000	-21.110493
	31.475000	-20.465822
	31.480000	-20.562522
	31.485000	-21.336129
	31.490000	-21.239428
	31.495000	-20.498055
	31.500000	-20.659223
	31.505000	-21.400596
	31.510000	-21.271661
	31.515000	-20.498055
	31.520000	-20.659223
	31.525000	-21.368362
	31.530000	-21.174961
	31.535000	-20.562522
	31.540000	-20.659223
	31.545000	-21.432829
	31.550000	-21.142727
	31.555000	-20.530289
	31.560000	-20.691457
	31.565000	-21.368362
	31.570000	-21.174961
	31.575000	-20.530289
	31.580000	-20.755924
	31.585000	-21.336129
	31.590000	-21.174961
	31.595000	-20.465822
	31.600000	-20.723690
	31.605000	-21.368362
	31.610000	-21.207194
	31.615000	-20.562522
	31.620000	-20.755924
	31.625000	-21.368362
	31.630000	-21.142727
	31.635000	-20.498055
	31.640000	-20.788158
	31.645000	-21.432829
	31.650000	-21.239428
	31.655000	-20.562522
	31.660000	-20.691457
	31.665000	-21.529530
	31.670000	-21.239428
	31.675000	-20.594756
	31.680000	-20.691457
	31.685000	-21.465063
	31.690000	-21.303895
	31.695000	-20.562522
	31.700000	-20.788158
	31.705000	-21.465063
	31.710000	-21.336129
	31.715000	-20.626990
	31.720000	-20.755924
	31.725000	-21.497297
	31.730000	-21.336129
	31.735000	-20.626990
	31.740000	-20.820391
	31.745000	-21.465063
	31.750000	-21.303895
	31.755000	-20.594756
	31.760000	-20.788158
	31.765000	-21.529530
	31.770000	-21.303895
	31.775000	-20.626990
	31.780000	-20.820391
	31.785000	-21.465063
	31.790000	-21.303895
	31.795000	-20.626990
	31.800000	-20.788158
	31.805000	-21.497297
	31.810000	-21.207194
	31.815000	-20.594756
	31.820000	-20.755924
	31.825000	-21.368362
	31.830000	-21.207194
	31.835000	-20.498055
	31.840000	-20.659223
	31.845000	-21.368362
	31.850000	-21.078260
	31.855000	-20.433588
	31.860000	-20.691457
	31.865000	-21.336129
	31.870000	-21.078260
	31.875000	-20.498055
	31.880000	-20.594756
	31.885000	-21.271661
	31.890000	-21.142727
	31.895000	-20.465822
	31.900000	-20.626990
	31.905000	-21.336129
	31.910000	-21.013793
	31.915000	-20.369121
	31.920000	-20.594756
	31.925000	-21.336129
	31.930000	-21.046026
	31.935000	-20.369121
	31.940000	-20.626990
	31.945000	-21.271661
	31.950000	-21.046026
	31.955000	-20.369121
	31.960000	-20.562522
	31.965000	-21.271661
	31.970000	-21.110493
	31.975000	-20.369121
	31.980000	-20.530289
	31.985000	-21.239428
	31.990000	-21.046026
	31.995000	-20.401355
	32.000000	-20.594756
	32.005000	-21.336129
	32.010000	-21.110493
	32.015000	-20.401355
	32.020000	-20.594756
	32.025000	-21.303895
	32.030000	-21.078260
	32.035000	-20.433588
	32.040000	-20.594756
	32.045000	-21.336129
	32.050000	-21.046026
	32.055000	-20.465822
	32.060000	-20.691457
	32.065000	-21.400596
	32.070000	-21.207194
	32.075000	-20.465822
	32.080000	-20.723690
	32.085000	-21.465063
	32.090000	-21.174961
	32.095000	-20.562522
	32.100000	-20.723690
	32.105000	-21.432829
	32.110000	-21.239428
	32.115000	-20.498055
	32.120000	-20.788158
	32.125000	-21.465063
	32.130000	-21.271661
	32.135000	-20.594756
	32.140000	-20.820391
	32.145000	-21.529530
	32.150000	-21.239428
	32.155000	-20.626990
	32.160000	-20.884858
	32.165000	-21.593997
	32.170000	-21.368362
	32.175000	-20.562522
	32.180000	-20.788158
	32.185000	-21.561764
	32.190000	-21.303895
	32.195000	-20.659223
	32.200000	-20.917092
	32.205000	-21.529530
	32.210000	-21.336129
	32.215000	-20.659223
	32.220000	-20.852625
	32.225000	-21.561764
	32.230000	-21.303895
	32.235000	-20.626990
	32.240000	-20.917092
	32.245000	-21.529530
	32.250000	-21.303895
	32.255000	-20.659223
	32.260000	-20.755924
	32.265000	-21.561764
	32.270000	-21.303895
	32.275000	-20.626990
	32.280000	-20.820391
	32.285000	-21.529530
	32.290000	-21.368362
	32.295000	-20.626990
	32.300000	-20.755924
	32.305000	-21.561764
	32.310000	-21.368362
	32.315000	-20.659223
	32.320000	-20.820391
	32.325000	-21.561764
	32.330000	-21.336129
	32.335000	-20.659223
	32.340000	-20.884858
	32.345000	-21.561764
	32.350000	-21.368362
	32.355000	-20.659223
	32.360000	-20.884858
	32.365000	-21.626231
	32.370000	-21.271661
	32.375000	-20.691457
	32.380000	-20.884858
	32.385000	-21.529530
	32.390000	-21.336129
	32.395000	-20.594756
	32.400000	-20.788158
	32.405000	-21.465063
	32.410000	-21.239428
	32.415000	-20.465822
	32.420000	-20.498055
	32.425000	-21.046026
	32.430000	-20.562522
	32.435000	-19.692216
	32.440000	-19.563281
	32.445000	-19.982318
	32.450000	-19.531048
	32.455000	-18.757441
	32.460000	-18.757441
	32.465000	-19.176478
	32.470000	-18.854142
	32.475000	-18.048302
	32.480000	-18.241704
	32.485000	-18.789675
	32.490000	-18.402872
	32.495000	-17.693733
	32.500000	-17.693733
	32.505000	-18.306171
	32.510000	-17.919368
	32.515000	-17.145762
	32.520000	-17.210229
	32.525000	-17.758200
	32.530000	-17.339164
	32.535000	-16.630025
	32.540000	-16.726725
	32.545000	-17.403631
	32.550000	-17.049061
	32.555000	-16.404389
	32.560000	-16.501090
	32.565000	-17.081295
	32.570000	-16.758959
	32.575000	-16.178754
	32.580000	-16.243221
	32.585000	-16.952360
	32.590000	-16.533324
	32.595000	-15.985353
	32.600000	-16.082054
	32.605000	-16.726725
	32.610000	-16.501090
	32.615000	-15.824185
	32.620000	-15.985353
	32.625000	-16.597791
	32.630000	-16.404389
	32.635000	-15.791951
	32.640000	-15.953119
	32.645000	-16.501090
	32.650000	-16.275455
	32.655000	-15.663017
	32.660000	-15.920886
	32.665000	-16.501090
	32.670000	-16.275455
	32.675000	-15.695250
	32.680000	-15.856418
	32.685000	-16.468857
	32.690000	-16.210988
	32.695000	-15.695250
	32.700000	-15.856418
	32.705000	-16.468857
	32.710000	-16.307689
	32.715000	-15.663017
	32.720000	-15.856418
	32.725000	-16.468857
	32.730000	-16.339922
	32.735000	-15.759718
	32.740000	-15.953119
	32.745000	-16.436623
	32.750000	-16.339922
	32.755000	-15.759718
	32.760000	-15.888652
	32.765000	-16.533324
	32.770000	-16.243221
	32.775000	-15.663017
	32.780000	-15.920886
	32.785000	-16.501090
	32.790000	-16.275455
	32.795000	-15.759718
	32.800000	-15.985353
	32.805000	-16.597791
	32.810000	-16.372156
	32.815000	-15.824185
	32.820000	-16.017586
	32.825000	-16.630025
	32.830000	-16.468857
	32.835000	-15.953119
	32.840000	-16.114287
	32.845000	-16.758959
	32.850000	-16.565557
	32.855000	-15.953119
	32.860000	-16.210988
	32.865000	-16.823426
	32.870000	-16.565557
	32.875000	-15.985353
	32.880000	-16.307689
	32.885000	-16.887893
	32.890000	-16.758959
	32.895000	-16.146521
	32.900000	-16.468857
	32.905000	-17.049061
	32.910000	-16.952360
	32.915000	-16.404389
	32.920000	-16.662258
	32.925000	-17.371397
	32.930000	-17.242463
	32.935000	-16.726725
	32.940000	-17.049061
	32.945000	-17.790434
	32.950000	-17.758200
	32.955000	-17.371397
	32.960000	-17.725967
	32.965000	-18.564040
	32.970000	-18.596274
	32.975000	-18.145003
	32.980000	-18.435106
	32.985000	-19.208712
	32.990000	-19.273179
	32.995000	-18.821909
	33.000000	-19.240945
	33.005000	-20.046785
	33.010000	-20.046785
	33.015000	-19.498814
	33.020000	-19.917851
	33.025000	-20.788158
	33.030000	-20.626990
	33.035000	-20.240187
	33.040000	-20.562522
	33.045000	-21.497297
	33.050000	-21.368362
	33.055000	-20.884858
	33.060000	-21.239428
	33.065000	-22.013034
	33.070000	-21.948567
	33.075000	-21.497297
	33.080000	-21.787399
	33.085000	-22.561005
	33.090000	-22.496538
	33.095000	-21.980800
	33.100000	-22.270903
	33.105000	-22.915574
	33.110000	-22.754407
	33.115000	-22.270903
	33.120000	-22.528771
	33.125000	-23.108976
	33.130000	-22.980042
	33.135000	-22.432071
	33.140000	-22.689939
	33.145000	-23.366845
	33.150000	-23.173443
	33.155000	-22.528771
	33.160000	-22.851107
	33.165000	-23.431312
	33.170000	-23.205677
	33.175000	-22.625472
	33.180000	-22.851107
	33.185000	-23.463546
	33.190000	-23.270144
	33.195000	-22.657706
	33.200000	-22.851107
	33.205000	-23.592480
	33.210000	-23.366845
	33.215000	-22.722173
	33.220000	-22.980042
	33.225000	-23.624713
	33.230000	-23.399078
	33.235000	-22.818874
	33.240000	-23.012275
	33.245000	-23.624713
	33.250000	-23.334611
	33.255000	-22.818874
	33.260000	-23.012275
	33.265000	-23.689181
	33.270000	-23.495779
	33.275000	-22.851107
	33.280000	-23.076742
	33.285000	-23.689181
	33.290000	-23.463546
	33.295000	-22.818874
	33.300000	-23.076742
	33.305000	-23.785881
	33.310000	-23.495779
	33.315000	-22.818874
	33.320000	-23.044509
	33.325000	-23.689181
	33.330000	-23.334611
	33.335000	-22.786640
	33.340000	-23.012275
	33.345000	-23.592480
	33.350000	-23.399078
	33.355000	-22.786640
	33.360000	-23.044509
	33.365000	-23.624713
	33.370000	-23.270144
	33.375000	-22.754407
	33.380000	-22.947808
	33.385000	-23.592480
	33.390000	-23.302378
	33.395000	-22.722173
	33.400000	-22.818874
	33.405000	-23.560246
	33.410000	-23.270144
	33.415000	-22.657706
	33.420000	-22.818874
	33.425000	-23.399078
	33.430000	-23.237910
	33.435000	-22.464304
	33.440000	-22.786640
	33.445000	-23.399078
	33.450000	-23.141210
	33.455000	-22.528771
	33.460000	-22.689939
	33.465000	-23.399078
	33.470000	-23.076742
	33.475000	-22.432071
	33.480000	-22.657706
	33.485000	-23.270144
	33.490000	-23.012275
	33.495000	-22.399837
	33.500000	-22.625472
	33.505000	-23.237910
	33.510000	-22.947808
	33.515000	-22.432071
	33.520000	-22.625472
	33.525000	-23.205677
	33.530000	-23.012275
	33.535000	-22.399837
	33.540000	-22.657706
	33.545000	-23.270144
	33.550000	-22.980042
	33.555000	-22.399837
	33.560000	-22.593239
	33.565000	-23.270144
	33.570000	-22.947808
	33.575000	-22.335370
	33.580000	-22.593239
	33.585000	-23.205677
	33.590000	-23.012275
	33.595000	-22.335370
	33.600000	-22.593239
	33.605000	-23.237910
	33.610000	-23.076742
	33.615000	-22.432071
	33.620000	-22.657706
	33.625000	-23.334611
	33.630000	-23.044509
	33.635000	-22.399837
	33.640000	-22.689939
	33.645000	-23.366845
	33.650000	-23.012275
	33.655000	-22.432071
	33.660000	-22.657706
	33.665000	-23.302378
	33.670000	-23.044509
	33.675000	-22.432071
	33.680000	-22.657706
	33.685000	-23.334611
	33.690000	-23.141210
	33.695000	-22.432071
	33.700000	-22.657706
	33.705000	-23.399078
	33.710000	-23.076742
	33.715000	-22.432071
	33.720000	-22.722173
	33.725000	-23.334611
	33.730000	-23.076742
	33.735000	-22.496538
	33.740000	-22.722173
	33.745000	-23.399078
	33.750000	-23.108976
	33.755000	-22.496538
	33.760000	-22.722173
	33.765000	-23.334611
	33.770000	-23.076742
	33.775000	-22.464304
	33.780000	-22.722173
	33.785000	-23.366845
	33.790000	-23.108976
	33.795000	-22.464304
	33.800000	-22.657706
	33.805000	-23.334611
	33.810000	-23.076742
	33.815000	-22.335370
	33.820000	-22.657706
	33.825000	-23.366845
	33.830000	-23.141210
	33.835000	-22.464304
	33.840000	-22.657706
	33.845000	-23.334611
	33.850000	-23.076742
	33.855000	-22.367603
	33.860000	-22.625472
	33.865000	-23.270144
	33.870000	-22.980042
	33.875000	-22.270903
	33.880000	-22.561005
	33.885000	-23.270144
	33.890000	-23.044509
	33.895000	-22.367603
	33.900000	-22.625472
	33.905000	-23.205677
	33.910000	-22.915574
	33.915000	-22.399837
	33.920000	-22.528771
	33.925000	-23.270144
	33.930000	-22.947808
	33.935000	-22.270903
	33.940000	-22.496538
	33.945000	-23.141210
	33.950000	-22.818874
	33.955000	-22.303136
	33.960000	-22.432071
	33.965000	-23.141210
	33.970000	-22.915574
	33.975000	-22.141968
	33.980000	-22.367603
	33.985000	-23.108976
	33.990000	-22.818874
	33.995000	-22.141968
	34.000000	-22.335370
	34.005000	-23.044509
	34.010000	-22.722173
	34.015000	-22.045268
	34.020000	-22.432071
	34.025000	-22.980042
	34.030000	-22.689939
	34.035000	-22.045268
	34.040000	-22.367603
	34.045000	-22.947808
	34.050000	-22.689939
	34.055000	-22.013034
	34.060000	-22.335370
	34.065000	-23.012275
	34.070000	-22.689939
	34.075000	-22.077501
	34.080000	-22.270903
	34.085000	-22.947808
	34.090000	-22.722173
	34.095000	-21.980800
	34.100000	-22.367603
	34.105000	-22.980042
	34.110000	-22.689939
	34.115000	-21.948567
	34.120000	-22.238669
	34.125000	-22.915574
	34.130000	-22.625472
	34.135000	-21.980800
	34.140000	-22.174202
	34.145000	-22.883341
	34.150000	-22.561005
	34.155000	-21.948567
	34.160000	-22.174202
	34.165000	-22.883341
	34.170000	-22.593239
	34.175000	-21.884100
	34.180000	-22.238669
	34.185000	-22.883341
	34.190000	-22.561005
	34.195000	-21.980800
	34.200000	-22.206436
	34.205000	-22.851107
	34.210000	-22.593239
	34.215000	-21.884100
	34.220000	-22.206436
	34.225000	-22.883341
	34.230000	-22.625472
	34.235000	-21.948567
	34.240000	-22.206436
	34.245000	-22.818874
	34.250000	-22.561005
	34.255000	-21.916333
	34.260000	-22.174202
	34.265000	-22.883341
	34.270000	-22.561005
	34.275000	-21.948567
	34.280000	-22.174202
	34.285000	-22.851107
	34.290000	-22.593239
	34.295000	-21.819632
	34.300000	-22.174202
	34.305000	-22.786640
	34.310000	-22.432071
	34.315000	-21.819632
	34.320000	-22.109735
	34.325000	-22.786640
	34.330000	-22.399837
	34.335000	-21.819632
	34.340000	-22.013034
	34.345000	-22.818874
	34.350000	-22.367603
	34.355000	-21.787399
	34.360000	-22.045268
	34.365000	-22.722173
	34.370000	-22.432071
	34.375000	-21.787399
	34.380000	-22.045268
	34.385000	-22.625472
	34.390000	-22.270903
	34.395000	-21.626231
	34.400000	-21.916333
	34.405000	-22.625472
	34.410000	-22.270903
	34.415000	-21.626231
	34.420000	-21.884100
	34.425000	-22.593239
	34.430000	-22.270903
	34.435000	-21.658465
	34.440000	-21.884100
	34.445000	-22.528771
	34.450000	-22.238669
	34.455000	-21.626231
	34.460000	-21.884100
	34.465000	-22.528771
	34.470000	-22.270903
	34.475000	-21.690698
	34.480000	-21.916333
	34.485000	-22.593239
	34.490000	-22.174202
	34.495000	-21.658465
	34.500000	-21.916333
	34.505000	-22.593239
	34.510000	-22.335370
	34.515000	-21.658465
	34.520000	-21.980800
	34.525000	-22.593239
	34.530000	-22.335370
	34.535000	-21.626231
	34.540000	-21.980800
	34.545000	-22.625472
	34.550000	-22.367603
	34.555000	-21.722932
	34.560000	-21.948567
	34.565000	-22.593239
	34.570000	-22.303136
	34.575000	-21.722932
	34.580000	-22.045268
	34.585000	-22.593239
	34.590000	-22.303136
	34.595000	-21.722932
	34.600000	-21.948567
	34.605000	-22.593239
	34.610000	-22.335370
	34.615000	-21.722932
	34.620000	-21.884100
	34.625000	-22.528771
	34.630000	-22.303136
	34.635000	-21.690698
	34.640000	-21.916333
	34.645000	-22.593239
	34.650000	-22.270903
	34.655000	-21.658465
	34.660000	-21.916333
	34.665000	-22.496538
	34.670000	-22.270903
	34.675000	-21.561764
	34.680000	-21.916333
	34.685000	-22.496538
	34.690000	-22.206436
	34.695000	-21.626231
	34.700000	-21.884100
	34.705000	-22.464304
	34.710000	-22.141968
	34.715000	-21.593997
	34.720000	-21.851866
	34.725000	-22.496538
	34.730000	-22.109735
	34.735000	-21.529530
	34.740000	-21.819632
	34.745000	-22.464304
	34.750000	-22.077501
	34.755000	-21.497297
	34.760000	-21.755165
	34.765000	-22.432071
	34.770000	-22.141968
	34.775000	-21.497297
	34.780000	-21.787399
	34.785000	-22.496538
	34.790000	-22.141968
	34.795000	-21.432829
	34.800000	-21.851866
	34.805000	-22.399837
	34.810000	-22.045268
	34.815000	-21.497297
	34.820000	-21.787399
	34.825000	-22.399837
	34.830000	-22.077501
	34.835000	-21.465063
	34.840000	-21.755165
	34.845000	-22.399837
	34.850000	-22.109735
	34.855000	-21.497297
	34.860000	-21.755165
	34.865000	-22.399837
	34.870000	-22.109735
	34.875000	-21.368362
	34.880000	-21.722932
	34.885000	-22.367603
	34.890000	-22.045268
	34.895000	-21.432829
	34.900000	-21.819632
	34.905000	-22.335370
	34.910000	-22.013034
	34.915000	-21.465063
	34.920000	-21.690698
	34.925000	-22.335370
	34.930000	-22.109735
	34.935000	-21.400596
	34.940000	-21.722932
	34.945000	-22.335370
	34.950000	-22.045268
	34.955000	-21.465063
	34.960000	-21.658465
	34.965000	-22.303136
	34.970000	-22.013034
	34.975000	-21.368362
	34.980000	-21.658465
	34.985000	-22.303136
	34.990000	-22.013034
	34.995000	-21.368362
	35.000000	-21.690698
	35.005000	-22.335370
	35.010000	-22.013034
	35.015000	-21.368362
	35.020000	-21.658465
	35.025000	-22.303136
	35.030000	-22.045268
	35.035000	-21.400596
	35.040000	-21.593997
	35.045000	-22.303136
	35.050000	-22.045268
	35.055000	-21.368362
	35.060000	-21.722932
	35.065000	-22.335370
	35.070000	-21.980800
	35.075000	-21.336129
	35.080000	-21.755165
	35.085000	-22.367603
	35.090000	-22.045268
