2024/7/10 	 19:10:35 
 This file comes from Vt only measurement 	 1.000000E-1 
 Voltage Sensitivity 	 0.000000E+0 
 Sampling rate 	 200 
 Number of samples per channel 	 -1 
 No filter from Labview 	 	 	 
 	 
 ***End_of_Header*** 
 	 Time 	  Voltage 	 Filtered Voltage 	 
	0.000000	-2.172293
	0.005000	-2.107826
	0.010000	-2.175517
	0.015000	-2.223867
	0.020000	-2.165846
	0.025000	-2.101379
	0.030000	-2.175517
	0.035000	-2.236760
	0.040000	-2.159400
	0.045000	-2.101379
	0.050000	-2.162623
	0.055000	-2.227090
	0.060000	-2.165846
	0.065000	-2.088486
	0.070000	-2.162623
	0.075000	-2.230314
	0.080000	-2.156176
	0.085000	-2.094933
	0.090000	-2.162623
	0.095000	-2.220644
	0.100000	-2.149730
	0.105000	-2.088486
	0.110000	-2.156176
	0.115000	-2.220644
	0.120000	-2.143283
	0.125000	-2.085262
	0.130000	-2.149730
	0.135000	-2.207750
	0.140000	-2.143283
	0.145000	-2.082039
	0.150000	-2.146506
	0.155000	-2.201303
	0.160000	-2.133613
	0.165000	-2.065922
	0.170000	-2.130390
	0.175000	-2.201303
	0.180000	-2.123943
	0.185000	-2.059476
	0.190000	-2.130390
	0.195000	-2.188410
	0.200000	-2.114273
	0.205000	-2.049806
	0.210000	-2.127166
	0.215000	-2.181963
	0.220000	-2.107826
	0.225000	-2.043359
	0.230000	-2.114273
	0.235000	-2.165846
	0.240000	-2.091709
	0.245000	-2.036912
	0.250000	-2.104603
	0.255000	-2.156176
	0.260000	-2.085262
	0.265000	-2.020795
	0.270000	-2.094933
	0.275000	-2.146506
	0.280000	-2.075592
	0.285000	-2.017572
	0.290000	-2.085262
	0.295000	-2.140060
	0.300000	-2.065922
	0.305000	-2.011125
	0.310000	-2.078816
	0.315000	-2.130390
	0.320000	-2.053029
	0.325000	-1.998232
	0.330000	-2.069146
	0.335000	-2.120719
	0.340000	-2.053029
	0.345000	-1.988562
	0.350000	-2.065922
	0.355000	-2.111049
	0.360000	-2.033689
	0.365000	-1.978892
	0.370000	-2.049806
	0.375000	-2.111049
	0.380000	-2.030465
	0.385000	-1.972445
	0.390000	-2.049806
	0.395000	-2.098156
	0.400000	-2.027242
	0.405000	-1.965998
	0.410000	-2.043359
	0.415000	-2.091709
	0.420000	-2.017572
	0.425000	-1.959551
	0.430000	-2.030465
	0.435000	-2.082039
	0.440000	-2.007902
	0.445000	-1.943435
	0.450000	-2.014349
	0.455000	-2.078816
	0.460000	-2.001455
	0.465000	-1.943435
	0.470000	-2.007902
	0.475000	-2.056252
	0.480000	-1.991785
	0.485000	-1.930541
	0.490000	-1.995008
	0.495000	-2.053029
	0.500000	-1.978892
	0.505000	-1.920871
	0.510000	-1.991785
	0.515000	-2.036912
	0.520000	-1.969222
	0.525000	-1.907978
	0.530000	-1.985338
	0.535000	-2.033689
	0.540000	-1.965998
	0.545000	-1.914424
	0.550000	-1.978892
	0.555000	-2.030465
	0.560000	-1.949881
	0.565000	-1.898308
	0.570000	-1.969222
	0.575000	-2.020795
	0.580000	-1.940211
	0.585000	-1.891861
	0.590000	-1.969222
	0.595000	-2.017572
	0.600000	-1.943435
	0.605000	-1.888638
	0.610000	-1.956328
	0.615000	-2.017572
	0.620000	-1.927318
	0.625000	-1.882191
	0.630000	-1.959551
	0.635000	-2.007902
	0.640000	-1.927318
	0.645000	-1.872521
	0.650000	-1.949881
	0.655000	-2.004679
	0.660000	-1.927318
	0.665000	-1.872521
	0.670000	-1.943435
	0.675000	-1.995008
	0.680000	-1.924095
	0.685000	-1.869297
	0.690000	-1.946658
	0.695000	-1.998232
	0.700000	-1.914424
	0.705000	-1.859627
	0.710000	-1.940211
	0.715000	-1.988562
	0.720000	-1.907978
	0.725000	-1.859627
	0.730000	-1.940211
	0.735000	-1.982115
	0.740000	-1.904754
	0.745000	-1.849957
	0.750000	-1.927318
	0.755000	-1.975668
	0.760000	-1.891861
	0.765000	-1.853181
	0.770000	-1.920871
	0.775000	-1.972445
	0.780000	-1.888638
	0.785000	-1.837064
	0.790000	-1.914424
	0.795000	-1.953105
	0.800000	-1.885414
	0.805000	-1.830617
	0.810000	-1.907978
	0.815000	-1.946658
	0.820000	-1.869297
	0.825000	-1.814500
	0.830000	-1.891861
	0.835000	-1.946658
	0.840000	-1.869297
	0.845000	-1.814500
	0.850000	-1.885414
	0.855000	-1.936988
	0.860000	-1.856404
	0.865000	-1.808054
	0.870000	-1.888638
	0.875000	-1.936988
	0.880000	-1.849957
	0.885000	-1.798384
	0.890000	-1.885414
	0.895000	-1.930541
	0.900000	-1.849957
	0.905000	-1.795160
	0.910000	-1.875744
	0.915000	-1.920871
	0.920000	-1.843511
	0.925000	-1.791937
	0.930000	-1.866074
	0.935000	-1.917648
	0.940000	-1.837064
	0.945000	-1.785490
	0.950000	-1.866074
	0.955000	-1.914424
	0.960000	-1.837064
	0.965000	-1.779043
	0.970000	-1.856404
	0.975000	-1.911201
	0.980000	-1.827394
	0.985000	-1.779043
	0.990000	-1.856404
	0.995000	-1.904754
	1.000000	-1.824170
	1.005000	-1.769373
	1.010000	-1.856404
	1.015000	-1.891861
	1.020000	-1.817724
	1.025000	-1.766150
	1.030000	-1.846734
	1.035000	-1.891861
	1.040000	-1.804830
	1.045000	-1.766150
	1.050000	-1.837064
	1.055000	-1.888638
	1.060000	-1.804830
	1.065000	-1.746810
	1.070000	-1.833840
	1.075000	-1.888638
	1.080000	-1.808054
	1.085000	-1.753257
	1.090000	-1.830617
	1.095000	-1.875744
	1.100000	-1.788713
	1.105000	-1.746810
	1.110000	-1.817724
	1.115000	-1.869297
	1.120000	-1.779043
	1.125000	-1.737140
	1.130000	-1.817724
	1.135000	-1.859627
	1.140000	-1.775820
	1.145000	-1.727470
	1.150000	-1.814500
	1.155000	-1.853181
	1.160000	-1.769373
	1.165000	-1.721023
	1.170000	-1.801607
	1.175000	-1.853181
	1.180000	-1.759703
	1.185000	-1.717800
	1.190000	-1.795160
	1.195000	-1.830617
	1.200000	-1.750033
	1.205000	-1.701683
	1.210000	-1.795160
	1.215000	-1.824170
	1.220000	-1.740363
	1.225000	-1.695236
	1.230000	-1.779043
	1.235000	-1.811277
	1.240000	-1.730693
	1.245000	-1.688789
	1.250000	-1.766150
	1.255000	-1.804830
	1.260000	-1.721023
	1.265000	-1.679119
	1.270000	-1.759703
	1.275000	-1.795160
	1.280000	-1.711353
	1.285000	-1.666226
	1.290000	-1.746810
	1.295000	-1.798384
	1.300000	-1.701683
	1.305000	-1.663002
	1.310000	-1.740363
	1.315000	-1.785490
	1.320000	-1.698459
	1.325000	-1.659779
	1.330000	-1.740363
	1.335000	-1.772597
	1.340000	-1.692013
	1.345000	-1.653332
	1.350000	-1.724246
	1.355000	-1.769373
	1.360000	-1.682343
	1.365000	-1.643662
	1.370000	-1.724246
	1.375000	-1.766150
	1.380000	-1.682343
	1.385000	-1.633992
	1.390000	-1.721023
	1.395000	-1.759703
	1.400000	-1.669449
	1.405000	-1.630769
	1.410000	-1.711353
	1.415000	-1.743586
	1.420000	-1.640439
	1.425000	-1.582418
	1.430000	-1.624322
	1.435000	-1.614652
	1.440000	-1.485718
	1.445000	-1.401910
	1.450000	-1.437367
	1.455000	-1.447037
	1.460000	-1.330996
	1.465000	-1.260083
	1.470000	-1.308433
	1.475000	-1.311656
	1.480000	-1.214956
	1.485000	-1.150488
	1.490000	-1.211732
	1.495000	-1.234296
	1.500000	-1.131148
	1.505000	-1.082798
	1.510000	-1.153712
	1.515000	-1.173052
	1.520000	-1.089245
	1.525000	-1.044118
	1.530000	-1.115031
	1.535000	-1.140818
	1.540000	-1.060234
	1.545000	-1.011884
	1.550000	-1.086021
	1.555000	-1.121478
	1.560000	-1.024777
	1.565000	-0.989320
	1.570000	-1.060234
	1.575000	-1.092468
	1.580000	-1.015107
	1.585000	-0.979650
	1.590000	-1.040894
	1.595000	-1.076351
	1.600000	-0.986097
	1.605000	-0.947417
	1.610000	-1.015107
	1.615000	-1.047341
	1.620000	-0.963534
	1.625000	-0.928077
	1.630000	-1.002214
	1.635000	-1.034447
	1.640000	-0.947417
	1.645000	-0.908736
	1.650000	-0.986097
	1.655000	-1.018331
	1.660000	-0.940970
	1.665000	-0.895843
	1.670000	-0.979650
	1.675000	-1.002214
	1.680000	-0.918407
	1.685000	-0.889396
	1.690000	-0.966757
	1.695000	-0.992544
	1.700000	-0.911960
	1.705000	-0.882950
	1.710000	-0.953863
	1.715000	-0.979650
	1.720000	-0.899066
	1.725000	-0.870056
	1.730000	-0.947417
	1.735000	-0.976427
	1.740000	-0.899066
	1.745000	-0.873280
	1.750000	-0.944193
	1.755000	-0.976427
	1.760000	-0.889396
	1.765000	-0.866833
	1.770000	-0.937747
	1.775000	-0.973204
	1.780000	-0.895843
	1.785000	-0.863609
	1.790000	-0.937747
	1.795000	-0.960310
	1.800000	-0.889396
	1.805000	-0.860386
	1.810000	-0.937747
	1.815000	-0.960310
	1.820000	-0.886173
	1.825000	-0.853939
	1.830000	-0.931300
	1.835000	-0.953863
	1.840000	-0.892620
	1.845000	-0.857163
	1.850000	-0.931300
	1.855000	-0.953863
	1.860000	-0.882950
	1.865000	-0.860386
	1.870000	-0.934523
	1.875000	-0.953863
	1.880000	-0.886173
	1.885000	-0.860386
	1.890000	-0.944193
	1.895000	-0.963534
	1.900000	-0.889396
	1.905000	-0.870056
	1.910000	-0.950640
	1.915000	-0.979650
	1.920000	-0.899066
	1.925000	-0.873280
	1.930000	-0.957087
	1.935000	-0.986097
	1.940000	-0.918407
	1.945000	-0.892620
	1.950000	-0.969980
	1.955000	-1.002214
	1.960000	-0.924853
	1.965000	-0.908736
	1.970000	-0.992544
	1.975000	-1.028001
	1.980000	-0.963534
	1.985000	-0.947417
	1.990000	-1.040894
	1.995000	-1.082798
	2.000000	-1.024777
	2.005000	-1.011884
	2.010000	-1.118255
	2.015000	-1.166605
	2.020000	-1.105361
	2.025000	-1.115031
	2.030000	-1.227849
	2.035000	-1.282646
	2.040000	-1.221402
	2.045000	-1.224626
	2.050000	-1.337443
	2.055000	-1.392240
	2.060000	-1.334220
	2.065000	-1.337443
	2.070000	-1.443814
	2.075000	-1.495388
	2.080000	-1.424474
	2.085000	-1.414804
	2.090000	-1.514728
	2.095000	-1.546962
	2.100000	-1.472824
	2.105000	-1.456707
	2.110000	-1.553408
	2.115000	-1.585642
	2.120000	-1.514728
	2.125000	-1.492164
	2.130000	-1.579195
	2.135000	-1.608205
	2.140000	-1.524398
	2.145000	-1.511505
	2.150000	-1.595312
	2.155000	-1.624322
	2.160000	-1.534068
	2.165000	-1.514728
	2.170000	-1.598535
	2.175000	-1.621099
	2.180000	-1.530845
	2.185000	-1.508281
	2.190000	-1.588865
	2.195000	-1.617875
	2.200000	-1.524398
	2.205000	-1.501835
	2.210000	-1.585642
	2.215000	-1.608205
	2.220000	-1.517951
	2.225000	-1.485718
	2.230000	-1.572748
	2.235000	-1.598535
	2.240000	-1.505058
	2.245000	-1.485718
	2.250000	-1.569525
	2.255000	-1.585642
	2.260000	-1.498611
	2.265000	-1.482494
	2.270000	-1.559855
	2.275000	-1.575972
	2.280000	-1.492164
	2.285000	-1.476048
	2.290000	-1.553408
	2.295000	-1.572748
	2.300000	-1.485718
	2.305000	-1.463154
	2.310000	-1.546962
	2.315000	-1.556632
	2.320000	-1.466378
	2.325000	-1.450261
	2.330000	-1.534068
	2.335000	-1.553408
	2.340000	-1.456707
	2.345000	-1.437367
	2.350000	-1.517951
	2.355000	-1.540515
	2.360000	-1.443814
	2.365000	-1.418027
	2.370000	-1.508281
	2.375000	-1.521175
	2.380000	-1.430921
	2.385000	-1.414804
	2.390000	-1.495388
	2.395000	-1.511505
	2.400000	-1.424474
	2.405000	-1.405134
	2.410000	-1.488941
	2.415000	-1.511505
	2.420000	-1.408357
	2.425000	-1.392240
	2.430000	-1.479271
	2.435000	-1.488941
	2.440000	-1.405134
	2.445000	-1.385794
	2.450000	-1.459931
	2.455000	-1.488941
	2.460000	-1.401910
	2.465000	-1.369677
	2.470000	-1.453484
	2.475000	-1.469601
	2.480000	-1.382570
	2.485000	-1.360007
	2.490000	-1.443814
	2.495000	-1.466378
	2.500000	-1.379347
	2.505000	-1.369677
	2.510000	-1.443814
	2.515000	-1.459931
	2.520000	-1.366453
	2.525000	-1.350337
	2.530000	-1.437367
	2.535000	-1.450261
	2.540000	-1.360007
	2.545000	-1.337443
	2.550000	-1.430921
	2.555000	-1.440591
	2.560000	-1.350337
	2.565000	-1.321326
	2.570000	-1.411580
	2.575000	-1.424474
	2.580000	-1.340667
	2.585000	-1.311656
	2.590000	-1.401910
	2.595000	-1.418027
	2.600000	-1.327773
	2.605000	-1.301986
	2.610000	-1.392240
	2.615000	-1.408357
	2.620000	-1.305210
	2.625000	-1.292316
	2.630000	-1.382570
	2.635000	-1.392240
	2.640000	-1.298763
	2.645000	-1.285869
	2.650000	-1.382570
	2.655000	-1.385794
	2.660000	-1.292316
	2.665000	-1.272976
	2.670000	-1.363230
	2.675000	-1.379347
	2.680000	-1.292316
	2.685000	-1.269753
	2.690000	-1.356783
	2.695000	-1.366453
	2.700000	-1.279423
	2.705000	-1.260083
	2.710000	-1.350337
	2.715000	-1.363230
	2.720000	-1.272976
	2.725000	-1.253636
	2.730000	-1.350337
	2.735000	-1.356783
	2.740000	-1.269753
	2.745000	-1.253636
	2.750000	-1.337443
	2.755000	-1.353560
	2.760000	-1.263306
	2.765000	-1.247189
	2.770000	-1.327773
	2.775000	-1.340667
	2.780000	-1.253636
	2.785000	-1.240742
	2.790000	-1.330996
	2.795000	-1.337443
	2.800000	-1.253636
	2.805000	-1.231072
	2.810000	-1.318103
	2.815000	-1.337443
	2.820000	-1.237519
	2.825000	-1.227849
	2.830000	-1.321326
	2.835000	-1.324550
	2.840000	-1.243966
	2.845000	-1.231072
	2.850000	-1.324550
	2.855000	-1.324550
	2.860000	-1.240742
	2.865000	-1.224626
	2.870000	-1.324550
	2.875000	-1.318103
	2.880000	-1.231072
	2.885000	-1.221402
	2.890000	-1.314880
	2.895000	-1.321326
	2.900000	-1.224626
	2.905000	-1.224626
	2.910000	-1.318103
	2.915000	-1.314880
	2.920000	-1.227849
	2.925000	-1.227849
	2.930000	-1.295540
	2.935000	-1.311656
	2.940000	-1.218179
	2.945000	-1.218179
	2.950000	-1.295540
	2.955000	-1.308433
	2.960000	-1.211732
	2.965000	-1.205285
	2.970000	-1.298763
	2.975000	-1.308433
	2.980000	-1.208509
	2.985000	-1.198839
	2.990000	-1.292316
	2.995000	-1.298763
	3.000000	-1.198839
	3.005000	-1.198839
	3.010000	-1.282646
	3.015000	-1.289093
	3.020000	-1.195615
	3.025000	-1.185945
	3.030000	-1.282646
	3.035000	-1.289093
	3.040000	-1.189169
	3.045000	-1.185945
	3.050000	-1.276199
	3.055000	-1.279423
	3.060000	-1.192392
	3.065000	-1.179499
	3.070000	-1.269753
	3.075000	-1.279423
	3.080000	-1.192392
	3.085000	-1.182722
	3.090000	-1.276199
	3.095000	-1.272976
	3.100000	-1.189169
	3.105000	-1.179499
	3.110000	-1.276199
	3.115000	-1.269753
	3.120000	-1.189169
	3.125000	-1.176275
	3.130000	-1.272976
	3.135000	-1.272976
	3.140000	-1.176275
	3.145000	-1.173052
	3.150000	-1.269753
	3.155000	-1.272976
	3.160000	-1.185945
	3.165000	-1.176275
	3.170000	-1.269753
	3.175000	-1.269753
	3.180000	-1.182722
	3.185000	-1.179499
	3.190000	-1.266529
	3.195000	-1.266529
	3.200000	-1.182722
	3.205000	-1.176275
	3.210000	-1.272976
	3.215000	-1.272976
	3.220000	-1.182722
	3.225000	-1.173052
	3.230000	-1.266529
	3.235000	-1.272976
	3.240000	-1.176275
	3.245000	-1.176275
	3.250000	-1.269753
	3.255000	-1.272976
	3.260000	-1.182722
	3.265000	-1.179499
	3.270000	-1.266529
	3.275000	-1.276199
	3.280000	-1.189169
	3.285000	-1.189169
	3.290000	-1.276199
	3.295000	-1.289093
	3.300000	-1.192392
	3.305000	-1.192392
	3.310000	-1.282646
	3.315000	-1.295540
	3.320000	-1.192392
	3.325000	-1.198839
	3.330000	-1.289093
	3.335000	-1.295540
	3.340000	-1.205285
	3.345000	-1.202062
	3.350000	-1.295540
	3.355000	-1.292316
	3.360000	-1.202062
	3.365000	-1.198839
	3.370000	-1.301986
	3.375000	-1.301986
	3.380000	-1.211732
	3.385000	-1.202062
	3.390000	-1.295540
	3.395000	-1.289093
	3.400000	-1.208509
	3.405000	-1.208509
	3.410000	-1.295540
	3.415000	-1.305210
	3.420000	-1.205285
	3.425000	-1.214956
	3.430000	-1.305210
	3.435000	-1.298763
	3.440000	-1.208509
	3.445000	-1.208509
	3.450000	-1.295540
	3.455000	-1.292316
	3.460000	-1.205285
	3.465000	-1.214956
	3.470000	-1.295540
	3.475000	-1.289093
	3.480000	-1.202062
	3.485000	-1.208509
	3.490000	-1.298763
	3.495000	-1.285869
	3.500000	-1.205285
	3.505000	-1.195615
	3.510000	-1.285869
	3.515000	-1.289093
	3.520000	-1.198839
	3.525000	-1.192392
	3.530000	-1.289093
	3.535000	-1.289093
	3.540000	-1.195615
	3.545000	-1.198839
	3.550000	-1.289093
	3.555000	-1.289093
	3.560000	-1.195615
	3.565000	-1.195615
	3.570000	-1.285869
	3.575000	-1.295540
	3.580000	-1.189169
	3.585000	-1.198839
	3.590000	-1.295540
	3.595000	-1.289093
	3.600000	-1.198839
	3.605000	-1.202062
	3.610000	-1.289093
	3.615000	-1.289093
	3.620000	-1.195615
	3.625000	-1.208509
	3.630000	-1.295540
	3.635000	-1.295540
	3.640000	-1.198839
	3.645000	-1.205285
	3.650000	-1.295540
	3.655000	-1.292316
	3.660000	-1.205285
	3.665000	-1.202062
	3.670000	-1.295540
	3.675000	-1.295540
	3.680000	-1.205285
	3.685000	-1.211732
	3.690000	-1.295540
	3.695000	-1.298763
	3.700000	-1.202062
	3.705000	-1.202062
	3.710000	-1.295540
	3.715000	-1.295540
	3.720000	-1.192392
	3.725000	-1.211732
	3.730000	-1.295540
	3.735000	-1.289093
	3.740000	-1.192392
	3.745000	-1.198839
	3.750000	-1.289093
	3.755000	-1.279423
	3.760000	-1.189169
	3.765000	-1.195615
	3.770000	-1.279423
	3.775000	-1.276199
	3.780000	-1.185945
	3.785000	-1.185945
	3.790000	-1.279423
	3.795000	-1.276199
	3.800000	-1.185945
	3.805000	-1.185945
	3.810000	-1.279423
	3.815000	-1.272976
	3.820000	-1.179499
	3.825000	-1.185945
	3.830000	-1.279423
	3.835000	-1.266529
	3.840000	-1.176275
	3.845000	-1.179499
	3.850000	-1.272976
	3.855000	-1.263306
	3.860000	-1.166605
	3.865000	-1.176275
	3.870000	-1.269753
	3.875000	-1.250413
	3.880000	-1.163382
	3.885000	-1.173052
	3.890000	-1.256859
	3.895000	-1.247189
	3.900000	-1.163382
	3.905000	-1.163382
	3.910000	-1.253636
	3.915000	-1.243966
	3.920000	-1.160158
	3.925000	-1.160158
	3.930000	-1.253636
	3.935000	-1.247189
	3.940000	-1.153712
	3.945000	-1.156935
	3.950000	-1.250413
	3.955000	-1.237519
	3.960000	-1.147265
	3.965000	-1.156935
	3.970000	-1.250413
	3.975000	-1.237519
	3.980000	-1.150488
	3.985000	-1.150488
	3.990000	-1.243966
	3.995000	-1.234296
	4.000000	-1.147265
	4.005000	-1.150488
	4.010000	-1.243966
	4.015000	-1.231072
	4.020000	-1.134372
	4.025000	-1.150488
	4.030000	-1.240742
	4.035000	-1.227849
	4.040000	-1.140818
	4.045000	-1.144042
	4.050000	-1.231072
	4.055000	-1.221402
	4.060000	-1.131148
	4.065000	-1.140818
	4.070000	-1.227849
	4.075000	-1.211732
	4.080000	-1.124702
	4.085000	-1.134372
	4.090000	-1.221402
	4.095000	-1.205285
	4.100000	-1.121478
	4.105000	-1.127925
	4.110000	-1.221402
	4.115000	-1.202062
	4.120000	-1.118255
	4.125000	-1.121478
	4.130000	-1.211732
	4.135000	-1.202062
	4.140000	-1.108585
	4.145000	-1.124702
	4.150000	-1.205285
	4.155000	-1.198839
	4.160000	-1.108585
	4.165000	-1.121478
	4.170000	-1.208509
	4.175000	-1.195615
	4.180000	-1.098915
	4.185000	-1.115031
	4.190000	-1.202062
	4.195000	-1.185945
	4.200000	-1.095691
	4.205000	-1.111808
	4.210000	-1.192392
	4.215000	-1.182722
	4.220000	-1.095691
	4.225000	-1.105361
	4.230000	-1.189169
	4.235000	-1.179499
	4.240000	-1.089245
	4.245000	-1.095691
	4.250000	-1.182722
	4.255000	-1.173052
	4.260000	-1.076351
	4.265000	-1.086021
	4.270000	-1.182722
	4.275000	-1.160158
	4.280000	-1.073128
	4.285000	-1.082798
	4.290000	-1.179499
	4.295000	-1.160158
	4.300000	-1.066681
	4.305000	-1.082798
	4.310000	-1.173052
	4.315000	-1.156935
	4.320000	-1.060234
	4.325000	-1.082798
	4.330000	-1.166605
	4.335000	-1.147265
	4.340000	-1.060234
	4.345000	-1.076351
	4.350000	-1.166605
	4.355000	-1.144042
	4.360000	-1.057011
	4.365000	-1.066681
	4.370000	-1.160158
	4.375000	-1.140818
	4.380000	-1.053788
	4.385000	-1.076351
	4.390000	-1.153712
	4.395000	-1.134372
	4.400000	-1.053788
	4.405000	-1.063458
	4.410000	-1.156935
	4.415000	-1.134372
	4.420000	-1.047341
	4.425000	-1.060234
	4.430000	-1.156935
	4.435000	-1.134372
	4.440000	-1.040894
	4.445000	-1.060234
	4.450000	-1.147265
	4.455000	-1.121478
	4.460000	-1.031224
	4.465000	-1.047341
	4.470000	-1.140818
	4.475000	-1.118255
	4.480000	-1.031224
	4.485000	-1.047341
	4.490000	-1.137595
	4.495000	-1.108585
	4.500000	-1.015107
	4.505000	-1.034447
	4.510000	-1.131148
	4.515000	-1.108585
	4.520000	-1.018331
	4.525000	-1.028001
	4.530000	-1.115031
	4.535000	-1.095691
	4.540000	-1.005437
	4.545000	-1.021554
	4.550000	-1.108585
	4.555000	-1.092468
	4.560000	-0.992544
	4.565000	-1.021554
	4.570000	-1.108585
	4.575000	-1.086021
	4.580000	-0.989320
	4.585000	-1.021554
	4.590000	-1.108585
	4.595000	-1.089245
	4.600000	-0.998991
	4.605000	-1.018331
	4.610000	-1.105361
	4.615000	-1.089245
	4.620000	-0.989320
	4.625000	-1.008661
	4.630000	-1.098915
	4.635000	-1.079574
	4.640000	-0.986097
	4.645000	-1.005437
	4.650000	-1.095691
	4.655000	-1.076351
	4.660000	-0.982874
	4.665000	-1.002214
	4.670000	-1.092468
	4.675000	-1.066681
	4.680000	-0.982874
	4.685000	-1.002214
	4.690000	-1.095691
	4.695000	-1.066681
	4.700000	-0.979650
	4.705000	-0.998991
	4.710000	-1.092468
	4.715000	-1.063458
	4.720000	-0.976427
	4.725000	-1.002214
	4.730000	-1.092468
	4.735000	-1.066681
	4.740000	-0.973204
	4.745000	-0.992544
	4.750000	-1.069904
	4.755000	-1.031224
	4.760000	-0.918407
	4.765000	-0.902290
	4.770000	-0.931300
	4.775000	-0.873280
	4.780000	-0.741122
	4.785000	-0.718558
	4.790000	-0.760462
	4.795000	-0.708888
	4.800000	-0.583177
	4.805000	-0.583177
	4.810000	-0.637974
	4.815000	-0.596071
	4.820000	-0.492923
	4.825000	-0.489700
	4.830000	-0.570284
	4.835000	-0.531603
	4.840000	-0.431679
	4.845000	-0.444573
	4.850000	-0.515487
	4.855000	-0.483253
	4.860000	-0.396222
	4.865000	-0.412339
	4.870000	-0.483253
	4.875000	-0.460690
	4.880000	-0.376882
	4.885000	-0.383329
	4.890000	-0.467136
	4.895000	-0.434903
	4.900000	-0.354319
	4.905000	-0.363989
	4.910000	-0.441349
	4.915000	-0.422009
	4.920000	-0.341425
	4.925000	-0.357542
	4.930000	-0.441349
	4.935000	-0.402669
	4.940000	-0.328532
	4.945000	-0.357542
	4.950000	-0.428456
	4.955000	-0.402669
	4.960000	-0.331755
	4.965000	-0.354319
	4.970000	-0.438126
	4.975000	-0.409116
	4.980000	-0.331755
	4.985000	-0.357542
	4.990000	-0.434903
	4.995000	-0.415563
	5.000000	-0.328532
	5.005000	-0.354319
	5.010000	-0.428456
	5.015000	-0.402669
	5.020000	-0.334979
	5.025000	-0.354319
	5.030000	-0.441349
	5.035000	-0.412339
	5.040000	-0.334979
	5.045000	-0.357542
	5.050000	-0.431679
	5.055000	-0.409116
	5.060000	-0.331755
	5.065000	-0.367212
	5.070000	-0.428456
	5.075000	-0.412339
	5.080000	-0.334979
	5.085000	-0.357542
	5.090000	-0.431679
	5.095000	-0.405892
	5.100000	-0.331755
	5.105000	-0.354319
	5.110000	-0.425233
	5.115000	-0.405892
	5.120000	-0.328532
	5.125000	-0.351095
	5.130000	-0.425233
	5.135000	-0.396222
	5.140000	-0.318862
	5.145000	-0.344649
	5.150000	-0.428456
	5.155000	-0.399446
	5.160000	-0.315638
	5.165000	-0.338202
	5.170000	-0.422009
	5.175000	-0.383329
	5.180000	-0.302745
	5.185000	-0.331755
	5.190000	-0.402669
	5.195000	-0.373659
	5.200000	-0.299522
	5.205000	-0.312415
	5.210000	-0.399446
	5.215000	-0.367212
	5.220000	-0.289852
	5.225000	-0.315638
	5.230000	-0.396222
	5.235000	-0.367212
	5.240000	-0.296298
	5.245000	-0.322085
	5.250000	-0.389776
	5.255000	-0.373659
	5.260000	-0.296298
	5.265000	-0.331755
	5.270000	-0.399446
	5.275000	-0.386552
	5.280000	-0.312415
	5.285000	-0.351095
	5.290000	-0.428456
	5.295000	-0.405892
	5.300000	-0.354319
	5.305000	-0.376882
	5.310000	-0.463913
	5.315000	-0.454243
	5.320000	-0.389776
	5.325000	-0.441349
	5.330000	-0.538050
	5.335000	-0.538050
	5.340000	-0.483253
	5.345000	-0.534827
	5.350000	-0.644421
	5.355000	-0.637974
	5.360000	-0.592847
	5.365000	-0.647644
	5.370000	-0.754015
	5.375000	-0.750792
	5.380000	-0.705665
	5.385000	-0.760462
	5.390000	-0.857163
	5.395000	-0.853939
	5.400000	-0.792696
	5.405000	-0.841046
	5.410000	-0.944193
	5.415000	-0.924853
	5.420000	-0.857163
	5.425000	-0.908736
	5.430000	-0.992544
	5.435000	-0.976427
	5.440000	-0.902290
	5.445000	-0.940970
	5.450000	-1.028001
	5.455000	-1.002214
	5.460000	-0.921630
	5.465000	-0.960310
	5.470000	-1.044118
	5.475000	-1.008661
	5.480000	-0.934523
	5.485000	-0.960310
	5.490000	-1.047341
	5.495000	-1.015107
	5.500000	-0.937747
	5.505000	-0.966757
	5.510000	-1.047341
	5.515000	-1.015107
	5.520000	-0.934523
	5.525000	-0.963534
	5.530000	-1.047341
	5.535000	-1.011884
	5.540000	-0.934523
	5.545000	-0.960310
	5.550000	-1.044118
	5.555000	-1.011884
	5.560000	-0.928077
	5.565000	-0.966757
	5.570000	-1.044118
	5.575000	-1.008661
	5.580000	-0.928077
	5.585000	-0.957087
	5.590000	-1.047341
	5.595000	-1.005437
	5.600000	-0.921630
	5.605000	-0.957087
	5.610000	-1.034447
	5.615000	-0.995767
	5.620000	-0.915183
	5.625000	-0.940970
	5.630000	-1.028001
	5.635000	-0.986097
	5.640000	-0.899066
	5.645000	-0.934523
	5.650000	-1.015107
	5.655000	-0.976427
	5.660000	-0.892620
	5.665000	-0.924853
	5.670000	-1.008661
	5.675000	-0.963534
	5.680000	-0.886173
	5.685000	-0.921630
	5.690000	-0.998991
	5.695000	-0.960310
	5.700000	-0.879726
	5.705000	-0.908736
	5.710000	-0.989320
	5.715000	-0.950640
	5.720000	-0.870056
	5.725000	-0.899066
	5.730000	-0.982874
	5.735000	-0.940970
	5.740000	-0.863609
	5.745000	-0.889396
	5.750000	-0.973204
	5.755000	-0.934523
	5.760000	-0.853939
	5.765000	-0.882950
	5.770000	-0.966757
	5.775000	-0.928077
	5.780000	-0.844269
	5.785000	-0.882950
	5.790000	-0.966757
	5.795000	-0.921630
	5.800000	-0.837823
	5.805000	-0.879726
	5.810000	-0.957087
	5.815000	-0.915183
	5.820000	-0.837823
	5.825000	-0.876503
	5.830000	-0.957087
	5.835000	-0.921630
	5.840000	-0.837823
	5.845000	-0.873280
	5.850000	-0.950640
	5.855000	-0.915183
	5.860000	-0.837823
	5.865000	-0.882950
	5.870000	-0.953863
	5.875000	-0.915183
	5.880000	-0.834599
	5.885000	-0.882950
	5.890000	-0.963534
	5.895000	-0.908736
	5.900000	-0.837823
	5.905000	-0.876503
	5.910000	-0.953863
	5.915000	-0.918407
	5.920000	-0.841046
	5.925000	-0.879726
	5.930000	-0.953863
	5.935000	-0.918407
	5.940000	-0.834599
	5.945000	-0.879726
	5.950000	-0.957087
	5.955000	-0.921630
	5.960000	-0.834599
	5.965000	-0.873280
	5.970000	-0.953863
	5.975000	-0.915183
	5.980000	-0.831376
	5.985000	-0.876503
	5.990000	-0.953863
	5.995000	-0.915183
	6.000000	-0.824929
	6.005000	-0.873280
	6.010000	-0.950640
	6.015000	-0.911960
	6.020000	-0.831376
	6.025000	-0.870056
	6.030000	-0.950640
	6.035000	-0.902290
	6.040000	-0.828152
	6.045000	-0.870056
	6.050000	-0.953863
	6.055000	-0.905513
	6.060000	-0.824929
	6.065000	-0.870056
	6.070000	-0.953863
	6.075000	-0.908736
	6.080000	-0.834599
	6.085000	-0.873280
	6.090000	-0.953863
	6.095000	-0.915183
	6.100000	-0.831376
	6.105000	-0.873280
	6.110000	-0.957087
	6.115000	-0.908736
	6.120000	-0.824929
	6.125000	-0.866833
	6.130000	-0.950640
	6.135000	-0.911960
	6.140000	-0.824929
	6.145000	-0.866833
	6.150000	-0.950640
	6.155000	-0.899066
	6.160000	-0.818482
	6.165000	-0.866833
	6.170000	-0.950640
	6.175000	-0.899066
	6.180000	-0.824929
	6.185000	-0.870056
	6.190000	-0.947417
	6.195000	-0.895843
	6.200000	-0.824929
	6.205000	-0.870056
	6.210000	-0.947417
	6.215000	-0.899066
	6.220000	-0.821706
	6.225000	-0.863609
	6.230000	-0.937747
	6.235000	-0.892620
	6.240000	-0.818482
	6.245000	-0.860386
	6.250000	-0.937747
	6.255000	-0.895843
	6.260000	-0.812036
	6.265000	-0.860386
	6.270000	-0.940970
	6.275000	-0.889396
	6.280000	-0.812036
	6.285000	-0.866833
	6.290000	-0.934523
	6.295000	-0.892620
	6.300000	-0.812036
	6.305000	-0.860386
	6.310000	-0.934523
	6.315000	-0.895843
	6.320000	-0.818482
	6.325000	-0.857163
	6.330000	-0.931300
	6.335000	-0.886173
	6.340000	-0.808812
	6.345000	-0.850716
	6.350000	-0.934523
	6.355000	-0.879726
	6.360000	-0.805589
	6.365000	-0.850716
	6.370000	-0.937747
	6.375000	-0.886173
	6.380000	-0.799142
	6.385000	-0.847493
	6.390000	-0.918407
	6.395000	-0.870056
	6.400000	-0.802366
	6.405000	-0.841046
	6.410000	-0.921630
	6.415000	-0.866833
	6.420000	-0.786249
	6.425000	-0.834599
	6.430000	-0.911960
	6.435000	-0.866833
	6.440000	-0.792696
	6.445000	-0.841046
	6.450000	-0.908736
	6.455000	-0.857163
	6.460000	-0.786249
	6.465000	-0.834599
	6.470000	-0.915183
	6.475000	-0.860386
	6.480000	-0.783025
	6.485000	-0.828152
	6.490000	-0.902290
	6.495000	-0.863609
	6.500000	-0.783025
	6.505000	-0.834599
	6.510000	-0.902290
	6.515000	-0.860386
	6.520000	-0.786249
	6.525000	-0.824929
	6.530000	-0.902290
	6.535000	-0.853939
	6.540000	-0.783025
	6.545000	-0.824929
	6.550000	-0.905513
	6.555000	-0.847493
	6.560000	-0.779802
	6.565000	-0.818482
	6.570000	-0.895843
	6.575000	-0.853939
	6.580000	-0.773355
	6.585000	-0.815259
	6.590000	-0.895843
	6.595000	-0.844269
	6.600000	-0.766909
	6.605000	-0.808812
	6.610000	-0.889396
	6.615000	-0.841046
	6.620000	-0.766909
	6.625000	-0.815259
	6.630000	-0.889396
	6.635000	-0.831376
	6.640000	-0.757239
	6.645000	-0.808812
	6.650000	-0.886173
	6.655000	-0.824929
	6.660000	-0.754015
	6.665000	-0.802366
	6.670000	-0.879726
	6.675000	-0.821706
	6.680000	-0.750792
	6.685000	-0.802366
	6.690000	-0.879726
	6.695000	-0.828152
	6.700000	-0.750792
	6.705000	-0.802366
	6.710000	-0.879726
	6.715000	-0.824929
	6.720000	-0.754015
	6.725000	-0.795919
	6.730000	-0.876503
	6.735000	-0.824929
	6.740000	-0.750792
	6.745000	-0.795919
	6.750000	-0.870056
	6.755000	-0.818482
	6.760000	-0.744345
	6.765000	-0.789472
	6.770000	-0.863609
	6.775000	-0.821706
	6.780000	-0.744345
	6.785000	-0.786249
	6.790000	-0.863609
	6.795000	-0.812036
	6.800000	-0.734675
	6.805000	-0.783025
	6.810000	-0.853939
	6.815000	-0.799142
	6.820000	-0.728228
	6.825000	-0.779802
	6.830000	-0.857163
	6.835000	-0.795919
	6.840000	-0.725005
	6.845000	-0.776579
	6.850000	-0.853939
	6.855000	-0.792696
	6.860000	-0.718558
	6.865000	-0.766909
	6.870000	-0.837823
	6.875000	-0.786249
	6.880000	-0.718558
	6.885000	-0.770132
	6.890000	-0.841046
	6.895000	-0.783025
	6.900000	-0.715335
	6.905000	-0.763685
	6.910000	-0.834599
	6.915000	-0.783025
	6.920000	-0.712112
	6.925000	-0.754015
	6.930000	-0.831376
	6.935000	-0.773355
	6.940000	-0.705665
	6.945000	-0.760462
	6.950000	-0.824929
	6.955000	-0.776579
	6.960000	-0.699218
	6.965000	-0.750792
	6.970000	-0.818482
	6.975000	-0.763685
	6.980000	-0.695995
	6.985000	-0.741122
	6.990000	-0.812036
	6.995000	-0.760462
	7.000000	-0.689548
	7.005000	-0.741122
	7.010000	-0.812036
	7.015000	-0.750792
	7.020000	-0.683101
	7.025000	-0.734675
	7.030000	-0.808812
	7.035000	-0.750792
	7.040000	-0.670208
	7.045000	-0.731452
	7.050000	-0.805589
	7.055000	-0.737898
	7.060000	-0.670208
	7.065000	-0.718558
	7.070000	-0.789472
	7.075000	-0.744345
	7.080000	-0.666985
	7.085000	-0.721782
	7.090000	-0.795919
	7.095000	-0.731452
	7.100000	-0.663761
	7.105000	-0.725005
	7.110000	-0.792696
	7.115000	-0.728228
	7.120000	-0.663761
	7.125000	-0.715335
	7.130000	-0.786249
	7.135000	-0.725005
	7.140000	-0.666985
	7.145000	-0.718558
	7.150000	-0.795919
	7.155000	-0.731452
	7.160000	-0.660538
	7.165000	-0.715335
	7.170000	-0.786249
	7.175000	-0.728228
	7.180000	-0.660538
	7.185000	-0.715335
	7.190000	-0.792696
	7.195000	-0.731452
	7.200000	-0.660538
	7.205000	-0.721782
	7.210000	-0.786249
	7.215000	-0.728228
	7.220000	-0.666985
	7.225000	-0.715335
	7.230000	-0.783025
	7.235000	-0.734675
	7.240000	-0.660538
	7.245000	-0.715335
	7.250000	-0.789472
	7.255000	-0.731452
	7.260000	-0.663761
	7.265000	-0.721782
	7.270000	-0.786249
	7.275000	-0.728228
	7.280000	-0.660538
	7.285000	-0.718558
	7.290000	-0.783025
	7.295000	-0.731452
	7.300000	-0.663761
	7.305000	-0.715335
	7.310000	-0.786249
	7.315000	-0.728228
	7.320000	-0.670208
	7.325000	-0.721782
	7.330000	-0.792696
	7.335000	-0.731452
	7.340000	-0.670208
	7.345000	-0.718558
	7.350000	-0.792696
	7.355000	-0.734675
	7.360000	-0.676655
	7.365000	-0.725005
	7.370000	-0.799142
	7.375000	-0.734675
	7.380000	-0.670208
	7.385000	-0.741122
	7.390000	-0.795919
	7.395000	-0.741122
	7.400000	-0.676655
	7.405000	-0.737898
	7.410000	-0.805589
	7.415000	-0.744345
	7.420000	-0.676655
	7.425000	-0.731452
	7.430000	-0.799142
	7.435000	-0.741122
	7.440000	-0.676655
	7.445000	-0.734675
	7.450000	-0.802366
	7.455000	-0.737898
	7.460000	-0.666985
	7.465000	-0.731452
	7.470000	-0.799142
	7.475000	-0.737898
	7.480000	-0.670208
	7.485000	-0.728228
	7.490000	-0.802366
	7.495000	-0.737898
	7.500000	-0.676655
	7.505000	-0.734675
	7.510000	-0.792696
	7.515000	-0.734675
	7.520000	-0.666985
	7.525000	-0.731452
	7.530000	-0.799142
	7.535000	-0.741122
	7.540000	-0.670208
	7.545000	-0.728228
	7.550000	-0.799142
	7.555000	-0.734675
	7.560000	-0.670208
	7.565000	-0.734675
	7.570000	-0.799142
	7.575000	-0.734675
	7.580000	-0.666985
	7.585000	-0.734675
	7.590000	-0.799142
	7.595000	-0.728228
	7.600000	-0.666985
	7.605000	-0.734675
	7.610000	-0.802366
	7.615000	-0.737898
	7.620000	-0.670208
	7.625000	-0.741122
	7.630000	-0.802366
	7.635000	-0.741122
	7.640000	-0.676655
	7.645000	-0.737898
	7.650000	-0.805589
	7.655000	-0.741122
	7.660000	-0.679878
	7.665000	-0.734675
	7.670000	-0.802366
	7.675000	-0.737898
	7.680000	-0.679878
	7.685000	-0.737898
	7.690000	-0.799142
	7.695000	-0.741122
	7.700000	-0.670208
	7.705000	-0.728228
	7.710000	-0.792696
	7.715000	-0.741122
	7.720000	-0.663761
	7.725000	-0.725005
	7.730000	-0.792696
	7.735000	-0.734675
	7.740000	-0.666985
	7.745000	-0.728228
	7.750000	-0.795919
	7.755000	-0.728228
	7.760000	-0.666985
	7.765000	-0.731452
	7.770000	-0.789472
	7.775000	-0.731452
	7.780000	-0.670208
	7.785000	-0.734675
	7.790000	-0.799142
	7.795000	-0.731452
	7.800000	-0.673431
	7.805000	-0.737898
	7.810000	-0.799142
	7.815000	-0.737898
	7.820000	-0.676655
	7.825000	-0.741122
	7.830000	-0.802366
	7.835000	-0.744345
	7.840000	-0.676655
	7.845000	-0.744345
	7.850000	-0.805589
	7.855000	-0.741122
	7.860000	-0.679878
	7.865000	-0.747569
	7.870000	-0.808812
	7.875000	-0.747569
	7.880000	-0.689548
	7.885000	-0.754015
	7.890000	-0.818482
	7.895000	-0.754015
	7.900000	-0.692771
	7.905000	-0.754015
	7.910000	-0.815259
	7.915000	-0.757239
	7.920000	-0.692771
	7.925000	-0.754015
	7.930000	-0.815259
	7.935000	-0.757239
	7.940000	-0.689548
	7.945000	-0.760462
	7.950000	-0.821706
	7.955000	-0.750792
	7.960000	-0.695995
	7.965000	-0.760462
	7.970000	-0.818482
	7.975000	-0.754015
	7.980000	-0.689548
	7.985000	-0.757239
	7.990000	-0.812036
	7.995000	-0.750792
	8.000000	-0.689548
	8.005000	-0.760462
	8.010000	-0.824929
	8.015000	-0.750792
	8.020000	-0.692771
	8.025000	-0.757239
	8.030000	-0.818482
	8.035000	-0.754015
	8.040000	-0.692771
	8.045000	-0.757239
	8.050000	-0.818482
	8.055000	-0.754015
	8.060000	-0.695995
	8.065000	-0.757239
	8.070000	-0.821706
	8.075000	-0.747569
	8.080000	-0.689548
	8.085000	-0.744345
	8.090000	-0.789472
	8.095000	-0.728228
	8.100000	-0.657314
	8.105000	-0.715335
	8.110000	-0.766909
	8.115000	-0.699218
	8.120000	-0.631528
	8.125000	-0.695995
	8.130000	-0.757239
	8.135000	-0.679878
	8.140000	-0.612187
	8.145000	-0.679878
	8.150000	-0.737898
	8.155000	-0.670208
	8.160000	-0.608964
	8.165000	-0.670208
	8.170000	-0.737898
	8.175000	-0.683101
	8.180000	-0.621858
	8.185000	-0.702441
	8.190000	-0.763685
	8.195000	-0.695995
	8.200000	-0.644421
	8.205000	-0.712112
	8.210000	-0.786249
	8.215000	-0.725005
	8.220000	-0.663761
	8.225000	-0.741122
	8.230000	-0.799142
	8.235000	-0.734675
	8.240000	-0.676655
	8.245000	-0.754015
	8.250000	-0.808812
	8.255000	-0.737898
	8.260000	-0.686325
	8.265000	-0.754015
	8.270000	-0.815259
	8.275000	-0.737898
	8.280000	-0.689548
	8.285000	-0.757239
	8.290000	-0.815259
	8.295000	-0.750792
	8.300000	-0.683101
	8.305000	-0.754015
	8.310000	-0.808812
	8.315000	-0.737898
	8.320000	-0.689548
	8.325000	-0.754015
	8.330000	-0.808812
	8.335000	-0.737898
	8.340000	-0.673431
	8.345000	-0.750792
	8.350000	-0.802366
	8.355000	-0.728228
	8.360000	-0.673431
	8.365000	-0.741122
	8.370000	-0.802366
	8.375000	-0.731452
	8.380000	-0.666985
	8.385000	-0.741122
	8.390000	-0.799142
	8.395000	-0.725005
	8.400000	-0.670208
	8.405000	-0.747569
	8.410000	-0.799142
	8.415000	-0.728228
	8.420000	-0.676655
	8.425000	-0.741122
	8.430000	-0.795919
	8.435000	-0.728228
	8.440000	-0.670208
	8.445000	-0.744345
	8.450000	-0.792696
	8.455000	-0.728228
	8.460000	-0.673431
	8.465000	-0.734675
	8.470000	-0.789472
	8.475000	-0.718558
	8.480000	-0.663761
	8.485000	-0.737898
	8.490000	-0.792696
	8.495000	-0.725005
	8.500000	-0.663761
	8.505000	-0.737898
	8.510000	-0.792696
	8.515000	-0.718558
	8.520000	-0.660538
	8.525000	-0.734675
	8.530000	-0.789472
	8.535000	-0.715335
	8.540000	-0.657314
	8.545000	-0.734675
	8.550000	-0.786249
	8.555000	-0.718558
	8.560000	-0.663761
	8.565000	-0.731452
	8.570000	-0.786249
	8.575000	-0.718558
	8.580000	-0.657314
	8.585000	-0.731452
	8.590000	-0.792696
	8.595000	-0.708888
	8.600000	-0.660538
	8.605000	-0.728228
	8.610000	-0.783025
	8.615000	-0.712112
	8.620000	-0.650868
	8.625000	-0.734675
	8.630000	-0.783025
	8.635000	-0.708888
	8.640000	-0.654091
	8.645000	-0.734675
	8.650000	-0.779802
	8.655000	-0.705665
	8.660000	-0.650868
	8.665000	-0.731452
	8.670000	-0.779802
	8.675000	-0.708888
	8.680000	-0.660538
	8.685000	-0.731452
	8.690000	-0.789472
	8.695000	-0.721782
	8.700000	-0.663761
	8.705000	-0.734675
	8.710000	-0.783025
	8.715000	-0.708888
	8.720000	-0.663761
	8.725000	-0.734675
	8.730000	-0.779802
	8.735000	-0.712112
	8.740000	-0.660538
	8.745000	-0.734675
	8.750000	-0.795919
	8.755000	-0.708888
	8.760000	-0.657314
	8.765000	-0.728228
	8.770000	-0.786249
	8.775000	-0.708888
	8.780000	-0.654091
	8.785000	-0.734675
	8.790000	-0.786249
	8.795000	-0.705665
	8.800000	-0.657314
	8.805000	-0.734675
	8.810000	-0.776579
	8.815000	-0.702441
	8.820000	-0.650868
	8.825000	-0.728228
	8.830000	-0.783025
	8.835000	-0.708888
	8.840000	-0.654091
	8.845000	-0.734675
	8.850000	-0.773355
	8.855000	-0.705665
	8.860000	-0.647644
	8.865000	-0.721782
	8.870000	-0.776579
	8.875000	-0.695995
	8.880000	-0.641198
	8.885000	-0.718558
	8.890000	-0.766909
	8.895000	-0.683101
	8.900000	-0.634751
	8.905000	-0.721782
	8.910000	-0.766909
	8.915000	-0.695995
	8.920000	-0.641198
	8.925000	-0.718558
	8.930000	-0.763685
	8.935000	-0.683101
	8.940000	-0.628304
	8.945000	-0.715335
	8.950000	-0.766909
	8.955000	-0.679878
	8.960000	-0.634751
	8.965000	-0.705665
	8.970000	-0.757239
	8.975000	-0.679878
	8.980000	-0.628304
	8.985000	-0.702441
	8.990000	-0.754015
	8.995000	-0.673431
	9.000000	-0.621858
	9.005000	-0.692771
	9.010000	-0.750792
	9.015000	-0.670208
	9.020000	-0.615411
	9.025000	-0.695995
	9.030000	-0.744345
	9.035000	-0.660538
	9.040000	-0.615411
	9.045000	-0.686325
	9.050000	-0.737898
	9.055000	-0.660538
	9.060000	-0.602517
	9.065000	-0.683101
	9.070000	-0.728228
	9.075000	-0.657314
	9.080000	-0.605741
	9.085000	-0.686325
	9.090000	-0.734675
	9.095000	-0.657314
	9.100000	-0.602517
	9.105000	-0.676655
	9.110000	-0.731452
	9.115000	-0.644421
	9.120000	-0.602517
	9.125000	-0.683101
	9.130000	-0.721782
	9.135000	-0.641198
	9.140000	-0.592847
	9.145000	-0.679878
	9.150000	-0.731452
	9.155000	-0.654091
	9.160000	-0.596071
	9.165000	-0.679878
	9.170000	-0.731452
	9.175000	-0.650868
	9.180000	-0.605741
	9.185000	-0.683101
	9.190000	-0.734675
	9.195000	-0.657314
	9.200000	-0.608964
	9.205000	-0.683101
	9.210000	-0.734675
	9.215000	-0.644421
	9.220000	-0.579954
	9.225000	-0.644421
	9.230000	-0.650868
	9.235000	-0.528380
	9.240000	-0.422009
	9.245000	-0.457466
	9.250000	-0.454243
	9.255000	-0.325308
	9.260000	-0.241501
	9.265000	-0.280181
	9.270000	-0.293075
	9.275000	-0.189927
	9.280000	-0.122237
	9.285000	-0.189927
	9.290000	-0.206044
	9.295000	-0.115790
	9.300000	-0.064216
	9.305000	-0.119014
	9.310000	-0.157694
	9.315000	-0.077110
	9.320000	-0.022313
	9.325000	-0.090003
	9.330000	-0.125460
	9.335000	-0.051323
	9.340000	-0.002973
	9.345000	-0.073886
	9.350000	-0.109343
	9.355000	-0.025536
	9.360000	0.009921
	9.365000	-0.054546
	9.370000	-0.096450
	9.375000	-0.019089
	9.380000	0.026038
	9.385000	-0.044876
	9.390000	-0.077110
	9.395000	-0.006196
	9.400000	0.042154
	9.405000	-0.022313
	9.410000	-0.067440
	9.415000	0.013144
	9.420000	0.058271
	9.425000	-0.006196
	9.430000	-0.048100
	9.435000	0.029261
	9.440000	0.071165
	9.445000	0.000251
	9.450000	-0.031983
	9.455000	0.045378
	9.460000	0.084058
	9.465000	0.013144
	9.470000	-0.022313
	9.475000	0.058271
	9.480000	0.090505
	9.485000	0.022814
	9.490000	-0.012643
	9.495000	0.061495
	9.500000	0.103398
	9.505000	0.026038
	9.510000	0.000251
	9.515000	0.077611
	9.520000	0.109845
	9.525000	0.032484
	9.530000	-0.006196
	9.535000	0.074388
	9.540000	0.103398
	9.545000	0.035708
	9.550000	0.003474
	9.555000	0.074388
	9.560000	0.109845
	9.565000	0.042154
	9.570000	0.006697
	9.575000	0.064718
	9.580000	0.106622
	9.585000	0.038931
	9.590000	0.003474
	9.595000	0.067941
	9.600000	0.106622
	9.605000	0.045378
	9.610000	0.003474
	9.615000	0.077611
	9.620000	0.116292
	9.625000	0.032484
	9.630000	0.003474
	9.635000	0.074388
	9.640000	0.113068
	9.645000	0.048601
	9.650000	-0.006196
	9.655000	0.074388
	9.660000	0.116292
	9.665000	0.042154
	9.670000	0.006697
	9.675000	0.077611
	9.680000	0.119515
	9.685000	0.038931
	9.690000	0.003474
	9.695000	0.074388
	9.700000	0.113068
	9.705000	0.035708
	9.710000	0.000251
	9.715000	0.064718
	9.720000	0.100175
	9.725000	0.029261
	9.730000	-0.009419
	9.735000	0.064718
	9.740000	0.096952
	9.745000	0.026038
	9.750000	-0.012643
	9.755000	0.051825
	9.760000	0.080835
	9.765000	0.006697
	9.770000	-0.035206
	9.775000	0.032484
	9.780000	0.051825
	9.785000	-0.025536
	9.790000	-0.083557
	9.795000	-0.019089
	9.800000	-0.009419
	9.805000	-0.099673
	9.810000	-0.164141
	9.815000	-0.109343
	9.820000	-0.096450
	9.825000	-0.209268
	9.830000	-0.270511
	9.835000	-0.228608
	9.840000	-0.225384
	9.845000	-0.341425
	9.850000	-0.412339
	9.855000	-0.370436
	9.860000	-0.370436
	9.865000	-0.483253
	9.870000	-0.547720
	9.875000	-0.512263
	9.880000	-0.499370
	9.885000	-0.586401
	9.890000	-0.644421
	9.895000	-0.573507
	9.900000	-0.560614
	9.905000	-0.657314
	9.910000	-0.695995
	9.915000	-0.628304
	9.920000	-0.605741
	9.925000	-0.689548
	9.930000	-0.728228
	9.935000	-0.650868
	9.940000	-0.621858
	9.945000	-0.708888
	9.950000	-0.737898
	9.955000	-0.663761
	9.960000	-0.628304
	9.965000	-0.715335
	9.970000	-0.750792
	9.975000	-0.676655
	9.980000	-0.641198
	9.985000	-0.718558
	9.990000	-0.757239
	9.995000	-0.670208
	10.000000	-0.637974
	10.005000	-0.721782
	10.010000	-0.757239
	10.015000	-0.676655
	10.020000	-0.644421
	10.025000	-0.734675
	10.030000	-0.763685
	10.035000	-0.679878
	10.040000	-0.647644
	10.045000	-0.728228
	10.050000	-0.766909
	10.055000	-0.683101
	10.060000	-0.637974
	10.065000	-0.721782
	10.070000	-0.757239
	10.075000	-0.670208
	10.080000	-0.631528
	10.085000	-0.718558
	10.090000	-0.754015
	10.095000	-0.663761
	10.100000	-0.628304
	10.105000	-0.712112
	10.110000	-0.744345
	10.115000	-0.657314
	10.120000	-0.621858
	10.125000	-0.712112
	10.130000	-0.734675
	10.135000	-0.647644
	10.140000	-0.615411
	10.145000	-0.702441
	10.150000	-0.728228
	10.155000	-0.644421
	10.160000	-0.608964
	10.165000	-0.692771
	10.170000	-0.728228
	10.175000	-0.637974
	10.180000	-0.599294
	10.185000	-0.683101
	10.190000	-0.712112
	10.195000	-0.631528
	10.200000	-0.596071
	10.205000	-0.679878
	10.210000	-0.712112
	10.215000	-0.625081
	10.220000	-0.592847
	10.225000	-0.679878
	10.230000	-0.718558
	10.235000	-0.625081
	10.240000	-0.596071
	10.245000	-0.673431
	10.250000	-0.702441
	10.255000	-0.618634
	10.260000	-0.592847
	10.265000	-0.670208
	10.270000	-0.702441
	10.275000	-0.625081
	10.280000	-0.579954
	10.285000	-0.666985
	10.290000	-0.695995
	10.295000	-0.612187
	10.300000	-0.583177
	10.305000	-0.660538
	10.310000	-0.695995
	10.315000	-0.605741
	10.320000	-0.570284
	10.325000	-0.663761
	10.330000	-0.679878
	10.335000	-0.599294
	10.340000	-0.567060
	10.345000	-0.650868
	10.350000	-0.679878
	10.355000	-0.596071
	10.360000	-0.557390
	10.365000	-0.644421
	10.370000	-0.679878
	10.375000	-0.592847
	10.380000	-0.563837
	10.385000	-0.647644
	10.390000	-0.679878
	10.395000	-0.583177
	10.400000	-0.557390
	10.405000	-0.637974
	10.410000	-0.666985
	10.415000	-0.583177
	10.420000	-0.550944
	10.425000	-0.647644
	10.430000	-0.670208
	10.435000	-0.586401
	10.440000	-0.550944
	10.445000	-0.637974
	10.450000	-0.663761
	10.455000	-0.576730
	10.460000	-0.547720
	10.465000	-0.631528
	10.470000	-0.666985
	10.475000	-0.579954
	10.480000	-0.554167
	10.485000	-0.628304
	10.490000	-0.666985
	10.495000	-0.579954
	10.500000	-0.547720
	10.505000	-0.637974
	10.510000	-0.666985
	10.515000	-0.570284
	10.520000	-0.547720
	10.525000	-0.631528
	10.530000	-0.657314
	10.535000	-0.573507
	10.540000	-0.541274
	10.545000	-0.625081
	10.550000	-0.663761
	10.555000	-0.570284
	10.560000	-0.541274
	10.565000	-0.631528
	10.570000	-0.663761
	10.575000	-0.567060
	10.580000	-0.544497
	10.585000	-0.631528
	10.590000	-0.660538
	10.595000	-0.567060
	10.600000	-0.538050
	10.605000	-0.637974
	10.610000	-0.654091
	10.615000	-0.567060
	10.620000	-0.538050
	10.625000	-0.634751
	10.630000	-0.657314
	10.635000	-0.573507
	10.640000	-0.541274
	10.645000	-0.631528
	10.650000	-0.657314
	10.655000	-0.563837
	10.660000	-0.547720
	10.665000	-0.634751
	10.670000	-0.657314
	10.675000	-0.573507
	10.680000	-0.544497
	10.685000	-0.625081
	10.690000	-0.660538
	10.695000	-0.563837
	10.700000	-0.541274
	10.705000	-0.621858
	10.710000	-0.654091
	10.715000	-0.573507
	10.720000	-0.541274
	10.725000	-0.625081
	10.730000	-0.657314
	10.735000	-0.567060
	10.740000	-0.534827
	10.745000	-0.631528
	10.750000	-0.650868
	10.755000	-0.563837
	10.760000	-0.534827
	10.765000	-0.625081
	10.770000	-0.650868
	10.775000	-0.560614
	10.780000	-0.534827
	10.785000	-0.618634
	10.790000	-0.647644
	10.795000	-0.557390
	10.800000	-0.531603
	10.805000	-0.621858
	10.810000	-0.641198
	10.815000	-0.557390
	10.820000	-0.528380
	10.825000	-0.621858
	10.830000	-0.641198
	10.835000	-0.560614
	10.840000	-0.531603
	10.845000	-0.618634
	10.850000	-0.641198
	10.855000	-0.557390
	10.860000	-0.531603
	10.865000	-0.618634
	10.870000	-0.641198
	10.875000	-0.554167
	10.880000	-0.528380
	10.885000	-0.618634
	10.890000	-0.644421
	10.895000	-0.547720
	10.900000	-0.525157
	10.905000	-0.618634
	10.910000	-0.634751
	10.915000	-0.547720
	10.920000	-0.528380
	10.925000	-0.625081
	10.930000	-0.637974
	10.935000	-0.547720
	10.940000	-0.528380
	10.945000	-0.612187
	10.950000	-0.637974
	10.955000	-0.547720
	10.960000	-0.515487
	10.965000	-0.615411
	10.970000	-0.628304
	10.975000	-0.544497
	10.980000	-0.518710
	10.985000	-0.615411
	10.990000	-0.634751
	10.995000	-0.541274
	11.000000	-0.525157
	11.005000	-0.612187
	11.010000	-0.628304
	11.015000	-0.544497
	11.020000	-0.521933
	11.025000	-0.612187
	11.030000	-0.631528
	11.035000	-0.538050
	11.040000	-0.518710
	11.045000	-0.608964
	11.050000	-0.634751
	11.055000	-0.541274
	11.060000	-0.525157
	11.065000	-0.612187
	11.070000	-0.634751
	11.075000	-0.538050
	11.080000	-0.518710
	11.085000	-0.612187
	11.090000	-0.631528
	11.095000	-0.538050
	11.100000	-0.518710
	11.105000	-0.615411
	11.110000	-0.628304
	11.115000	-0.531603
	11.120000	-0.515487
	11.125000	-0.608964
	11.130000	-0.625081
	11.135000	-0.534827
	11.140000	-0.509040
	11.145000	-0.589624
	11.150000	-0.615411
	11.155000	-0.528380
	11.160000	-0.502593
	11.165000	-0.602517
	11.170000	-0.615411
	11.175000	-0.528380
	11.180000	-0.512263
	11.185000	-0.592847
	11.190000	-0.608964
	11.195000	-0.525157
	11.200000	-0.502593
	11.205000	-0.596071
	11.210000	-0.615411
	11.215000	-0.515487
	11.220000	-0.496147
	11.225000	-0.592847
	11.230000	-0.608964
	11.235000	-0.521933
	11.240000	-0.496147
	11.245000	-0.576730
	11.250000	-0.602517
	11.255000	-0.515487
	11.260000	-0.496147
	11.265000	-0.589624
	11.270000	-0.599294
	11.275000	-0.512263
	11.280000	-0.489700
	11.285000	-0.573507
	11.290000	-0.599294
	11.295000	-0.509040
	11.300000	-0.480030
	11.305000	-0.576730
	11.310000	-0.589624
	11.315000	-0.499370
	11.320000	-0.483253
	11.325000	-0.570284
	11.330000	-0.592847
	11.335000	-0.496147
	11.340000	-0.480030
	11.345000	-0.567060
	11.350000	-0.589624
	11.355000	-0.489700
	11.360000	-0.473583
	11.365000	-0.563837
	11.370000	-0.573507
	11.375000	-0.486476
	11.380000	-0.467136
	11.385000	-0.554167
	11.390000	-0.573507
	11.395000	-0.473583
	11.400000	-0.463913
	11.405000	-0.550944
	11.410000	-0.567060
	11.415000	-0.473583
	11.420000	-0.460690
	11.425000	-0.547720
	11.430000	-0.557390
	11.435000	-0.467136
	11.440000	-0.460690
	11.445000	-0.547720
	11.450000	-0.554167
	11.455000	-0.463913
	11.460000	-0.454243
	11.465000	-0.541274
	11.470000	-0.550944
	11.475000	-0.467136
	11.480000	-0.451019
	11.485000	-0.534827
	11.490000	-0.547720
	11.495000	-0.460690
	11.500000	-0.454243
	11.505000	-0.531603
	11.510000	-0.550944
	11.515000	-0.463913
	11.520000	-0.441349
	11.525000	-0.525157
	11.530000	-0.544497
	11.535000	-0.447796
	11.540000	-0.438126
	11.545000	-0.528380
	11.550000	-0.547720
	11.555000	-0.451019
	11.560000	-0.434903
	11.565000	-0.521933
	11.570000	-0.538050
	11.575000	-0.447796
	11.580000	-0.438126
	11.585000	-0.518710
	11.590000	-0.528380
	11.595000	-0.428456
	11.600000	-0.431679
	11.605000	-0.518710
	11.610000	-0.525157
	11.615000	-0.431679
	11.620000	-0.422009
	11.625000	-0.505817
	11.630000	-0.509040
	11.635000	-0.422009
	11.640000	-0.409116
	11.645000	-0.499370
	11.650000	-0.505817
	11.655000	-0.418786
	11.660000	-0.405892
	11.665000	-0.486476
	11.670000	-0.502593
	11.675000	-0.412339
	11.680000	-0.399446
	11.685000	-0.489700
	11.690000	-0.492923
	11.695000	-0.412339
	11.700000	-0.392999
	11.705000	-0.489700
	11.710000	-0.489700
	11.715000	-0.402669
	11.720000	-0.392999
	11.725000	-0.483253
	11.730000	-0.492923
	11.735000	-0.396222
	11.740000	-0.386552
	11.745000	-0.476806
	11.750000	-0.486476
	11.755000	-0.396222
	11.760000	-0.392999
	11.765000	-0.473583
	11.770000	-0.480030
	11.775000	-0.389776
	11.780000	-0.386552
	11.785000	-0.480030
	11.790000	-0.476806
	11.795000	-0.386552
	11.800000	-0.376882
	11.805000	-0.467136
	11.810000	-0.476806
	11.815000	-0.383329
	11.820000	-0.376882
	11.825000	-0.470360
	11.830000	-0.473583
	11.835000	-0.383329
	11.840000	-0.376882
	11.845000	-0.463913
	11.850000	-0.470360
	11.855000	-0.383329
	11.860000	-0.373659
	11.865000	-0.463913
	11.870000	-0.476806
	11.875000	-0.380106
	11.880000	-0.383329
	11.885000	-0.470360
	11.890000	-0.470360
	11.895000	-0.389776
	11.900000	-0.383329
	11.905000	-0.473583
	11.910000	-0.480030
	11.915000	-0.389776
	11.920000	-0.386552
	11.925000	-0.476806
	11.930000	-0.483253
	11.935000	-0.389776
	11.940000	-0.389776
	11.945000	-0.486476
	11.950000	-0.486476
	11.955000	-0.396222
	11.960000	-0.386552
	11.965000	-0.489700
	11.970000	-0.486476
	11.975000	-0.399446
	11.980000	-0.389776
	11.985000	-0.480030
	11.990000	-0.486476
	11.995000	-0.399446
	12.000000	-0.402669
	12.005000	-0.483253
	12.010000	-0.492923
	12.015000	-0.399446
	12.020000	-0.402669
	12.025000	-0.483253
	12.030000	-0.499370
	12.035000	-0.405892
	12.040000	-0.396222
	12.045000	-0.492923
	12.050000	-0.492923
	12.055000	-0.409116
	12.060000	-0.402669
	12.065000	-0.489700
	12.070000	-0.492923
	12.075000	-0.412339
	12.080000	-0.412339
	12.085000	-0.499370
	12.090000	-0.502593
	12.095000	-0.418786
	12.100000	-0.402669
	12.105000	-0.496147
	12.110000	-0.499370
	12.115000	-0.412339
	12.120000	-0.412339
	12.125000	-0.502593
	12.130000	-0.505817
	12.135000	-0.412339
	12.140000	-0.412339
	12.145000	-0.502593
	12.150000	-0.512263
	12.155000	-0.425233
	12.160000	-0.412339
	12.165000	-0.515487
	12.170000	-0.512263
	12.175000	-0.422009
	12.180000	-0.418786
	12.185000	-0.509040
	12.190000	-0.509040
	12.195000	-0.425233
	12.200000	-0.418786
	12.205000	-0.515487
	12.210000	-0.515487
	12.215000	-0.422009
	12.220000	-0.422009
	12.225000	-0.509040
	12.230000	-0.512263
	12.235000	-0.425233
	12.240000	-0.422009
	12.245000	-0.509040
	12.250000	-0.512263
	12.255000	-0.422009
	12.260000	-0.428456
	12.265000	-0.505817
	12.270000	-0.512263
	12.275000	-0.425233
	12.280000	-0.428456
	12.285000	-0.512263
	12.290000	-0.521933
	12.295000	-0.422009
	12.300000	-0.431679
	12.305000	-0.518710
	12.310000	-0.525157
	12.315000	-0.438126
	12.320000	-0.431679
	12.325000	-0.525157
	12.330000	-0.521933
	12.335000	-0.438126
	12.340000	-0.434903
	12.345000	-0.521933
	12.350000	-0.525157
	12.355000	-0.438126
	12.360000	-0.434903
	12.365000	-0.525157
	12.370000	-0.531603
	12.375000	-0.441349
	12.380000	-0.434903
	12.385000	-0.531603
	12.390000	-0.528380
	12.395000	-0.444573
	12.400000	-0.444573
	12.405000	-0.521933
	12.410000	-0.528380
	12.415000	-0.438126
	12.420000	-0.438126
	12.425000	-0.534827
	12.430000	-0.528380
	12.435000	-0.441349
	12.440000	-0.434903
	12.445000	-0.528380
	12.450000	-0.534827
	12.455000	-0.441349
	12.460000	-0.447796
	12.465000	-0.531603
	12.470000	-0.528380
	12.475000	-0.438126
	12.480000	-0.438126
	12.485000	-0.534827
	12.490000	-0.531603
	12.495000	-0.441349
	12.500000	-0.444573
	12.505000	-0.534827
	12.510000	-0.528380
	12.515000	-0.447796
	12.520000	-0.444573
	12.525000	-0.534827
	12.530000	-0.534827
	12.535000	-0.451019
	12.540000	-0.444573
	12.545000	-0.541274
	12.550000	-0.541274
	12.555000	-0.454243
	12.560000	-0.451019
	12.565000	-0.544497
	12.570000	-0.541274
	12.575000	-0.457466
	12.580000	-0.457466
	12.585000	-0.550944
	12.590000	-0.544497
	12.595000	-0.454243
	12.600000	-0.454243
	12.605000	-0.544497
	12.610000	-0.554167
	12.615000	-0.460690
	12.620000	-0.460690
	12.625000	-0.547720
	12.630000	-0.550944
	12.635000	-0.457466
	12.640000	-0.460690
	12.645000	-0.550944
	12.650000	-0.541274
	12.655000	-0.463913
	12.660000	-0.457466
	12.665000	-0.557390
	12.670000	-0.547720
	12.675000	-0.460690
	12.680000	-0.463913
	12.685000	-0.557390
	12.690000	-0.547720
	12.695000	-0.460690
	12.700000	-0.463913
	12.705000	-0.560614
	12.710000	-0.554167
	12.715000	-0.454243
	12.720000	-0.467136
	12.725000	-0.557390
	12.730000	-0.550944
	12.735000	-0.467136
	12.740000	-0.467136
	12.745000	-0.557390
	12.750000	-0.554167
	12.755000	-0.460690
	12.760000	-0.463913
	12.765000	-0.557390
	12.770000	-0.544497
	12.775000	-0.460690
	12.780000	-0.463913
	12.785000	-0.563837
	12.790000	-0.554167
	12.795000	-0.470360
	12.800000	-0.473583
	12.805000	-0.567060
	12.810000	-0.560614
	12.815000	-0.473583
	12.820000	-0.476806
	12.825000	-0.570284
	12.830000	-0.570284
	12.835000	-0.476806
	12.840000	-0.483253
	12.845000	-0.567060
	12.850000	-0.570284
	12.855000	-0.476806
	12.860000	-0.489700
	12.865000	-0.583177
	12.870000	-0.567060
	12.875000	-0.486476
	12.880000	-0.496147
	12.885000	-0.586401
	12.890000	-0.573507
	12.895000	-0.486476
	12.900000	-0.492923
	12.905000	-0.586401
	12.910000	-0.583177
	12.915000	-0.483253
	12.920000	-0.499370
	12.925000	-0.589624
	12.930000	-0.579954
	12.935000	-0.492923
	12.940000	-0.499370
	12.945000	-0.586401
	12.950000	-0.579954
	12.955000	-0.496147
	12.960000	-0.502593
	12.965000	-0.589624
	12.970000	-0.579954
	12.975000	-0.496147
	12.980000	-0.505817
	12.985000	-0.596071
	12.990000	-0.589624
	12.995000	-0.492923
	13.000000	-0.496147
	13.005000	-0.596071
	13.010000	-0.589624
	13.015000	-0.499370
	13.020000	-0.499370
	13.025000	-0.592847
	13.030000	-0.586401
	13.035000	-0.496147
	13.040000	-0.509040
	13.045000	-0.596071
	13.050000	-0.586401
	13.055000	-0.499370
	13.060000	-0.515487
	13.065000	-0.608964
	13.070000	-0.589624
	13.075000	-0.496147
	13.080000	-0.505817
	13.085000	-0.605741
	13.090000	-0.586401
	13.095000	-0.499370
	13.100000	-0.509040
	13.105000	-0.599294
	13.110000	-0.592847
	13.115000	-0.502593
	13.120000	-0.505817
	13.125000	-0.599294
	13.130000	-0.599294
	13.135000	-0.509040
	13.140000	-0.518710
	13.145000	-0.599294
	13.150000	-0.596071
	13.155000	-0.502593
	13.160000	-0.505817
	13.165000	-0.602517
	13.170000	-0.589624
	13.175000	-0.509040
	13.180000	-0.515487
	13.185000	-0.608964
	13.190000	-0.599294
	13.195000	-0.509040
	13.200000	-0.521933
	13.205000	-0.615411
	13.210000	-0.599294
	13.215000	-0.515487
	13.220000	-0.518710
	13.225000	-0.612187
	13.230000	-0.602517
	13.235000	-0.509040
	13.240000	-0.528380
	13.245000	-0.618634
	13.250000	-0.605741
	13.255000	-0.528380
	13.260000	-0.541274
	13.265000	-0.621858
	13.270000	-0.612187
	13.275000	-0.521933
	13.280000	-0.528380
	13.285000	-0.628304
	13.290000	-0.615411
	13.295000	-0.525157
	13.300000	-0.531603
	13.305000	-0.628304
	13.310000	-0.612187
	13.315000	-0.528380
	13.320000	-0.534827
	13.325000	-0.634751
	13.330000	-0.615411
	13.335000	-0.521933
	13.340000	-0.541274
	13.345000	-0.621858
	13.350000	-0.615411
	13.355000	-0.528380
	13.360000	-0.547720
	13.365000	-0.631528
	13.370000	-0.615411
	13.375000	-0.531603
	13.380000	-0.538050
	13.385000	-0.631528
	13.390000	-0.618634
	13.395000	-0.528380
	13.400000	-0.538050
	13.405000	-0.634751
	13.410000	-0.608964
	13.415000	-0.528380
	13.420000	-0.538050
	13.425000	-0.625081
	13.430000	-0.612187
	13.435000	-0.525157
	13.440000	-0.544497
	13.445000	-0.625081
	13.450000	-0.612187
	13.455000	-0.525157
	13.460000	-0.538050
	13.465000	-0.628304
	13.470000	-0.612187
	13.475000	-0.521933
	13.480000	-0.541274
	13.485000	-0.631528
	13.490000	-0.615411
	13.495000	-0.521933
	13.500000	-0.534827
	13.505000	-0.631528
	13.510000	-0.615411
	13.515000	-0.521933
	13.520000	-0.547720
	13.525000	-0.631528
	13.530000	-0.608964
	13.535000	-0.518710
	13.540000	-0.538050
	13.545000	-0.625081
	13.550000	-0.605741
	13.555000	-0.518710
	13.560000	-0.538050
	13.565000	-0.625081
	13.570000	-0.612187
	13.575000	-0.512263
	13.580000	-0.531603
	13.585000	-0.625081
	13.590000	-0.602517
	13.595000	-0.512263
	13.600000	-0.521933
	13.605000	-0.618634
	13.610000	-0.592847
	13.615000	-0.505817
	13.620000	-0.521933
	13.625000	-0.612187
	13.630000	-0.583177
	13.635000	-0.502593
	13.640000	-0.512263
	13.645000	-0.608964
	13.650000	-0.589624
	13.655000	-0.496147
	13.660000	-0.512263
	13.665000	-0.602517
	13.670000	-0.583177
	13.675000	-0.496147
	13.680000	-0.512263
	13.685000	-0.608964
	13.690000	-0.592847
	13.695000	-0.492923
	13.700000	-0.515487
	13.705000	-0.599294
	13.710000	-0.583177
	13.715000	-0.489700
	13.720000	-0.512263
	13.725000	-0.602517
	13.730000	-0.583177
	13.735000	-0.492923
	13.740000	-0.515487
	13.745000	-0.599294
	13.750000	-0.579954
	13.755000	-0.492923
	13.760000	-0.509040
	13.765000	-0.599294
	13.770000	-0.576730
	13.775000	-0.496147
	13.780000	-0.512263
	13.785000	-0.602517
	13.790000	-0.576730
	13.795000	-0.489700
	13.800000	-0.502593
	13.805000	-0.599294
	13.810000	-0.570284
	13.815000	-0.489700
	13.820000	-0.505817
	13.825000	-0.589624
	13.830000	-0.560614
	13.835000	-0.476806
	13.840000	-0.486476
	13.845000	-0.573507
	13.850000	-0.554167
	13.855000	-0.454243
	13.860000	-0.473583
	13.865000	-0.560614
	13.870000	-0.534827
	13.875000	-0.438126
	13.880000	-0.460690
	13.885000	-0.544497
	13.890000	-0.518710
	13.895000	-0.434903
	13.900000	-0.447796
	13.905000	-0.538050
	13.910000	-0.515487
	13.915000	-0.422009
	13.920000	-0.457466
	13.925000	-0.541274
	13.930000	-0.518710
	13.935000	-0.434903
	13.940000	-0.460690
	13.945000	-0.547720
	13.950000	-0.531603
	13.955000	-0.444573
	13.960000	-0.467136
	13.965000	-0.563837
	13.970000	-0.544497
	13.975000	-0.457466
	13.980000	-0.480030
	13.985000	-0.570284
	13.990000	-0.544497
	13.995000	-0.460690
	14.000000	-0.483253
	14.005000	-0.573507
	14.010000	-0.550944
	14.015000	-0.457466
	14.020000	-0.483253
	14.025000	-0.557390
	14.030000	-0.534827
	14.035000	-0.438126
	14.040000	-0.454243
	14.045000	-0.538050
	14.050000	-0.509040
	14.055000	-0.412339
	14.060000	-0.428456
	14.065000	-0.512263
	14.070000	-0.476806
	14.075000	-0.373659
	14.080000	-0.396222
	14.085000	-0.470360
	14.090000	-0.428456
	14.095000	-0.334979
	14.100000	-0.338202
	14.105000	-0.415563
	14.110000	-0.370436
	14.115000	-0.280181
	14.120000	-0.273735
	14.125000	-0.351095
	14.130000	-0.309192
	14.135000	-0.222161
	14.140000	-0.238278
	14.145000	-0.305968
	14.150000	-0.273735
	14.155000	-0.173811
	14.160000	-0.193151
	14.165000	-0.267288
	14.170000	-0.225384
	14.175000	-0.135130
	14.180000	-0.148024
	14.185000	-0.225384
	14.190000	-0.196374
	14.195000	-0.093227
	14.200000	-0.125460
	14.205000	-0.193151
	14.210000	-0.164141
	14.215000	-0.077110
	14.220000	-0.090003
	14.225000	-0.180257
	14.230000	-0.141577
	14.235000	-0.057770
	14.240000	-0.070663
	14.245000	-0.157694
	14.250000	-0.128684
	14.255000	-0.044876
	14.260000	-0.070663
	14.265000	-0.144800
	14.270000	-0.115790
	14.275000	-0.025536
	14.280000	-0.041653
	14.285000	-0.131907
	14.290000	-0.102897
	14.295000	-0.015866
	14.300000	-0.038430
	14.305000	-0.122237
	14.310000	-0.093227
	14.315000	-0.019089
	14.320000	-0.044876
	14.325000	-0.125460
	14.330000	-0.096450
	14.335000	-0.006196
	14.340000	-0.041653
	14.345000	-0.115790
	14.350000	-0.096450
	14.355000	-0.019089
	14.360000	-0.044876
	14.365000	-0.128684
	14.370000	-0.096450
	14.375000	-0.025536
	14.380000	-0.048100
	14.385000	-0.138354
	14.390000	-0.122237
	14.395000	-0.044876
	14.400000	-0.080333
	14.405000	-0.177034
	14.410000	-0.160917
	14.415000	-0.096450
	14.420000	-0.128684
	14.425000	-0.241501
	14.430000	-0.225384
	14.435000	-0.170587
	14.440000	-0.241501
	14.445000	-0.351095
	14.450000	-0.354319
	14.455000	-0.309192
	14.460000	-0.360765
	14.465000	-0.476806
	14.470000	-0.476806
	14.475000	-0.409116
	14.480000	-0.451019
	14.485000	-0.547720
	14.490000	-0.521933
	14.495000	-0.434903
	14.500000	-0.473583
	14.505000	-0.560614
	14.510000	-0.538050
	14.515000	-0.454243
	14.520000	-0.480030
	14.525000	-0.563837
	14.530000	-0.544497
	14.535000	-0.457466
	14.540000	-0.486476
	14.545000	-0.576730
	14.550000	-0.544497
	14.555000	-0.470360
	14.560000	-0.496147
	14.565000	-0.586401
	14.570000	-0.557390
	14.575000	-0.480030
	14.580000	-0.502593
	14.585000	-0.589624
	14.590000	-0.563837
	14.595000	-0.480030
	14.600000	-0.515487
	14.605000	-0.596071
	14.610000	-0.567060
	14.615000	-0.492923
	14.620000	-0.521933
	14.625000	-0.612187
	14.630000	-0.573507
	14.635000	-0.496147
	14.640000	-0.515487
	14.645000	-0.612187
	14.650000	-0.583177
	14.655000	-0.496147
	14.660000	-0.531603
	14.665000	-0.608964
	14.670000	-0.573507
	14.675000	-0.492923
	14.680000	-0.534827
	14.685000	-0.612187
	14.690000	-0.589624
	14.695000	-0.502593
	14.700000	-0.531603
	14.705000	-0.612187
	14.710000	-0.576730
	14.715000	-0.502593
	14.720000	-0.528380
	14.725000	-0.612187
	14.730000	-0.583177
	14.735000	-0.499370
	14.740000	-0.528380
	14.745000	-0.612187
	14.750000	-0.592847
	14.755000	-0.499370
	14.760000	-0.531603
	14.765000	-0.612187
	14.770000	-0.579954
	14.775000	-0.489700
	14.780000	-0.528380
	14.785000	-0.612187
	14.790000	-0.576730
	14.795000	-0.489700
	14.800000	-0.521933
	14.805000	-0.602517
	14.810000	-0.579954
	14.815000	-0.492923
	14.820000	-0.518710
	14.825000	-0.608964
	14.830000	-0.579954
	14.835000	-0.489700
	14.840000	-0.521933
	14.845000	-0.608964
	14.850000	-0.563837
	14.855000	-0.483253
	14.860000	-0.525157
	14.865000	-0.605741
	14.870000	-0.573507
	14.875000	-0.489700
	14.880000	-0.515487
	14.885000	-0.599294
	14.890000	-0.576730
	14.895000	-0.486476
	14.900000	-0.521933
	14.905000	-0.605741
	14.910000	-0.570284
	14.915000	-0.486476
	14.920000	-0.518710
	14.925000	-0.602517
	14.930000	-0.567060
	14.935000	-0.492923
	14.940000	-0.518710
	14.945000	-0.599294
	14.950000	-0.570284
	14.955000	-0.486476
	14.960000	-0.518710
	14.965000	-0.605741
	14.970000	-0.573507
	14.975000	-0.483253
	14.980000	-0.518710
	14.985000	-0.599294
	14.990000	-0.563837
	14.995000	-0.483253
	15.000000	-0.515487
	15.005000	-0.599294
	15.010000	-0.560614
	15.015000	-0.473583
	15.020000	-0.515487
	15.025000	-0.592847
	15.030000	-0.560614
	15.035000	-0.476806
	15.040000	-0.509040
	15.045000	-0.596071
	15.050000	-0.563837
	15.055000	-0.486476
	15.060000	-0.515487
	15.065000	-0.605741
	15.070000	-0.563837
	15.075000	-0.486476
	15.080000	-0.521933
	15.085000	-0.602517
	15.090000	-0.554167
	15.095000	-0.460690
	15.100000	-0.467136
	15.105000	-0.505817
	15.110000	-0.428456
	15.115000	-0.305968
	15.120000	-0.309192
	15.125000	-0.347872
	15.130000	-0.280181
	15.135000	-0.170587
	15.140000	-0.173811
	15.145000	-0.241501
	15.150000	-0.177034
	15.155000	-0.077110
	15.160000	-0.096450
	15.165000	-0.164141
	15.170000	-0.115790
	15.175000	-0.019089
	15.180000	-0.041653
	15.185000	-0.119014
	15.190000	-0.064216
	15.195000	0.019591
	15.200000	-0.012643
	15.205000	-0.077110
	15.210000	-0.041653
	15.215000	0.045378
	15.220000	0.013144
	15.225000	-0.060993
	15.230000	-0.012643
	15.235000	0.058271
	15.240000	0.032484
	15.245000	-0.038430
	15.250000	-0.006196
	15.255000	0.074388
	15.260000	0.042154
	15.265000	-0.028759
	15.270000	0.009921
	15.275000	0.087281
	15.280000	0.055048
	15.285000	-0.012643
	15.290000	0.013144
	15.295000	0.093728
	15.300000	0.058271
	15.305000	-0.006196
	15.310000	0.035708
	15.315000	0.103398
	15.320000	0.077611
	15.325000	0.000251
	15.330000	0.042154
	15.335000	0.116292
	15.340000	0.080835
	15.345000	0.009921
	15.350000	0.048601
	15.355000	0.122738
	15.360000	0.084058
	15.365000	0.019591
	15.370000	0.051825
	15.375000	0.122738
	15.380000	0.093728
	15.385000	0.009921
	15.390000	0.058271
	15.395000	0.125962
	15.400000	0.090505
	15.405000	0.013144
	15.410000	0.055048
	15.415000	0.125962
	15.420000	0.093728
	15.425000	0.019591
	15.430000	0.058271
	15.435000	0.122738
	15.440000	0.087281
	15.445000	0.019591
	15.450000	0.051825
	15.455000	0.125962
	15.460000	0.087281
	15.465000	0.016368
	15.470000	0.058271
	15.475000	0.125962
	15.480000	0.093728
	15.485000	0.016368
	15.490000	0.055048
	15.495000	0.129185
	15.500000	0.096952
	15.505000	0.022814
	15.510000	0.064718
	15.515000	0.129185
	15.520000	0.090505
	15.525000	0.022814
	15.530000	0.058271
	15.535000	0.132408
	15.540000	0.106622
	15.545000	0.035708
	15.550000	0.071165
	15.555000	0.132408
	15.560000	0.103398
	15.565000	0.032484
	15.570000	0.067941
	15.575000	0.138855
	15.580000	0.103398
	15.585000	0.026038
	15.590000	0.064718
	15.595000	0.135632
	15.600000	0.100175
	15.605000	0.026038
	15.610000	0.064718
	15.615000	0.138855
	15.620000	0.093728
	15.625000	0.022814
	15.630000	0.061495
	15.635000	0.119515
	15.640000	0.084058
	15.645000	0.009921
	15.650000	0.048601
	15.655000	0.109845
	15.660000	0.067941
	15.665000	-0.002973
	15.670000	0.019591
	15.675000	0.074388
	15.680000	0.029261
	15.685000	-0.064216
	15.690000	-0.044876
	15.695000	-0.002973
	15.700000	-0.060993
	15.705000	-0.167364
	15.710000	-0.154470
	15.715000	-0.122237
	15.720000	-0.189927
	15.725000	-0.289852
	15.730000	-0.283405
	15.735000	-0.244725
	15.740000	-0.315638
	15.745000	-0.418786
	15.750000	-0.405892
	15.755000	-0.363989
	15.760000	-0.428456
	15.765000	-0.525157
	15.770000	-0.499370
	15.775000	-0.454243
	15.780000	-0.515487
	15.785000	-0.602517
	15.790000	-0.579954
	15.795000	-0.518710
	15.800000	-0.576730
	15.805000	-0.654091
	15.810000	-0.615411
	15.815000	-0.554167
	15.820000	-0.602517
	15.825000	-0.689548
	15.830000	-0.641198
	15.835000	-0.576730
	15.840000	-0.618634
	15.845000	-0.692771
	15.850000	-0.654091
	15.855000	-0.573507
	15.860000	-0.612187
	15.865000	-0.686325
	15.870000	-0.644421
	15.875000	-0.570284
	15.880000	-0.612187
	15.885000	-0.692771
	15.890000	-0.641198
	15.895000	-0.563837
	15.900000	-0.605741
	15.905000	-0.679878
	15.910000	-0.631528
	15.915000	-0.563837
	15.920000	-0.602517
	15.925000	-0.679878
	15.930000	-0.621858
	15.935000	-0.554167
	15.940000	-0.592847
	15.945000	-0.676655
	15.950000	-0.625081
	15.955000	-0.547720
	15.960000	-0.592847
	15.965000	-0.670208
	15.970000	-0.615411
	15.975000	-0.547720
	15.980000	-0.592847
	15.985000	-0.670208
	15.990000	-0.615411
	15.995000	-0.544497
	16.000000	-0.586401
	16.005000	-0.663761
	16.010000	-0.618634
	16.015000	-0.541274
	16.020000	-0.579954
	16.025000	-0.663761
	16.030000	-0.612187
	16.035000	-0.547720
	16.040000	-0.589624
	16.045000	-0.657314
	16.050000	-0.618634
	16.055000	-0.547720
	16.060000	-0.579954
	16.065000	-0.663761
	16.070000	-0.612187
	16.075000	-0.531603
	16.080000	-0.579954
	16.085000	-0.657314
	16.090000	-0.605741
	16.095000	-0.531603
	16.100000	-0.576730
	16.105000	-0.650868
	16.110000	-0.599294
	16.115000	-0.525157
	16.120000	-0.570284
	16.125000	-0.644421
	16.130000	-0.592847
	16.135000	-0.515487
	16.140000	-0.570284
	16.145000	-0.641198
	16.150000	-0.592847
	16.155000	-0.521933
	16.160000	-0.560614
	16.165000	-0.641198
	16.170000	-0.586401
	16.175000	-0.515487
	16.180000	-0.557390
	16.185000	-0.628304
	16.190000	-0.589624
	16.195000	-0.509040
	16.200000	-0.567060
	16.205000	-0.641198
	16.210000	-0.592847
	16.215000	-0.515487
	16.220000	-0.560614
	16.225000	-0.628304
	16.230000	-0.586401
	16.235000	-0.509040
	16.240000	-0.563837
	16.245000	-0.634751
	16.250000	-0.583177
	16.255000	-0.509040
	16.260000	-0.557390
	16.265000	-0.637974
	16.270000	-0.583177
	16.275000	-0.502593
	16.280000	-0.557390
	16.285000	-0.625081
	16.290000	-0.573507
	16.295000	-0.499370
	16.300000	-0.547720
	16.305000	-0.615411
	16.310000	-0.573507
	16.315000	-0.496147
	16.320000	-0.541274
	16.325000	-0.608964
	16.330000	-0.567060
	16.335000	-0.486476
	16.340000	-0.541274
	16.345000	-0.612187
	16.350000	-0.554167
	16.355000	-0.483253
	16.360000	-0.544497
	16.365000	-0.618634
	16.370000	-0.563837
	16.375000	-0.489700
	16.380000	-0.534827
	16.385000	-0.615411
	16.390000	-0.557390
	16.395000	-0.489700
	16.400000	-0.541274
	16.405000	-0.615411
	16.410000	-0.563837
	16.415000	-0.492923
	16.420000	-0.538050
	16.425000	-0.615411
	16.430000	-0.567060
	16.435000	-0.489700
	16.440000	-0.538050
	16.445000	-0.612187
	16.450000	-0.557390
	16.455000	-0.486476
	16.460000	-0.541274
	16.465000	-0.618634
	16.470000	-0.557390
	16.475000	-0.489700
	16.480000	-0.534827
	16.485000	-0.618634
	16.490000	-0.567060
	16.495000	-0.489700
	16.500000	-0.541274
	16.505000	-0.615411
	16.510000	-0.560614
	16.515000	-0.486476
	16.520000	-0.541274
	16.525000	-0.618634
	16.530000	-0.570284
	16.535000	-0.496147
	16.540000	-0.541274
	16.545000	-0.615411
	16.550000	-0.567060
	16.555000	-0.492923
	16.560000	-0.541274
	16.565000	-0.621858
	16.570000	-0.560614
	16.575000	-0.496147
	16.580000	-0.544497
	16.585000	-0.615411
	16.590000	-0.573507
	16.595000	-0.502593
	16.600000	-0.554167
	16.605000	-0.631528
	16.610000	-0.567060
	16.615000	-0.496147
	16.620000	-0.547720
	16.625000	-0.628304
	16.630000	-0.573507
	16.635000	-0.505817
	16.640000	-0.550944
	16.645000	-0.625081
	16.650000	-0.573507
	16.655000	-0.509040
	16.660000	-0.554167
	16.665000	-0.628304
	16.670000	-0.570284
	16.675000	-0.499370
	16.680000	-0.550944
	16.685000	-0.625081
	16.690000	-0.576730
	16.695000	-0.505817
	16.700000	-0.547720
	16.705000	-0.631528
	16.710000	-0.570284
	16.715000	-0.496147
	16.720000	-0.557390
	16.725000	-0.634751
	16.730000	-0.570284
	16.735000	-0.499370
	16.740000	-0.554167
	16.745000	-0.628304
	16.750000	-0.567060
	16.755000	-0.499370
	16.760000	-0.550944
	16.765000	-0.625081
	16.770000	-0.573507
	16.775000	-0.502593
	16.780000	-0.554167
	16.785000	-0.621858
	16.790000	-0.573507
	16.795000	-0.496147
	16.800000	-0.550944
	16.805000	-0.628304
	16.810000	-0.563837
	16.815000	-0.496147
	16.820000	-0.554167
	16.825000	-0.621858
	16.830000	-0.563837
	16.835000	-0.492923
	16.840000	-0.547720
	16.845000	-0.621858
	16.850000	-0.570284
	16.855000	-0.492923
	16.860000	-0.547720
	16.865000	-0.621858
	16.870000	-0.567060
	16.875000	-0.492923
	16.880000	-0.547720
	16.885000	-0.621858
	16.890000	-0.570284
	16.895000	-0.492923
	16.900000	-0.550944
	16.905000	-0.618634
	16.910000	-0.563837
	16.915000	-0.492923
	16.920000	-0.550944
	16.925000	-0.621858
	16.930000	-0.567060
	16.935000	-0.492923
	16.940000	-0.550944
	16.945000	-0.618634
	16.950000	-0.557390
	16.955000	-0.496147
	16.960000	-0.547720
	16.965000	-0.612187
	16.970000	-0.557390
	16.975000	-0.483253
	16.980000	-0.541274
	16.985000	-0.612187
	16.990000	-0.554167
	16.995000	-0.480030
	17.000000	-0.541274
	17.005000	-0.608964
	17.010000	-0.554167
	17.015000	-0.480030
	17.020000	-0.538050
	17.025000	-0.605741
	17.030000	-0.547720
	17.035000	-0.480030
	17.040000	-0.538050
	17.045000	-0.602517
	17.050000	-0.547720
	17.055000	-0.483253
	17.060000	-0.544497
	17.065000	-0.608964
	17.070000	-0.554167
	17.075000	-0.483253
	17.080000	-0.531603
	17.085000	-0.596071
	17.090000	-0.547720
	17.095000	-0.483253
	17.100000	-0.528380
	17.105000	-0.605741
	17.110000	-0.538050
	17.115000	-0.470360
	17.120000	-0.525157
	17.125000	-0.605741
	17.130000	-0.544497
	17.135000	-0.467136
	17.140000	-0.528380
	17.145000	-0.596071
	17.150000	-0.541274
	17.155000	-0.470360
	17.160000	-0.534827
	17.165000	-0.596071
	17.170000	-0.534827
	17.175000	-0.470360
	17.180000	-0.531603
	17.185000	-0.596071
	17.190000	-0.538050
	17.195000	-0.460690
	17.200000	-0.518710
	17.205000	-0.592847
	17.210000	-0.538050
	17.215000	-0.470360
	17.220000	-0.515487
	17.225000	-0.586401
	17.230000	-0.534827
	17.235000	-0.457466
	17.240000	-0.518710
	17.245000	-0.583177
	17.250000	-0.534827
	17.255000	-0.460690
	17.260000	-0.518710
	17.265000	-0.586401
	17.270000	-0.525157
	17.275000	-0.457466
	17.280000	-0.515487
	17.285000	-0.583177
	17.290000	-0.518710
	17.295000	-0.457466
	17.300000	-0.509040
	17.305000	-0.579954
	17.310000	-0.518710
	17.315000	-0.451019
	17.320000	-0.509040
	17.325000	-0.579954
	17.330000	-0.515487
	17.335000	-0.441349
	17.340000	-0.502593
	17.345000	-0.570284
	17.350000	-0.512263
	17.355000	-0.438126
	17.360000	-0.502593
	17.365000	-0.567060
	17.370000	-0.505817
	17.375000	-0.434903
	17.380000	-0.496147
	17.385000	-0.560614
	17.390000	-0.505817
	17.395000	-0.438126
	17.400000	-0.502593
	17.405000	-0.563837
	17.410000	-0.502593
	17.415000	-0.434903
	17.420000	-0.496147
	17.425000	-0.557390
	17.430000	-0.499370
	17.435000	-0.425233
	17.440000	-0.486476
	17.445000	-0.554167
	17.450000	-0.489700
	17.455000	-0.418786
	17.460000	-0.480030
	17.465000	-0.547720
	17.470000	-0.483253
	17.475000	-0.418786
	17.480000	-0.473583
	17.485000	-0.541274
	17.490000	-0.480030
	17.495000	-0.412339
	17.500000	-0.473583
	17.505000	-0.534827
	17.510000	-0.463913
	17.515000	-0.399446
	17.520000	-0.467136
	17.525000	-0.528380
	17.530000	-0.470360
	17.535000	-0.399446
	17.540000	-0.454243
	17.545000	-0.518710
	17.550000	-0.457466
	17.555000	-0.392999
	17.560000	-0.454243
	17.565000	-0.512263
	17.570000	-0.451019
	17.575000	-0.383329
	17.580000	-0.447796
	17.585000	-0.515487
	17.590000	-0.441349
	17.595000	-0.373659
	17.600000	-0.438126
	17.605000	-0.499370
	17.610000	-0.444573
	17.615000	-0.376882
	17.620000	-0.438126
	17.625000	-0.499370
	17.630000	-0.434903
	17.635000	-0.370436
	17.640000	-0.425233
	17.645000	-0.499370
	17.650000	-0.434903
	17.655000	-0.373659
	17.660000	-0.431679
	17.665000	-0.496147
	17.670000	-0.431679
	17.675000	-0.370436
	17.680000	-0.428456
	17.685000	-0.492923
	17.690000	-0.428456
	17.695000	-0.373659
	17.700000	-0.431679
	17.705000	-0.492923
	17.710000	-0.434903
	17.715000	-0.367212
	17.720000	-0.434903
	17.725000	-0.489700
	17.730000	-0.438126
	17.735000	-0.373659
	17.740000	-0.431679
	17.745000	-0.496147
	17.750000	-0.431679
	17.755000	-0.363989
	17.760000	-0.431679
	17.765000	-0.492923
	17.770000	-0.431679
	17.775000	-0.370436
	17.780000	-0.428456
	17.785000	-0.492923
	17.790000	-0.434903
	17.795000	-0.373659
	17.800000	-0.434903
	17.805000	-0.499370
	17.810000	-0.434903
	17.815000	-0.376882
	17.820000	-0.438126
	17.825000	-0.505817
	17.830000	-0.447796
	17.835000	-0.380106
	17.840000	-0.447796
	17.845000	-0.505817
	17.850000	-0.454243
	17.855000	-0.392999
	17.860000	-0.451019
	17.865000	-0.528380
	17.870000	-0.460690
	17.875000	-0.399446
	17.880000	-0.463913
	17.885000	-0.528380
	17.890000	-0.467136
	17.895000	-0.412339
	17.900000	-0.480030
	17.905000	-0.534827
	17.910000	-0.473583
	17.915000	-0.415563
	17.920000	-0.483253
	17.925000	-0.554167
	17.930000	-0.492923
	17.935000	-0.425233
	17.940000	-0.492923
	17.945000	-0.567060
	17.950000	-0.496147
	17.955000	-0.441349
	17.960000	-0.502593
	17.965000	-0.573507
	17.970000	-0.512263
	17.975000	-0.451019
	17.980000	-0.512263
	17.985000	-0.579954
	17.990000	-0.518710
	17.995000	-0.457466
	18.000000	-0.521933
	18.005000	-0.583177
	18.010000	-0.515487
	18.015000	-0.463913
	18.020000	-0.525157
	18.025000	-0.589624
	18.030000	-0.531603
	18.035000	-0.473583
	18.040000	-0.534827
	18.045000	-0.592847
	18.050000	-0.538050
	18.055000	-0.476806
	18.060000	-0.541274
	18.065000	-0.602517
	18.070000	-0.541274
	18.075000	-0.473583
	18.080000	-0.544497
	18.085000	-0.608964
	18.090000	-0.541274
	18.095000	-0.480030
	18.100000	-0.544497
	18.105000	-0.605741
	18.110000	-0.534827
	18.115000	-0.483253
	18.120000	-0.544497
	18.125000	-0.612187
	18.130000	-0.541274
	18.135000	-0.489700
	18.140000	-0.544497
	18.145000	-0.612187
	18.150000	-0.544497
	18.155000	-0.486476
	18.160000	-0.550944
	18.165000	-0.608964
	18.170000	-0.557390
	18.175000	-0.496147
	18.180000	-0.547720
	18.185000	-0.618634
	18.190000	-0.557390
	18.195000	-0.489700
	18.200000	-0.570284
	18.205000	-0.621858
	18.210000	-0.560614
	18.215000	-0.502593
	18.220000	-0.560614
	18.225000	-0.621858
	18.230000	-0.563837
	18.235000	-0.496147
	18.240000	-0.560614
	18.245000	-0.628304
	18.250000	-0.557390
	18.255000	-0.496147
	18.260000	-0.560614
	18.265000	-0.625081
	18.270000	-0.557390
	18.275000	-0.499370
	18.280000	-0.567060
	18.285000	-0.628304
	18.290000	-0.557390
	18.295000	-0.499370
	18.300000	-0.570284
	18.305000	-0.625081
	18.310000	-0.560614
	18.315000	-0.496147
	18.320000	-0.563837
	18.325000	-0.631528
	18.330000	-0.557390
	18.335000	-0.502593
	18.340000	-0.570284
	18.345000	-0.625081
	18.350000	-0.560614
	18.355000	-0.505817
	18.360000	-0.567060
	18.365000	-0.631528
	18.370000	-0.567060
	18.375000	-0.492923
	18.380000	-0.563837
	18.385000	-0.625081
	18.390000	-0.567060
	18.395000	-0.502593
	18.400000	-0.563837
	18.405000	-0.631528
	18.410000	-0.560614
	18.415000	-0.499370
	18.420000	-0.567060
	18.425000	-0.628304
	18.430000	-0.560614
	18.435000	-0.502593
	18.440000	-0.567060
	18.445000	-0.625081
	18.450000	-0.567060
	18.455000	-0.509040
	18.460000	-0.567060
	18.465000	-0.628304
	18.470000	-0.570284
	18.475000	-0.505817
	18.480000	-0.567060
	18.485000	-0.631528
	18.490000	-0.570284
	18.495000	-0.509040
	18.500000	-0.576730
	18.505000	-0.637974
	18.510000	-0.570284
	18.515000	-0.518710
	18.520000	-0.579954
	18.525000	-0.637974
	18.530000	-0.576730
	18.535000	-0.512263
	18.540000	-0.583177
	18.545000	-0.647644
	18.550000	-0.579954
	18.555000	-0.518710
	18.560000	-0.592847
	18.565000	-0.650868
	18.570000	-0.586401
	18.575000	-0.525157
	18.580000	-0.592847
	18.585000	-0.650868
	18.590000	-0.586401
	18.595000	-0.521933
	18.600000	-0.579954
	18.605000	-0.644421
	18.610000	-0.576730
	18.615000	-0.515487
	18.620000	-0.586401
	18.625000	-0.644421
	18.630000	-0.573507
	18.635000	-0.515487
	18.640000	-0.589624
	18.645000	-0.647644
	18.650000	-0.570284
	18.655000	-0.515487
	18.660000	-0.576730
	18.665000	-0.647644
	18.670000	-0.579954
	18.675000	-0.512263
	18.680000	-0.579954
	18.685000	-0.644421
	18.690000	-0.570284
	18.695000	-0.512263
	18.700000	-0.576730
	18.705000	-0.637974
	18.710000	-0.570284
	18.715000	-0.515487
	18.720000	-0.576730
	18.725000	-0.634751
	18.730000	-0.570284
	18.735000	-0.505817
	18.740000	-0.589624
	18.745000	-0.644421
	18.750000	-0.570284
	18.755000	-0.515487
	18.760000	-0.579954
	18.765000	-0.634751
	18.770000	-0.567060
	18.775000	-0.512263
	18.780000	-0.579954
	18.785000	-0.637974
	18.790000	-0.563837
	18.795000	-0.512263
	18.800000	-0.576730
	18.805000	-0.634751
	18.810000	-0.567060
	18.815000	-0.512263
	18.820000	-0.583177
	18.825000	-0.634751
	18.830000	-0.570284
	18.835000	-0.509040
	18.840000	-0.586401
	18.845000	-0.647644
	18.850000	-0.573507
	18.855000	-0.518710
	18.860000	-0.579954
	18.865000	-0.634751
	18.870000	-0.576730
	18.875000	-0.515487
	18.880000	-0.583177
	18.885000	-0.647644
	18.890000	-0.576730
	18.895000	-0.521933
	18.900000	-0.592847
	18.905000	-0.641198
	18.910000	-0.573507
	18.915000	-0.521933
	18.920000	-0.586401
	18.925000	-0.644421
	18.930000	-0.567060
	18.935000	-0.521933
	18.940000	-0.586401
	18.945000	-0.644421
	18.950000	-0.576730
	18.955000	-0.518710
	18.960000	-0.589624
	18.965000	-0.647644
	18.970000	-0.573507
	18.975000	-0.515487
	18.980000	-0.586401
	18.985000	-0.647644
	18.990000	-0.576730
	18.995000	-0.515487
	19.000000	-0.596071
	19.005000	-0.641198
	19.010000	-0.570284
	19.015000	-0.515487
	19.020000	-0.589624
	19.025000	-0.637974
	19.030000	-0.573507
	19.035000	-0.512263
	19.040000	-0.586401
	19.045000	-0.641198
	19.050000	-0.573507
	19.055000	-0.521933
	19.060000	-0.589624
	19.065000	-0.644421
	19.070000	-0.570284
	19.075000	-0.509040
	19.080000	-0.579954
	19.085000	-0.641198
	19.090000	-0.567060
	19.095000	-0.512263
	19.100000	-0.579954
	19.105000	-0.637974
	19.110000	-0.560614
	19.115000	-0.512263
	19.120000	-0.579954
	19.125000	-0.634751
	19.130000	-0.567060
	19.135000	-0.505817
	19.140000	-0.573507
	19.145000	-0.628304
	19.150000	-0.570284
	19.155000	-0.505817
	19.160000	-0.570284
	19.165000	-0.637974
	19.170000	-0.563837
	19.175000	-0.509040
	19.180000	-0.570284
	19.185000	-0.631528
	19.190000	-0.557390
	19.195000	-0.505817
	19.200000	-0.576730
	19.205000	-0.628304
	19.210000	-0.554167
	19.215000	-0.499370
	19.220000	-0.570284
	19.225000	-0.621858
	19.230000	-0.554167
	19.235000	-0.502593
	19.240000	-0.570284
	19.245000	-0.628304
	19.250000	-0.550944
	19.255000	-0.496147
	19.260000	-0.579954
	19.265000	-0.631528
	19.270000	-0.557390
	19.275000	-0.499370
	19.280000	-0.573507
	19.285000	-0.628304
	19.290000	-0.560614
	19.295000	-0.505817
	19.300000	-0.573507
	19.305000	-0.637974
	19.310000	-0.563837
	19.315000	-0.502593
	19.320000	-0.579954
	19.325000	-0.631528
	19.330000	-0.560614
	19.335000	-0.509040
	19.340000	-0.573507
	19.345000	-0.634751
	19.350000	-0.557390
	19.355000	-0.509040
	19.360000	-0.576730
	19.365000	-0.637974
	19.370000	-0.557390
	19.375000	-0.505817
	19.380000	-0.576730
	19.385000	-0.631528
	19.390000	-0.560614
	19.395000	-0.512263
	19.400000	-0.573507
	19.405000	-0.637974
	19.410000	-0.560614
	19.415000	-0.509040
	19.420000	-0.583177
	19.425000	-0.634751
	19.430000	-0.554167
	19.435000	-0.509040
	19.440000	-0.589624
	19.445000	-0.637974
	19.450000	-0.563837
	19.455000	-0.509040
	19.460000	-0.579954
	19.465000	-0.637974
	19.470000	-0.560614
	19.475000	-0.509040
	19.480000	-0.586401
	19.485000	-0.634751
	19.490000	-0.563837
	19.495000	-0.512263
	19.500000	-0.586401
	19.505000	-0.641198
	19.510000	-0.563837
	19.515000	-0.518710
	19.520000	-0.592847
	19.525000	-0.634751
	19.530000	-0.557390
	19.535000	-0.509040
	19.540000	-0.583177
	19.545000	-0.641198
	19.550000	-0.567060
	19.555000	-0.502593
	19.560000	-0.583177
	19.565000	-0.634751
	19.570000	-0.560614
	19.575000	-0.502593
	19.580000	-0.579954
	19.585000	-0.637974
	19.590000	-0.554167
	19.595000	-0.505817
	19.600000	-0.576730
	19.605000	-0.628304
	19.610000	-0.560614
	19.615000	-0.505817
	19.620000	-0.576730
	19.625000	-0.637974
	19.630000	-0.550944
	19.635000	-0.505817
	19.640000	-0.579954
	19.645000	-0.637974
	19.650000	-0.563837
	19.655000	-0.499370
	19.660000	-0.579954
	19.665000	-0.631528
	19.670000	-0.557390
	19.675000	-0.496147
	19.680000	-0.573507
	19.685000	-0.637974
	19.690000	-0.550944
	19.695000	-0.496147
	19.700000	-0.573507
	19.705000	-0.631528
	19.710000	-0.554167
	19.715000	-0.509040
	19.720000	-0.570284
	19.725000	-0.628304
	19.730000	-0.550944
	19.735000	-0.505817
	19.740000	-0.567060
	19.745000	-0.621858
	19.750000	-0.541274
	19.755000	-0.496147
	19.760000	-0.573507
	19.765000	-0.621858
	19.770000	-0.544497
	19.775000	-0.499370
	19.780000	-0.573507
	19.785000	-0.621858
	19.790000	-0.547720
	19.795000	-0.496147
	19.800000	-0.573507
	19.805000	-0.625081
	19.810000	-0.550944
	19.815000	-0.502593
	19.820000	-0.576730
	19.825000	-0.625081
	19.830000	-0.554167
	19.835000	-0.499370
	19.840000	-0.576730
	19.845000	-0.631528
	19.850000	-0.550944
	19.855000	-0.512263
	19.860000	-0.579954
	19.865000	-0.625081
	19.870000	-0.550944
	19.875000	-0.496147
	19.880000	-0.560614
	19.885000	-0.592847
	19.890000	-0.499370
	19.895000	-0.409116
	19.900000	-0.447796
	19.905000	-0.454243
	19.910000	-0.328532
	19.915000	-0.241501
	19.920000	-0.276958
	19.925000	-0.293075
	19.930000	-0.186704
	19.935000	-0.119014
	19.940000	-0.167364
	19.945000	-0.196374
	19.950000	-0.109343
	19.955000	-0.044876
	19.960000	-0.102897
	19.965000	-0.135130
	19.970000	-0.057770
	19.975000	0.009921
	19.980000	-0.060993
	19.985000	-0.090003
	19.990000	-0.019089
	19.995000	0.035708
	20.000000	-0.031983
	20.005000	-0.070663
	20.010000	0.006697
	20.015000	0.051825
	20.020000	-0.006196
	20.025000	-0.057770
	20.030000	0.016368
	20.035000	0.071165
	20.040000	-0.002973
	20.045000	-0.041653
	20.050000	0.038931
	20.055000	0.077611
	20.060000	0.022814
	20.065000	-0.025536
	20.070000	0.042154
	20.075000	0.084058
	20.080000	0.016368
	20.085000	-0.022313
	20.090000	0.055048
	20.095000	0.093728
	20.100000	0.026038
	20.105000	-0.009419
	20.110000	0.055048
	20.115000	0.100175
	20.120000	0.042154
	20.125000	-0.006196
	20.130000	0.061495
	20.135000	0.106622
	20.140000	0.035708
	20.145000	-0.006196
	20.150000	0.055048
	20.155000	0.103398
	20.160000	0.032484
	20.165000	-0.006196
	20.170000	0.061495
	20.175000	0.103398
	20.180000	0.029261
	20.185000	-0.019089
	20.190000	0.061495
	20.195000	0.100175
	20.200000	0.026038
	20.205000	-0.015866
	20.210000	0.061495
	20.215000	0.090505
	20.220000	0.022814
	20.225000	-0.019089
	20.230000	0.051825
	20.235000	0.090505
	20.240000	0.029261
	20.245000	-0.025536
	20.250000	0.045378
	20.255000	0.080835
	20.260000	0.016368
	20.265000	-0.025536
	20.270000	0.045378
	20.275000	0.080835
	20.280000	0.016368
	20.285000	-0.022313
	20.290000	0.045378
	20.295000	0.080835
	20.300000	0.013144
	20.305000	-0.031983
	20.310000	0.042154
	20.315000	0.080835
	20.320000	0.009921
	20.325000	-0.022313
	20.330000	0.042154
	20.335000	0.084058
	20.340000	0.016368
	20.345000	-0.028759
	20.350000	0.045378
	20.355000	0.084058
	20.360000	0.013144
	20.365000	-0.035206
	20.370000	0.045378
	20.375000	0.077611
	20.380000	0.013144
	20.385000	-0.041653
	20.390000	0.042154
	20.395000	0.077611
	20.400000	0.003474
	20.405000	-0.048100
	20.410000	0.022814
	20.415000	0.058271
	20.420000	-0.022313
	20.425000	-0.060993
	20.430000	0.003474
	20.435000	0.032484
	20.440000	-0.048100
	20.445000	-0.102897
	20.450000	-0.048100
	20.455000	-0.022313
	20.460000	-0.119014
	20.465000	-0.186704
	20.470000	-0.141577
	20.475000	-0.128684
	20.480000	-0.222161
	20.485000	-0.293075
	20.490000	-0.254395
	20.495000	-0.241501
	20.500000	-0.351095
	20.505000	-0.428456
	20.510000	-0.383329
	20.515000	-0.370436
	20.520000	-0.463913
	20.525000	-0.531603
	20.530000	-0.486476
	20.535000	-0.447796
	20.540000	-0.547720
	20.545000	-0.605741
	20.550000	-0.544497
	20.555000	-0.518710
	20.560000	-0.602517
	20.565000	-0.654091
	20.570000	-0.589624
	20.575000	-0.560614
	20.580000	-0.637974
	20.585000	-0.686325
	20.590000	-0.621858
	20.595000	-0.576730
	20.600000	-0.657314
	20.605000	-0.695995
	20.610000	-0.631528
	20.615000	-0.589624
	20.620000	-0.660538
	20.625000	-0.705665
	20.630000	-0.628304
	20.635000	-0.592847
	20.640000	-0.666985
	20.645000	-0.712112
	20.650000	-0.641198
	20.655000	-0.596071
	20.660000	-0.673431
	20.665000	-0.721782
	20.670000	-0.647644
	20.675000	-0.599294
	20.680000	-0.679878
	20.685000	-0.708888
	20.690000	-0.637974
	20.695000	-0.596071
	20.700000	-0.670208
	20.705000	-0.702441
	20.710000	-0.634751
	20.715000	-0.583177
	20.720000	-0.666985
	20.725000	-0.705665
	20.730000	-0.631528
	20.735000	-0.579954
	20.740000	-0.657314
	20.745000	-0.695995
	20.750000	-0.628304
	20.755000	-0.576730
	20.760000	-0.657314
	20.765000	-0.692771
	20.770000	-0.615411
	20.775000	-0.579954
	20.780000	-0.644421
	20.785000	-0.689548
	20.790000	-0.615411
	20.795000	-0.567060
	20.800000	-0.647644
	20.805000	-0.683101
	20.810000	-0.605741
	20.815000	-0.560614
	20.820000	-0.634751
	20.825000	-0.679878
	20.830000	-0.605741
	20.835000	-0.557390
	20.840000	-0.634751
	20.845000	-0.670208
	20.850000	-0.592847
	20.855000	-0.547720
	20.860000	-0.634751
	20.865000	-0.670208
	20.870000	-0.596071
	20.875000	-0.547720
	20.880000	-0.631528
	20.885000	-0.663761
	20.890000	-0.579954
	20.895000	-0.544497
	20.900000	-0.621858
	20.905000	-0.663761
	20.910000	-0.579954
	20.915000	-0.531603
	20.920000	-0.615411
	20.925000	-0.650868
	20.930000	-0.579954
	20.935000	-0.521933
	20.940000	-0.615411
	20.945000	-0.650868
	20.950000	-0.570284
	20.955000	-0.521933
	20.960000	-0.612187
	20.965000	-0.644421
	20.970000	-0.567060
	20.975000	-0.521933
	20.980000	-0.602517
	20.985000	-0.641198
	20.990000	-0.563837
	20.995000	-0.515487
	21.000000	-0.599294
	21.005000	-0.644421
	21.010000	-0.563837
	21.015000	-0.518710
	21.020000	-0.602517
	21.025000	-0.641198
	21.030000	-0.557390
	21.035000	-0.515487
	21.040000	-0.596071
	21.045000	-0.637974
	21.050000	-0.554167
	21.055000	-0.518710
	21.060000	-0.605741
	21.065000	-0.634751
	21.070000	-0.560614
	21.075000	-0.512263
	21.080000	-0.596071
	21.085000	-0.637974
	21.090000	-0.560614
	21.095000	-0.512263
	21.100000	-0.589624
	21.105000	-0.634751
	21.110000	-0.557390
	21.115000	-0.518710
	21.120000	-0.596071
	21.125000	-0.637974
	21.130000	-0.547720
	21.135000	-0.512263
	21.140000	-0.596071
	21.145000	-0.641198
	21.150000	-0.557390
	21.155000	-0.512263
	21.160000	-0.592847
	21.165000	-0.641198
	21.170000	-0.550944
	21.175000	-0.518710
	21.180000	-0.599294
	21.185000	-0.641198
	21.190000	-0.554167
	21.195000	-0.518710
	21.200000	-0.602517
	21.205000	-0.634751
	21.210000	-0.557390
	21.215000	-0.521933
	21.220000	-0.596071
	21.225000	-0.637974
	21.230000	-0.560614
	21.235000	-0.521933
	21.240000	-0.596071
	21.245000	-0.637974
	21.250000	-0.557390
	21.255000	-0.515487
	21.260000	-0.605741
	21.265000	-0.641198
	21.270000	-0.550944
	21.275000	-0.521933
	21.280000	-0.602517
	21.285000	-0.641198
	21.290000	-0.563837
	21.295000	-0.518710
	21.300000	-0.602517
	21.305000	-0.637974
	21.310000	-0.560614
	21.315000	-0.528380
	21.320000	-0.592847
	21.325000	-0.634751
	21.330000	-0.560614
	21.335000	-0.521933
	21.340000	-0.599294
	21.345000	-0.644421
	21.350000	-0.557390
	21.355000	-0.518710
	21.360000	-0.599294
	21.365000	-0.634751
	21.370000	-0.550944
	21.375000	-0.512263
	21.380000	-0.602517
	21.385000	-0.634751
	21.390000	-0.554167
	21.395000	-0.521933
	21.400000	-0.599294
	21.405000	-0.637974
	21.410000	-0.550944
	21.415000	-0.521933
	21.420000	-0.602517
	21.425000	-0.637974
	21.430000	-0.563837
	21.435000	-0.521933
	21.440000	-0.596071
	21.445000	-0.647644
	21.450000	-0.557390
	21.455000	-0.521933
	21.460000	-0.602517
	21.465000	-0.644421
	21.470000	-0.560614
	21.475000	-0.518710
	21.480000	-0.608964
	21.485000	-0.641198
	21.490000	-0.567060
	21.495000	-0.518710
	21.500000	-0.605741
	21.505000	-0.637974
	21.510000	-0.560614
	21.515000	-0.518710
	21.520000	-0.599294
	21.525000	-0.637974
	21.530000	-0.554167
	21.535000	-0.509040
	21.540000	-0.599294
	21.545000	-0.637974
	21.550000	-0.554167
	21.555000	-0.518710
	21.560000	-0.596071
	21.565000	-0.634751
	21.570000	-0.557390
	21.575000	-0.518710
	21.580000	-0.599294
	21.585000	-0.641198
	21.590000	-0.557390
	21.595000	-0.521933
	21.600000	-0.602517
	21.605000	-0.641198
	21.610000	-0.554167
	21.615000	-0.521933
	21.620000	-0.602517
	21.625000	-0.641198
	21.630000	-0.557390
	21.635000	-0.518710
	21.640000	-0.605741
	21.645000	-0.637974
	21.650000	-0.560614
	21.655000	-0.521933
	21.660000	-0.602517
	21.665000	-0.644421
	21.670000	-0.567060
	21.675000	-0.521933
	21.680000	-0.599294
	21.685000	-0.641198
	21.690000	-0.560614
	21.695000	-0.525157
	21.700000	-0.605741
	21.705000	-0.644421
	21.710000	-0.557390
	21.715000	-0.528380
	21.720000	-0.608964
	21.725000	-0.647644
	21.730000	-0.554167
	21.735000	-0.525157
	21.740000	-0.605741
	21.745000	-0.650868
	21.750000	-0.557390
	21.755000	-0.521933
	21.760000	-0.599294
	21.765000	-0.647644
	21.770000	-0.560614
	21.775000	-0.528380
	21.780000	-0.605741
	21.785000	-0.641198
	21.790000	-0.560614
	21.795000	-0.518710
	21.800000	-0.608964
	21.805000	-0.644421
	21.810000	-0.554167
	21.815000	-0.518710
	21.820000	-0.605741
	21.825000	-0.637974
	21.830000	-0.560614
	21.835000	-0.521933
	21.840000	-0.612187
	21.845000	-0.637974
	21.850000	-0.560614
	21.855000	-0.521933
	21.860000	-0.602517
	21.865000	-0.637974
	21.870000	-0.557390
	21.875000	-0.518710
	21.880000	-0.605741
	21.885000	-0.644421
	21.890000	-0.554167
	21.895000	-0.525157
	21.900000	-0.605741
	21.905000	-0.634751
	21.910000	-0.550944
	21.915000	-0.515487
	21.920000	-0.602517
	21.925000	-0.637974
	21.930000	-0.554167
	21.935000	-0.512263
	21.940000	-0.602517
	21.945000	-0.637974
	21.950000	-0.550944
	21.955000	-0.509040
	21.960000	-0.596071
	21.965000	-0.637974
	21.970000	-0.554167
	21.975000	-0.515487
	21.980000	-0.592847
	21.985000	-0.631528
	21.990000	-0.557390
	21.995000	-0.515487
	22.000000	-0.599294
	22.005000	-0.628304
	22.010000	-0.544497
	22.015000	-0.509040
	22.020000	-0.592847
	22.025000	-0.628304
	22.030000	-0.541274
	22.035000	-0.502593
	22.040000	-0.579954
	22.045000	-0.621858
	22.050000	-0.538050
	22.055000	-0.496147
	22.060000	-0.583177
	22.065000	-0.621858
	22.070000	-0.541274
	22.075000	-0.499370
	22.080000	-0.586401
	22.085000	-0.621858
	22.090000	-0.541274
	22.095000	-0.499370
	22.100000	-0.589624
	22.105000	-0.621858
	22.110000	-0.541274
	22.115000	-0.499370
	22.120000	-0.589624
	22.125000	-0.618634
	22.130000	-0.531603
	22.135000	-0.496147
	22.140000	-0.586401
	22.145000	-0.615411
	22.150000	-0.541274
	22.155000	-0.492923
	22.160000	-0.576730
	22.165000	-0.615411
	22.170000	-0.534827
	22.175000	-0.492923
	22.180000	-0.570284
	22.185000	-0.618634
	22.190000	-0.525157
	22.195000	-0.492923
	22.200000	-0.573507
	22.205000	-0.615411
	22.210000	-0.515487
	22.215000	-0.486476
	22.220000	-0.563837
	22.225000	-0.605741
	22.230000	-0.515487
	22.235000	-0.486476
	22.240000	-0.573507
	22.245000	-0.605741
	22.250000	-0.525157
	22.255000	-0.476806
	22.260000	-0.573507
	22.265000	-0.608964
	22.270000	-0.518710
	22.275000	-0.486476
	22.280000	-0.563837
	22.285000	-0.605741
	22.290000	-0.518710
	22.295000	-0.486476
	22.300000	-0.560614
	22.305000	-0.605741
	22.310000	-0.518710
	22.315000	-0.483253
	22.320000	-0.567060
	22.325000	-0.596071
	22.330000	-0.515487
	22.335000	-0.476806
	22.340000	-0.567060
	22.345000	-0.596071
	22.350000	-0.515487
	22.355000	-0.480030
	22.360000	-0.567060
	22.365000	-0.589624
	22.370000	-0.512263
	22.375000	-0.476806
	22.380000	-0.563837
	22.385000	-0.596071
	22.390000	-0.509040
	22.395000	-0.473583
	22.400000	-0.560614
	22.405000	-0.589624
	22.410000	-0.512263
	22.415000	-0.470360
	22.420000	-0.560614
	22.425000	-0.592847
	22.430000	-0.509040
	22.435000	-0.476806
	22.440000	-0.554167
	22.445000	-0.586401
	22.450000	-0.515487
	22.455000	-0.480030
	22.460000	-0.560614
	22.465000	-0.596071
	22.470000	-0.502593
	22.475000	-0.476806
	22.480000	-0.563837
	22.485000	-0.596071
	22.490000	-0.512263
	22.495000	-0.480030
	22.500000	-0.560614
	22.505000	-0.596071
	22.510000	-0.505817
	22.515000	-0.483253
	22.520000	-0.557390
	22.525000	-0.589624
	22.530000	-0.521933
	22.535000	-0.476806
	22.540000	-0.557390
	22.545000	-0.599294
	22.550000	-0.512263
	22.555000	-0.476806
	22.560000	-0.560614
	22.565000	-0.599294
	22.570000	-0.505817
	22.575000	-0.476806
	22.580000	-0.560614
	22.585000	-0.592847
	22.590000	-0.512263
	22.595000	-0.473583
	22.600000	-0.550944
	22.605000	-0.599294
	22.610000	-0.515487
	22.615000	-0.473583
	22.620000	-0.557390
	22.625000	-0.596071
	22.630000	-0.515487
	22.635000	-0.470360
	22.640000	-0.570284
	22.645000	-0.599294
	22.650000	-0.512263
	22.655000	-0.483253
	22.660000	-0.563837
	22.665000	-0.599294
	22.670000	-0.518710
	22.675000	-0.480030
	22.680000	-0.563837
	22.685000	-0.599294
	22.690000	-0.515487
	22.695000	-0.496147
	22.700000	-0.567060
	22.705000	-0.602517
	22.710000	-0.515487
	22.715000	-0.489700
	22.720000	-0.573507
	22.725000	-0.602517
	22.730000	-0.521933
	22.735000	-0.486476
	22.740000	-0.570284
	22.745000	-0.602517
	22.750000	-0.518710
	22.755000	-0.486476
	22.760000	-0.570284
	22.765000	-0.612187
	22.770000	-0.521933
	22.775000	-0.489700
	22.780000	-0.570284
	22.785000	-0.605741
	22.790000	-0.531603
	22.795000	-0.496147
	22.800000	-0.573507
	22.805000	-0.605741
	22.810000	-0.518710
	22.815000	-0.496147
	22.820000	-0.576730
	22.825000	-0.608964
	22.830000	-0.518710
	22.835000	-0.486476
	22.840000	-0.573507
	22.845000	-0.605741
	22.850000	-0.521933
	22.855000	-0.489700
	22.860000	-0.579954
	22.865000	-0.605741
	22.870000	-0.528380
	22.875000	-0.496147
	22.880000	-0.576730
	22.885000	-0.615411
	22.890000	-0.531603
	22.895000	-0.496147
	22.900000	-0.583177
	22.905000	-0.612187
	22.910000	-0.534827
	22.915000	-0.496147
	22.920000	-0.573507
	22.925000	-0.621858
	22.930000	-0.541274
	22.935000	-0.502593
	22.940000	-0.579954
	22.945000	-0.618634
	22.950000	-0.538050
	22.955000	-0.502593
	22.960000	-0.589624
	22.965000	-0.625081
	22.970000	-0.541274
	22.975000	-0.509040
	22.980000	-0.599294
	22.985000	-0.621858
	22.990000	-0.547720
	22.995000	-0.509040
	23.000000	-0.586401
	23.005000	-0.628304
	23.010000	-0.544497
	23.015000	-0.509040
	23.020000	-0.596071
	23.025000	-0.628304
	23.030000	-0.544497
	23.035000	-0.509040
	23.040000	-0.592847
	23.045000	-0.628304
	23.050000	-0.547720
	23.055000	-0.515487
	23.060000	-0.599294
	23.065000	-0.628304
	23.070000	-0.547720
	23.075000	-0.521933
	23.080000	-0.612187
	23.085000	-0.637974
	23.090000	-0.557390
	23.095000	-0.521933
	23.100000	-0.599294
	23.105000	-0.641198
	23.110000	-0.563837
	23.115000	-0.531603
	23.120000	-0.612187
	23.125000	-0.644421
	23.130000	-0.567060
	23.135000	-0.528380
	23.140000	-0.615411
	23.145000	-0.654091
	23.150000	-0.576730
	23.155000	-0.531603
	23.160000	-0.615411
	23.165000	-0.657314
	23.170000	-0.573507
	23.175000	-0.538050
	23.180000	-0.625081
	23.185000	-0.657314
	23.190000	-0.576730
	23.195000	-0.541274
	23.200000	-0.625081
	23.205000	-0.663761
	23.210000	-0.576730
	23.215000	-0.547720
	23.220000	-0.628304
	23.225000	-0.666985
	23.230000	-0.576730
	23.235000	-0.547720
	23.240000	-0.631528
	23.245000	-0.666985
	23.250000	-0.579954
	23.255000	-0.550944
	23.260000	-0.631528
	23.265000	-0.670208
	23.270000	-0.586401
	23.275000	-0.563837
	23.280000	-0.641198
	23.285000	-0.670208
	23.290000	-0.599294
	23.295000	-0.560614
	23.300000	-0.644421
	23.305000	-0.676655
	23.310000	-0.602517
	23.315000	-0.567060
	23.320000	-0.647644
	23.325000	-0.689548
	23.330000	-0.605741
	23.335000	-0.573507
	23.340000	-0.660538
	23.345000	-0.695995
	23.350000	-0.612187
	23.355000	-0.573507
	23.360000	-0.666985
	23.365000	-0.689548
	23.370000	-0.618634
	23.375000	-0.586401
	23.380000	-0.666985
	23.385000	-0.708888
	23.390000	-0.615411
	23.395000	-0.592847
	23.400000	-0.673431
	23.405000	-0.712112
	23.410000	-0.631528
	23.415000	-0.592847
	23.420000	-0.679878
	23.425000	-0.718558
	23.430000	-0.631528
	23.435000	-0.596071
	23.440000	-0.686325
	23.445000	-0.718558
	23.450000	-0.637974
	23.455000	-0.605741
	23.460000	-0.686325
	23.465000	-0.725005
	23.470000	-0.637974
	23.475000	-0.605741
	23.480000	-0.686325
	23.485000	-0.715335
	23.490000	-0.637974
	23.495000	-0.608964
	23.500000	-0.692771
	23.505000	-0.718558
	23.510000	-0.637974
	23.515000	-0.605741
	23.520000	-0.692771
	23.525000	-0.728228
	23.530000	-0.644421
	23.535000	-0.612187
	23.540000	-0.692771
	23.545000	-0.737898
	23.550000	-0.641198
	23.555000	-0.608964
	23.560000	-0.708888
	23.565000	-0.725005
	23.570000	-0.641198
	23.575000	-0.608964
	23.580000	-0.705665
	23.585000	-0.734675
	23.590000	-0.641198
	23.595000	-0.618634
	23.600000	-0.699218
	23.605000	-0.731452
	23.610000	-0.650868
	23.615000	-0.618634
	23.620000	-0.699218
	23.625000	-0.731452
	23.630000	-0.644421
	23.635000	-0.625081
	23.640000	-0.702441
	23.645000	-0.734675
	23.650000	-0.650868
	23.655000	-0.625081
	23.660000	-0.699218
	23.665000	-0.734675
	23.670000	-0.650868
	23.675000	-0.618634
	23.680000	-0.702441
	23.685000	-0.734675
	23.690000	-0.650868
	23.695000	-0.618634
	23.700000	-0.692771
	23.705000	-0.728228
	23.710000	-0.647644
	23.715000	-0.615411
	23.720000	-0.695995
	23.725000	-0.737898
	23.730000	-0.650868
	23.735000	-0.615411
	23.740000	-0.702441
	23.745000	-0.734675
	23.750000	-0.650868
	23.755000	-0.621858
	23.760000	-0.699218
	23.765000	-0.737898
	23.770000	-0.647644
	23.775000	-0.618634
	23.780000	-0.708888
	23.785000	-0.731452
	23.790000	-0.654091
	23.795000	-0.618634
	23.800000	-0.705665
	23.805000	-0.731452
	23.810000	-0.650868
	23.815000	-0.621858
	23.820000	-0.702441
	23.825000	-0.737898
	23.830000	-0.654091
	23.835000	-0.625081
	23.840000	-0.708888
	23.845000	-0.744345
	23.850000	-0.657314
	23.855000	-0.621858
	23.860000	-0.708888
	23.865000	-0.744345
	23.870000	-0.650868
	23.875000	-0.612187
	23.880000	-0.702441
	23.885000	-0.737898
	23.890000	-0.650868
	23.895000	-0.621858
	23.900000	-0.705665
	23.905000	-0.744345
	23.910000	-0.654091
	23.915000	-0.621858
	23.920000	-0.705665
	23.925000	-0.741122
	23.930000	-0.663761
	23.935000	-0.621858
	23.940000	-0.708888
	23.945000	-0.737898
	23.950000	-0.654091
	23.955000	-0.621858
	23.960000	-0.715335
	23.965000	-0.734675
	23.970000	-0.657314
	23.975000	-0.625081
	23.980000	-0.708888
	23.985000	-0.744345
	23.990000	-0.654091
	23.995000	-0.621858
	24.000000	-0.708888
	24.005000	-0.737898
	24.010000	-0.647644
	24.015000	-0.621858
	24.020000	-0.708888
	24.025000	-0.741122
	24.030000	-0.654091
	24.035000	-0.628304
	24.040000	-0.708888
	24.045000	-0.734675
	24.050000	-0.657314
	24.055000	-0.631528
	24.060000	-0.708888
	24.065000	-0.737898
	24.070000	-0.650868
	24.075000	-0.618634
	24.080000	-0.708888
	24.085000	-0.744345
	24.090000	-0.654091
	24.095000	-0.618634
	24.100000	-0.702441
	24.105000	-0.741122
	24.110000	-0.657314
	24.115000	-0.618634
	24.120000	-0.699218
	24.125000	-0.741122
	24.130000	-0.650868
	24.135000	-0.618634
	24.140000	-0.699218
	24.145000	-0.737898
	24.150000	-0.650868
	24.155000	-0.618634
	24.160000	-0.699218
	24.165000	-0.731452
	24.170000	-0.650868
	24.175000	-0.608964
	24.180000	-0.699218
	24.185000	-0.731452
	24.190000	-0.647644
	24.195000	-0.612187
	24.200000	-0.695995
	24.205000	-0.731452
	24.210000	-0.637974
	24.215000	-0.605741
	24.220000	-0.699218
	24.225000	-0.725005
	24.230000	-0.644421
	24.235000	-0.608964
	24.240000	-0.686325
	24.245000	-0.718558
	24.250000	-0.631528
	24.255000	-0.599294
	24.260000	-0.673431
	24.265000	-0.715335
	24.270000	-0.634751
	24.275000	-0.596071
	24.280000	-0.679878
	24.285000	-0.705665
	24.290000	-0.628304
	24.295000	-0.592847
	24.300000	-0.670208
	24.305000	-0.705665
	24.310000	-0.625081
	24.315000	-0.586401
	24.320000	-0.676655
	24.325000	-0.705665
	24.330000	-0.625081
	24.335000	-0.586401
	24.340000	-0.670208
	24.345000	-0.699218
	24.350000	-0.628304
	24.355000	-0.586401
	24.360000	-0.670208
	24.365000	-0.712112
	24.370000	-0.618634
	24.375000	-0.583177
	24.380000	-0.666985
	24.385000	-0.702441
	24.390000	-0.625081
	24.395000	-0.592847
	24.400000	-0.676655
	24.405000	-0.708888
	24.410000	-0.625081
	24.415000	-0.596071
	24.420000	-0.673431
	24.425000	-0.708888
	24.430000	-0.634751
	24.435000	-0.599294
	24.440000	-0.676655
	24.445000	-0.708888
	24.450000	-0.637974
	24.455000	-0.592847
	24.460000	-0.683101
	24.465000	-0.718558
	24.470000	-0.634751
	24.475000	-0.602517
	24.480000	-0.683101
	24.485000	-0.718558
	24.490000	-0.634751
	24.495000	-0.602517
	24.500000	-0.689548
	24.505000	-0.721782
	24.510000	-0.641198
	24.515000	-0.602517
	24.520000	-0.686325
	24.525000	-0.728228
	24.530000	-0.641198
	24.535000	-0.602517
	24.540000	-0.683101
	24.545000	-0.721782
	24.550000	-0.644421
	24.555000	-0.605741
	24.560000	-0.689548
	24.565000	-0.725005
	24.570000	-0.641198
	24.575000	-0.605741
	24.580000	-0.689548
	24.585000	-0.728228
	24.590000	-0.641198
	24.595000	-0.605741
	24.600000	-0.695995
	24.605000	-0.725005
	24.610000	-0.637974
	24.615000	-0.612187
	24.620000	-0.692771
	24.625000	-0.731452
	24.630000	-0.641198
	24.635000	-0.608964
	24.640000	-0.686325
	24.645000	-0.721782
	24.650000	-0.647644
	24.655000	-0.602517
	24.660000	-0.695995
	24.665000	-0.734675
	24.670000	-0.650868
	24.675000	-0.612187
	24.680000	-0.692771
	24.685000	-0.731452
	24.690000	-0.641198
	24.695000	-0.605741
	24.700000	-0.689548
	24.705000	-0.734675
	24.710000	-0.647644
	24.715000	-0.605741
	24.720000	-0.689548
	24.725000	-0.734675
	24.730000	-0.647644
	24.735000	-0.602517
	24.740000	-0.689548
	24.745000	-0.728228
	24.750000	-0.647644
	24.755000	-0.602517
	24.760000	-0.689548
	24.765000	-0.728228
	24.770000	-0.644421
	24.775000	-0.612187
	24.780000	-0.702441
	24.785000	-0.728228
	24.790000	-0.650868
	24.795000	-0.608964
	24.800000	-0.692771
	24.805000	-0.728228
	24.810000	-0.637974
	24.815000	-0.608964
	24.820000	-0.692771
	24.825000	-0.734675
	24.830000	-0.647644
	24.835000	-0.608964
	24.840000	-0.695995
	24.845000	-0.737898
	24.850000	-0.647644
	24.855000	-0.615411
	24.860000	-0.692771
	24.865000	-0.731452
	24.870000	-0.644421
	24.875000	-0.608964
	24.880000	-0.686325
	24.885000	-0.728228
	24.890000	-0.644421
	24.895000	-0.602517
	24.900000	-0.692771
	24.905000	-0.725005
	24.910000	-0.647644
	24.915000	-0.608964
	24.920000	-0.686325
	24.925000	-0.721782
	24.930000	-0.650868
	24.935000	-0.608964
	24.940000	-0.692771
	24.945000	-0.728228
	24.950000	-0.637974
	24.955000	-0.608964
	24.960000	-0.689548
	24.965000	-0.728228
	24.970000	-0.641198
	24.975000	-0.605741
	24.980000	-0.692771
	24.985000	-0.728228
	24.990000	-0.647644
	24.995000	-0.605741
	25.000000	-0.692771
	25.005000	-0.734675
	25.010000	-0.634751
	25.015000	-0.608964
	25.020000	-0.683101
	25.025000	-0.721782
	25.030000	-0.647644
	25.035000	-0.602517
	25.040000	-0.692771
	25.045000	-0.721782
	25.050000	-0.641198
	25.055000	-0.605741
	25.060000	-0.689548
	25.065000	-0.721782
	25.070000	-0.637974
	25.075000	-0.605741
	25.080000	-0.689548
	25.085000	-0.728228
	25.090000	-0.644421
	25.095000	-0.599294
	25.100000	-0.686325
	25.105000	-0.725005
	25.110000	-0.637974
	25.115000	-0.599294
	25.120000	-0.689548
	25.125000	-0.721782
	25.130000	-0.641198
	25.135000	-0.602517
	25.140000	-0.686325
	25.145000	-0.725005
	25.150000	-0.637974
	25.155000	-0.599294
	25.160000	-0.689548
	25.165000	-0.728228
	25.170000	-0.650868
	25.175000	-0.602517
	25.180000	-0.695995
	25.185000	-0.725005
	25.190000	-0.647644
	25.195000	-0.605741
	25.200000	-0.683101
	25.205000	-0.734675
	25.210000	-0.647644
	25.215000	-0.618634
	25.220000	-0.689548
	25.225000	-0.731452
	25.230000	-0.657314
	25.235000	-0.612187
	25.240000	-0.699218
	25.245000	-0.737898
	25.250000	-0.654091
	25.255000	-0.618634
	25.260000	-0.699218
	25.265000	-0.741122
	25.270000	-0.647644
	25.275000	-0.615411
	25.280000	-0.699218
	25.285000	-0.741122
	25.290000	-0.660538
	25.295000	-0.612187
	25.300000	-0.705665
	25.305000	-0.728228
	25.310000	-0.657314
	25.315000	-0.615411
	25.320000	-0.695995
	25.325000	-0.731452
	25.330000	-0.657314
	25.335000	-0.618634
	25.340000	-0.699218
	25.345000	-0.734675
	25.350000	-0.657314
	25.355000	-0.618634
	25.360000	-0.705665
	25.365000	-0.737898
	25.370000	-0.666985
	25.375000	-0.621858
	25.380000	-0.699218
	25.385000	-0.747569
	25.390000	-0.654091
	25.395000	-0.618634
	25.400000	-0.702441
	25.405000	-0.741122
	25.410000	-0.657314
	25.415000	-0.631528
	25.420000	-0.705665
	25.425000	-0.750792
	25.430000	-0.660538
	25.435000	-0.628304
	25.440000	-0.702441
	25.445000	-0.747569
	25.450000	-0.663761
	25.455000	-0.618634
	25.460000	-0.702441
	25.465000	-0.741122
	25.470000	-0.660538
	25.475000	-0.621858
	25.480000	-0.702441
	25.485000	-0.744345
	25.490000	-0.666985
	25.495000	-0.625081
	25.500000	-0.708888
	25.505000	-0.741122
	25.510000	-0.663761
	25.515000	-0.625081
	25.520000	-0.702441
	25.525000	-0.744345
	25.530000	-0.663761
	25.535000	-0.625081
	25.540000	-0.699218
	25.545000	-0.737898
	25.550000	-0.663761
	25.555000	-0.628304
	25.560000	-0.705665
	25.565000	-0.744345
	25.570000	-0.657314
	25.575000	-0.621858
	25.580000	-0.705665
	25.585000	-0.737898
	25.590000	-0.654091
	25.595000	-0.621858
	25.600000	-0.705665
	25.605000	-0.734675
	25.610000	-0.657314
	25.615000	-0.621858
	25.620000	-0.705665
	25.625000	-0.741122
	25.630000	-0.666985
	25.635000	-0.631528
	25.640000	-0.702441
	25.645000	-0.744345
	25.650000	-0.657314
	25.655000	-0.621858
	25.660000	-0.702441
	25.665000	-0.750792
	25.670000	-0.663761
	25.675000	-0.628304
	25.680000	-0.705665
	25.685000	-0.741122
	25.690000	-0.666985
	25.695000	-0.621858
	25.700000	-0.702441
	25.705000	-0.744345
	25.710000	-0.663761
	25.715000	-0.618634
	25.720000	-0.708888
	25.725000	-0.750792
	25.730000	-0.670208
	25.735000	-0.625081
	25.740000	-0.699218
	25.745000	-0.744345
	25.750000	-0.660538
	25.755000	-0.625081
	25.760000	-0.699218
	25.765000	-0.741122
	25.770000	-0.660538
	25.775000	-0.618634
	25.780000	-0.695995
	25.785000	-0.741122
	25.790000	-0.670208
	25.795000	-0.618634
	25.800000	-0.702441
	25.805000	-0.731452
	25.810000	-0.657314
	25.815000	-0.621858
	25.820000	-0.695995
	25.825000	-0.741122
	25.830000	-0.663761
	25.835000	-0.618634
	25.840000	-0.702441
	25.845000	-0.737898
	25.850000	-0.663761
	25.855000	-0.621858
	25.860000	-0.699218
	25.865000	-0.744345
	25.870000	-0.654091
	25.875000	-0.618634
	25.880000	-0.702441
	25.885000	-0.744345
	25.890000	-0.663761
	25.895000	-0.615411
	25.900000	-0.705665
	25.905000	-0.744345
	25.910000	-0.663761
	25.915000	-0.618634
	25.920000	-0.705665
	25.925000	-0.750792
	25.930000	-0.663761
	25.935000	-0.628304
	25.940000	-0.702441
	25.945000	-0.741122
	25.950000	-0.670208
	25.955000	-0.621858
	25.960000	-0.699218
	25.965000	-0.747569
	25.970000	-0.663761
	25.975000	-0.618634
	25.980000	-0.708888
	25.985000	-0.747569
	25.990000	-0.663761
	25.995000	-0.625081
	26.000000	-0.705665
	26.005000	-0.744345
	26.010000	-0.663761
	26.015000	-0.625081
	26.020000	-0.705665
	26.025000	-0.747569
	26.030000	-0.657314
	26.035000	-0.625081
	26.040000	-0.702441
	26.045000	-0.744345
	26.050000	-0.657314
	26.055000	-0.631528
	26.060000	-0.702441
	26.065000	-0.747569
	26.070000	-0.673431
	26.075000	-0.628304
	26.080000	-0.702441
	26.085000	-0.747569
	26.090000	-0.676655
	26.095000	-0.628304
	26.100000	-0.712112
	26.105000	-0.754015
	26.110000	-0.670208
	26.115000	-0.634751
	26.120000	-0.702441
	26.125000	-0.750792
	26.130000	-0.670208
	26.135000	-0.612187
	26.140000	-0.689548
	26.145000	-0.712112
	26.150000	-0.612187
	26.155000	-0.531603
	26.160000	-0.576730
	26.165000	-0.579954
	26.170000	-0.470360
	26.175000	-0.386552
	26.180000	-0.441349
	26.185000	-0.441349
	26.190000	-0.344649
	26.195000	-0.270511
	26.200000	-0.334979
	26.205000	-0.354319
	26.210000	-0.264065
	26.215000	-0.209268
	26.220000	-0.264065
	26.225000	-0.296298
	26.230000	-0.206044
	26.235000	-0.154470
	26.240000	-0.222161
	26.245000	-0.257618
	26.250000	-0.183481
	26.255000	-0.131907
	26.260000	-0.206044
	26.265000	-0.235054
	26.270000	-0.157694
	26.275000	-0.099673
	26.280000	-0.183481
	26.285000	-0.218938
	26.290000	-0.144800
	26.295000	-0.096450
	26.300000	-0.164141
	26.305000	-0.209268
	26.310000	-0.138354
	26.315000	-0.093227
	26.320000	-0.157694
	26.325000	-0.196374
	26.330000	-0.125460
	26.335000	-0.086780
	26.340000	-0.154470
	26.345000	-0.199597
	26.350000	-0.119014
	26.355000	-0.080333
	26.360000	-0.144800
	26.365000	-0.183481
	26.370000	-0.112567
	26.375000	-0.073886
	26.380000	-0.141577
	26.385000	-0.177034
	26.390000	-0.102897
	26.395000	-0.057770
	26.400000	-0.128684
	26.405000	-0.170587
	26.410000	-0.096450
	26.415000	-0.057770
	26.420000	-0.119014
	26.425000	-0.167364
	26.430000	-0.096450
	26.435000	-0.054546
	26.440000	-0.128684
	26.445000	-0.167364
	26.450000	-0.099673
	26.455000	-0.060993
	26.460000	-0.135130
	26.465000	-0.173811
	26.470000	-0.096450
	26.475000	-0.054546
	26.480000	-0.119014
	26.485000	-0.167364
	26.490000	-0.106120
	26.495000	-0.057770
	26.500000	-0.131907
	26.505000	-0.177034
	26.510000	-0.099673
	26.515000	-0.064216
	26.520000	-0.138354
	26.525000	-0.170587
	26.530000	-0.106120
	26.535000	-0.067440
	26.540000	-0.135130
	26.545000	-0.170587
	26.550000	-0.102897
	26.555000	-0.067440
	26.560000	-0.131907
	26.565000	-0.173811
	26.570000	-0.102897
	26.575000	-0.064216
	26.580000	-0.135130
	26.585000	-0.180257
	26.590000	-0.109343
	26.595000	-0.060993
	26.600000	-0.141577
	26.605000	-0.173811
	26.610000	-0.102897
	26.615000	-0.070663
	26.620000	-0.135130
	26.625000	-0.180257
	26.630000	-0.106120
	26.635000	-0.064216
	26.640000	-0.135130
	26.645000	-0.180257
	26.650000	-0.112567
	26.655000	-0.070663
	26.660000	-0.141577
	26.665000	-0.186704
	26.670000	-0.119014
	26.675000	-0.083557
	26.680000	-0.154470
	26.685000	-0.193151
	26.690000	-0.119014
	26.695000	-0.090003
	26.700000	-0.160917
	26.705000	-0.212491
	26.710000	-0.154470
	26.715000	-0.119014
	26.720000	-0.209268
	26.725000	-0.257618
	26.730000	-0.212491
	26.735000	-0.183481
	26.740000	-0.276958
	26.745000	-0.341425
	26.750000	-0.296298
	26.755000	-0.286628
	26.760000	-0.386552
	26.765000	-0.460690
	26.770000	-0.425233
	26.775000	-0.415563
	26.780000	-0.521933
	26.785000	-0.599294
	26.790000	-0.538050
	26.795000	-0.531603
	26.800000	-0.618634
	26.805000	-0.676655
	26.810000	-0.625081
	26.815000	-0.592847
	26.820000	-0.676655
	26.825000	-0.725005
	26.830000	-0.663761
	26.835000	-0.631528
	26.840000	-0.708888
	26.845000	-0.760462
	26.850000	-0.692771
	26.855000	-0.657314
	26.860000	-0.741122
	26.865000	-0.789472
	26.870000	-0.725005
	26.875000	-0.689548
	26.880000	-0.766909
	26.885000	-0.818482
	26.890000	-0.744345
	26.895000	-0.702441
	26.900000	-0.783025
	26.905000	-0.828152
	26.910000	-0.763685
	26.915000	-0.708888
	26.920000	-0.786249
	26.925000	-0.850716
	26.930000	-0.766909
	26.935000	-0.731452
	26.940000	-0.805589
	26.945000	-0.853939
	26.950000	-0.773355
	26.955000	-0.731452
	26.960000	-0.805589
	26.965000	-0.857163
	26.970000	-0.786249
	26.975000	-0.741122
	26.980000	-0.824929
	26.985000	-0.866833
	26.990000	-0.792696
	26.995000	-0.741122
	27.000000	-0.818482
	27.005000	-0.863609
	27.010000	-0.786249
	27.015000	-0.744345
	27.020000	-0.815259
	27.025000	-0.863609
	27.030000	-0.795919
	27.035000	-0.741122
	27.040000	-0.821706
	27.045000	-0.866833
	27.050000	-0.779802
	27.055000	-0.741122
	27.060000	-0.818482
	27.065000	-0.866833
	27.070000	-0.795919
	27.075000	-0.750792
	27.080000	-0.821706
	27.085000	-0.863609
	27.090000	-0.789472
	27.095000	-0.737898
	27.100000	-0.812036
	27.105000	-0.866833
	27.110000	-0.792696
	27.115000	-0.741122
	27.120000	-0.815259
	27.125000	-0.860386
	27.130000	-0.786249
	27.135000	-0.737898
	27.140000	-0.815259
	27.145000	-0.863609
	27.150000	-0.789472
	27.155000	-0.741122
	27.160000	-0.815259
	27.165000	-0.860386
	27.170000	-0.783025
	27.175000	-0.734675
	27.180000	-0.805589
	27.185000	-0.850716
	27.190000	-0.776579
	27.195000	-0.737898
	27.200000	-0.805589
	27.205000	-0.853939
	27.210000	-0.779802
	27.215000	-0.728228
	27.220000	-0.802366
	27.225000	-0.850716
	27.230000	-0.770132
	27.235000	-0.721782
	27.240000	-0.792696
	27.245000	-0.841046
	27.250000	-0.770132
	27.255000	-0.721782
	27.260000	-0.799142
	27.265000	-0.850716
	27.270000	-0.773355
	27.275000	-0.718558
	27.280000	-0.802366
	27.285000	-0.841046
	27.290000	-0.766909
	27.295000	-0.718558
	27.300000	-0.789472
	27.305000	-0.841046
	27.310000	-0.760462
	27.315000	-0.705665
	27.320000	-0.786249
	27.325000	-0.837823
	27.330000	-0.763685
	27.335000	-0.712112
	27.340000	-0.792696
	27.345000	-0.841046
	27.350000	-0.763685
	27.355000	-0.712112
	27.360000	-0.776579
	27.365000	-0.837823
	27.370000	-0.763685
	27.375000	-0.705665
	27.380000	-0.776579
	27.385000	-0.828152
	27.390000	-0.754015
	27.395000	-0.702441
	27.400000	-0.773355
	27.405000	-0.834599
	27.410000	-0.754015
	27.415000	-0.702441
	27.420000	-0.773355
	27.425000	-0.821706
	27.430000	-0.754015
	27.435000	-0.699218
	27.440000	-0.773355
	27.445000	-0.824929
	27.450000	-0.750792
	27.455000	-0.702441
	27.460000	-0.766909
	27.465000	-0.818482
	27.470000	-0.750792
	27.475000	-0.695995
	27.480000	-0.770132
	27.485000	-0.824929
	27.490000	-0.750792
	27.495000	-0.695995
	27.500000	-0.770132
	27.505000	-0.824929
	27.510000	-0.747569
	27.515000	-0.689548
	27.520000	-0.773355
	27.525000	-0.824929
	27.530000	-0.747569
	27.535000	-0.695995
	27.540000	-0.766909
	27.545000	-0.818482
	27.550000	-0.737898
	27.555000	-0.702441
	27.560000	-0.766909
	27.565000	-0.821706
	27.570000	-0.747569
	27.575000	-0.699218
	27.580000	-0.770132
	27.585000	-0.824929
	27.590000	-0.754015
	27.595000	-0.695995
	27.600000	-0.766909
	27.605000	-0.828152
	27.610000	-0.750792
	27.615000	-0.699218
	27.620000	-0.763685
	27.625000	-0.824929
	27.630000	-0.741122
	27.635000	-0.699218
	27.640000	-0.770132
	27.645000	-0.818482
	27.650000	-0.750792
	27.655000	-0.699218
	27.660000	-0.776579
	27.665000	-0.818482
	27.670000	-0.754015
	27.675000	-0.702441
	27.680000	-0.773355
	27.685000	-0.831376
	27.690000	-0.757239
	27.695000	-0.702441
	27.700000	-0.770132
	27.705000	-0.831376
	27.710000	-0.760462
	27.715000	-0.708888
	27.720000	-0.779802
	27.725000	-0.837823
	27.730000	-0.770132
	27.735000	-0.715335
	27.740000	-0.786249
	27.745000	-0.844269
	27.750000	-0.773355
	27.755000	-0.721782
	27.760000	-0.786249
	27.765000	-0.850716
	27.770000	-0.770132
	27.775000	-0.718558
	27.780000	-0.792696
	27.785000	-0.844269
	27.790000	-0.773355
	27.795000	-0.725005
	27.800000	-0.799142
	27.805000	-0.860386
	27.810000	-0.783025
	27.815000	-0.728228
	27.820000	-0.795919
	27.825000	-0.853939
	27.830000	-0.786249
	27.835000	-0.728228
	27.840000	-0.805589
	27.845000	-0.860386
	27.850000	-0.786249
	27.855000	-0.741122
	27.860000	-0.812036
	27.865000	-0.863609
	27.870000	-0.792696
	27.875000	-0.741122
	27.880000	-0.818482
	27.885000	-0.876503
	27.890000	-0.795919
	27.895000	-0.747569
	27.900000	-0.824929
	27.905000	-0.879726
	27.910000	-0.799142
	27.915000	-0.754015
	27.920000	-0.824929
	27.925000	-0.886173
	27.930000	-0.812036
	27.935000	-0.760462
	27.940000	-0.831376
	27.945000	-0.886173
	27.950000	-0.812036
	27.955000	-0.773355
	27.960000	-0.847493
	27.965000	-0.895843
	27.970000	-0.818482
	27.975000	-0.773355
	27.980000	-0.847493
	27.985000	-0.892620
	27.990000	-0.824929
	27.995000	-0.766909
	28.000000	-0.847493
	28.005000	-0.895843
	28.010000	-0.831376
	28.015000	-0.773355
	28.020000	-0.837823
	28.025000	-0.902290
	28.030000	-0.818482
	28.035000	-0.773355
	28.040000	-0.834599
	28.045000	-0.895843
	28.050000	-0.824929
	28.055000	-0.773355
	28.060000	-0.844269
	28.065000	-0.895843
	28.070000	-0.824929
	28.075000	-0.763685
	28.080000	-0.837823
	28.085000	-0.895843
	28.090000	-0.828152
	28.095000	-0.766909
	28.100000	-0.844269
	28.105000	-0.895843
	28.110000	-0.831376
	28.115000	-0.773355
	28.120000	-0.841046
	28.125000	-0.902290
	28.130000	-0.834599
	28.135000	-0.766909
	28.140000	-0.844269
	28.145000	-0.905513
	28.150000	-0.828152
	28.155000	-0.773355
	28.160000	-0.837823
	28.165000	-0.899066
	28.170000	-0.831376
	28.175000	-0.773355
	28.180000	-0.834599
	28.185000	-0.899066
	28.190000	-0.828152
	28.195000	-0.776579
	28.200000	-0.844269
	28.205000	-0.899066
	28.210000	-0.831376
	28.215000	-0.766909
	28.220000	-0.841046
	28.225000	-0.905513
	28.230000	-0.824929
	28.235000	-0.770132
	28.240000	-0.841046
	28.245000	-0.899066
	28.250000	-0.828152
	28.255000	-0.763685
	28.260000	-0.837823
	28.265000	-0.899066
	28.270000	-0.824929
	28.275000	-0.760462
	28.280000	-0.837823
	28.285000	-0.886173
	28.290000	-0.821706
	28.295000	-0.766909
	28.300000	-0.828152
	28.305000	-0.889396
	28.310000	-0.821706
	28.315000	-0.770132
	28.320000	-0.828152
	28.325000	-0.889396
	28.330000	-0.821706
	28.335000	-0.757239
	28.340000	-0.831376
	28.345000	-0.882950
	28.350000	-0.818482
	28.355000	-0.757239
	28.360000	-0.828152
	28.365000	-0.882950
	28.370000	-0.815259
	28.375000	-0.754015
	28.380000	-0.815259
	28.385000	-0.876503
	28.390000	-0.812036
	28.395000	-0.754015
	28.400000	-0.821706
	28.405000	-0.873280
	28.410000	-0.808812
	28.415000	-0.754015
	28.420000	-0.818482
	28.425000	-0.879726
	28.430000	-0.805589
	28.435000	-0.750792
	28.440000	-0.815259
	28.445000	-0.876503
	28.450000	-0.808812
	28.455000	-0.744345
	28.460000	-0.812036
	28.465000	-0.876503
	28.470000	-0.805589
	28.475000	-0.747569
	28.480000	-0.815259
	28.485000	-0.876503
	28.490000	-0.808812
	28.495000	-0.747569
	28.500000	-0.802366
	28.505000	-0.870056
	28.510000	-0.799142
	28.515000	-0.741122
	28.520000	-0.805589
	28.525000	-0.866833
	28.530000	-0.805589
	28.535000	-0.744345
	28.540000	-0.815259
	28.545000	-0.863609
	28.550000	-0.802366
	28.555000	-0.744345
	28.560000	-0.805589
	28.565000	-0.870056
	28.570000	-0.802366
	28.575000	-0.741122
	28.580000	-0.812036
	28.585000	-0.870056
	28.590000	-0.802366
	28.595000	-0.737898
	28.600000	-0.805589
	28.605000	-0.860386
	28.610000	-0.799142
	28.615000	-0.741122
	28.620000	-0.812036
	28.625000	-0.870056
	28.630000	-0.802366
	28.635000	-0.747569
	28.640000	-0.808812
	28.645000	-0.866833
	28.650000	-0.802366
	28.655000	-0.744345
	28.660000	-0.815259
	28.665000	-0.873280
	28.670000	-0.799142
	28.675000	-0.744345
	28.680000	-0.805589
	28.685000	-0.870056
	28.690000	-0.808812
	28.695000	-0.741122
	28.700000	-0.805589
	28.705000	-0.873280
	28.710000	-0.808812
	28.715000	-0.747569
	28.720000	-0.812036
	28.725000	-0.866833
	28.730000	-0.799142
	28.735000	-0.744345
	28.740000	-0.812036
	28.745000	-0.870056
	28.750000	-0.802366
	28.755000	-0.737898
	28.760000	-0.805589
	28.765000	-0.873280
	28.770000	-0.799142
	28.775000	-0.741122
	28.780000	-0.812036
	28.785000	-0.866833
	28.790000	-0.799142
	28.795000	-0.744345
	28.800000	-0.802366
	28.805000	-0.870056
	28.810000	-0.805589
	28.815000	-0.741122
	28.820000	-0.805589
	28.825000	-0.873280
	28.830000	-0.812036
	28.835000	-0.747569
	28.840000	-0.802366
	28.845000	-0.870056
	28.850000	-0.802366
	28.855000	-0.744345
	28.860000	-0.805589
	28.865000	-0.870056
	28.870000	-0.812036
	28.875000	-0.737898
	28.880000	-0.812036
	28.885000	-0.873280
	28.890000	-0.812036
	28.895000	-0.744345
	28.900000	-0.808812
	28.905000	-0.866833
	28.910000	-0.805589
	28.915000	-0.747569
	28.920000	-0.808812
	28.925000	-0.866833
	28.930000	-0.818482
	28.935000	-0.741122
	28.940000	-0.808812
	28.945000	-0.863609
	28.950000	-0.805589
	28.955000	-0.747569
	28.960000	-0.802366
	28.965000	-0.863609
	28.970000	-0.815259
	28.975000	-0.744345
	28.980000	-0.808812
	28.985000	-0.876503
	28.990000	-0.812036
	28.995000	-0.754015
	29.000000	-0.812036
	29.005000	-0.870056
	29.010000	-0.815259
	29.015000	-0.747569
	29.020000	-0.808812
	29.025000	-0.876503
	29.030000	-0.812036
	29.035000	-0.744345
	29.040000	-0.812036
	29.045000	-0.873280
	29.050000	-0.812036
	29.055000	-0.754015
	29.060000	-0.815259
	29.065000	-0.876503
	29.070000	-0.821706
	29.075000	-0.754015
	29.080000	-0.818482
	29.085000	-0.882950
	29.090000	-0.828152
	29.095000	-0.754015
	29.100000	-0.812036
	29.105000	-0.882950
	29.110000	-0.824929
	29.115000	-0.760462
	29.120000	-0.824929
	29.125000	-0.879726
	29.130000	-0.821706
	29.135000	-0.757239
	29.140000	-0.821706
	29.145000	-0.889396
	29.150000	-0.821706
	29.155000	-0.760462
	29.160000	-0.815259
	29.165000	-0.882950
	29.170000	-0.824929
	29.175000	-0.757239
	29.180000	-0.815259
	29.185000	-0.889396
	29.190000	-0.824929
	29.195000	-0.763685
	29.200000	-0.812036
	29.205000	-0.889396
	29.210000	-0.828152
	29.215000	-0.763685
	29.220000	-0.812036
	29.225000	-0.886173
	29.230000	-0.828152
	29.235000	-0.763685
	29.240000	-0.824929
	29.245000	-0.886173
	29.250000	-0.831376
	29.255000	-0.763685
	29.260000	-0.821706
	29.265000	-0.892620
	29.270000	-0.834599
	29.275000	-0.766909
	29.280000	-0.821706
	29.285000	-0.892620
	29.290000	-0.834599
	29.295000	-0.763685
	29.300000	-0.821706
	29.305000	-0.895843
	29.310000	-0.837823
	29.315000	-0.770132
	29.320000	-0.831376
	29.325000	-0.895843
	29.330000	-0.841046
	29.335000	-0.773355
	29.340000	-0.834599
	29.345000	-0.895843
	29.350000	-0.831376
	29.355000	-0.773355
	29.360000	-0.831376
	29.365000	-0.889396
	29.370000	-0.844269
	29.375000	-0.776579
	29.380000	-0.831376
	29.385000	-0.908736
	29.390000	-0.834599
	29.395000	-0.773355
	29.400000	-0.831376
	29.405000	-0.902290
	29.410000	-0.844269
	29.415000	-0.779802
	29.420000	-0.841046
	29.425000	-0.905513
	29.430000	-0.850716
	29.435000	-0.776579
	29.440000	-0.834599
	29.445000	-0.908736
	29.450000	-0.847493
	29.455000	-0.776579
	29.460000	-0.831376
	29.465000	-0.905513
	29.470000	-0.850716
	29.475000	-0.786249
	29.480000	-0.837823
	29.485000	-0.911960
	29.490000	-0.850716
	29.495000	-0.773355
	29.500000	-0.841046
	29.505000	-0.908736
	29.510000	-0.850716
	29.515000	-0.776579
	29.520000	-0.837823
	29.525000	-0.911960
	29.530000	-0.841046
	29.535000	-0.783025
	29.540000	-0.834599
	29.545000	-0.902290
	29.550000	-0.850716
	29.555000	-0.776579
	29.560000	-0.834599
	29.565000	-0.911960
	29.570000	-0.857163
	29.575000	-0.779802
	29.580000	-0.824929
	29.585000	-0.905513
	29.590000	-0.844269
	29.595000	-0.776579
	29.600000	-0.831376
	29.605000	-0.902290
	29.610000	-0.844269
	29.615000	-0.770132
	29.620000	-0.821706
	29.625000	-0.911960
	29.630000	-0.844269
	29.635000	-0.776579
	29.640000	-0.824929
	29.645000	-0.899066
	29.650000	-0.844269
	29.655000	-0.770132
	29.660000	-0.824929
	29.665000	-0.902290
	29.670000	-0.847493
	29.675000	-0.770132
	29.680000	-0.828152
	29.685000	-0.902290
	29.690000	-0.841046
	29.695000	-0.776579
	29.700000	-0.834599
	29.705000	-0.902290
	29.710000	-0.844269
	29.715000	-0.770132
	29.720000	-0.828152
	29.725000	-0.899066
	29.730000	-0.844269
	29.735000	-0.776579
	29.740000	-0.828152
	29.745000	-0.905513
	29.750000	-0.850716
	29.755000	-0.773355
	29.760000	-0.821706
	29.765000	-0.908736
	29.770000	-0.847493
	29.775000	-0.776579
	29.780000	-0.824929
	29.785000	-0.902290
	29.790000	-0.850716
	29.795000	-0.773355
	29.800000	-0.828152
	29.805000	-0.899066
	29.810000	-0.847493
	29.815000	-0.779802
	29.820000	-0.824929
	29.825000	-0.902290
	29.830000	-0.847493
	29.835000	-0.776579
	29.840000	-0.828152
	29.845000	-0.908736
	29.850000	-0.853939
	29.855000	-0.779802
	29.860000	-0.831376
	29.865000	-0.908736
	29.870000	-0.857163
	29.875000	-0.776579
	29.880000	-0.841046
	29.885000	-0.902290
	29.890000	-0.857163
	29.895000	-0.776579
	29.900000	-0.834599
	29.905000	-0.905513
	29.910000	-0.860386
	29.915000	-0.779802
	29.920000	-0.831376
	29.925000	-0.911960
	29.930000	-0.857163
	29.935000	-0.783025
	29.940000	-0.834599
	29.945000	-0.908736
	29.950000	-0.853939
	29.955000	-0.789472
	29.960000	-0.831376
	29.965000	-0.915183
	29.970000	-0.860386
	29.975000	-0.789472
	29.980000	-0.831376
	29.985000	-0.908736
	29.990000	-0.866833
	29.995000	-0.786249
	30.000000	-0.841046
	30.005000	-0.908736
	30.010000	-0.863609
	30.015000	-0.789472
	30.020000	-0.841046
	30.025000	-0.908736
	30.030000	-0.857163
	30.035000	-0.783025
	30.040000	-0.841046
	30.045000	-0.911960
	30.050000	-0.863609
	30.055000	-0.789472
	30.060000	-0.831376
	30.065000	-0.915183
	30.070000	-0.860386
	30.075000	-0.776579
	30.080000	-0.831376
	30.085000	-0.918407
	30.090000	-0.863609
	30.095000	-0.786249
	30.100000	-0.837823
	30.105000	-0.915183
	30.110000	-0.866833
	30.115000	-0.789472
	30.120000	-0.837823
	30.125000	-0.921630
	30.130000	-0.860386
	30.135000	-0.786249
	30.140000	-0.831376
	30.145000	-0.908736
	30.150000	-0.857163
	30.155000	-0.786249
	30.160000	-0.831376
	30.165000	-0.908736
	30.170000	-0.863609
	30.175000	-0.786249
	30.180000	-0.837823
	30.185000	-0.911960
	30.190000	-0.863609
	30.195000	-0.792696
	30.200000	-0.837823
	30.205000	-0.908736
	30.210000	-0.860386
	30.215000	-0.792696
	30.220000	-0.831376
	30.225000	-0.918407
	30.230000	-0.863609
	30.235000	-0.786249
	30.240000	-0.834599
	30.245000	-0.915183
	30.250000	-0.866833
	30.255000	-0.789472
	30.260000	-0.834599
	30.265000	-0.911960
	30.270000	-0.860386
	30.275000	-0.783025
	30.280000	-0.824929
	30.285000	-0.911960
	30.290000	-0.866833
	30.295000	-0.783025
	30.300000	-0.831376
	30.305000	-0.908736
	30.310000	-0.863609
	30.315000	-0.779802
	30.320000	-0.831376
	30.325000	-0.902290
	30.330000	-0.853939
	30.335000	-0.783025
	30.340000	-0.831376
	30.345000	-0.908736
	30.350000	-0.860386
	30.355000	-0.776579
	30.360000	-0.824929
	30.365000	-0.911960
	30.370000	-0.860386
	30.375000	-0.779802
	30.380000	-0.821706
	30.385000	-0.905513
	30.390000	-0.857163
	30.395000	-0.776579
	30.400000	-0.831376
	30.405000	-0.905513
	30.410000	-0.860386
	30.415000	-0.783025
	30.420000	-0.815259
	30.425000	-0.902290
	30.430000	-0.857163
	30.435000	-0.779802
	30.440000	-0.824929
	30.445000	-0.905513
	30.450000	-0.863609
	30.455000	-0.776579
	30.460000	-0.824929
	30.465000	-0.908736
	30.470000	-0.860386
	30.475000	-0.786249
	30.480000	-0.821706
	30.485000	-0.908736
	30.490000	-0.860386
	30.495000	-0.783025
	30.500000	-0.821706
	30.505000	-0.902290
	30.510000	-0.866833
	30.515000	-0.789472
	30.520000	-0.824929
	30.525000	-0.911960
	30.530000	-0.870056
	30.535000	-0.779802
	30.540000	-0.818482
	30.545000	-0.905513
	30.550000	-0.860386
	30.555000	-0.783025
	30.560000	-0.828152
	30.565000	-0.908736
	30.570000	-0.863609
	30.575000	-0.783025
	30.580000	-0.834599
	30.585000	-0.905513
	30.590000	-0.876503
	30.595000	-0.789472
	30.600000	-0.828152
	30.605000	-0.908736
	30.610000	-0.873280
	30.615000	-0.789472
	30.620000	-0.828152
	30.625000	-0.908736
	30.630000	-0.873280
	30.635000	-0.779802
	30.640000	-0.831376
	30.645000	-0.911960
	30.650000	-0.873280
	30.655000	-0.786249
	30.660000	-0.834599
	30.665000	-0.908736
	30.670000	-0.870056
	30.675000	-0.786249
	30.680000	-0.824929
	30.685000	-0.911960
	30.690000	-0.873280
	30.695000	-0.789472
	30.700000	-0.831376
	30.705000	-0.911960
	30.710000	-0.866833
	30.715000	-0.789472
	30.720000	-0.831376
	30.725000	-0.918407
	30.730000	-0.870056
	30.735000	-0.792696
	30.740000	-0.831376
	30.745000	-0.911960
	30.750000	-0.876503
	30.755000	-0.789472
	30.760000	-0.828152
	30.765000	-0.911960
	30.770000	-0.879726
	30.775000	-0.783025
	30.780000	-0.824929
	30.785000	-0.918407
	30.790000	-0.876503
	30.795000	-0.786249
	30.800000	-0.824929
	30.805000	-0.918407
	30.810000	-0.870056
	30.815000	-0.789472
	30.820000	-0.824929
	30.825000	-0.921630
	30.830000	-0.876503
	30.835000	-0.792696
	30.840000	-0.831376
	30.845000	-0.918407
	30.850000	-0.870056
	30.855000	-0.789472
	30.860000	-0.828152
	30.865000	-0.915183
	30.870000	-0.879726
	30.875000	-0.792696
	30.880000	-0.831376
	30.885000	-0.915183
	30.890000	-0.876503
	30.895000	-0.795919
	30.900000	-0.828152
	30.905000	-0.915183
	30.910000	-0.879726
	30.915000	-0.799142
	30.920000	-0.831376
	30.925000	-0.918407
	30.930000	-0.882950
	30.935000	-0.792696
	30.940000	-0.828152
	30.945000	-0.905513
	30.950000	-0.873280
	30.955000	-0.789472
	30.960000	-0.828152
	30.965000	-0.911960
	30.970000	-0.876503
	30.975000	-0.786249
	30.980000	-0.828152
	30.985000	-0.905513
	30.990000	-0.886173
	30.995000	-0.789472
	31.000000	-0.824929
	31.005000	-0.915183
	31.010000	-0.876503
	31.015000	-0.795919
	31.020000	-0.828152
	31.025000	-0.911960
	31.030000	-0.873280
	31.035000	-0.783025
	31.040000	-0.831376
	31.045000	-0.915183
	31.050000	-0.879726
	31.055000	-0.789472
	31.060000	-0.824929
	31.065000	-0.918407
	31.070000	-0.876503
	31.075000	-0.789472
	31.080000	-0.828152
	31.085000	-0.915183
	31.090000	-0.882950
	31.095000	-0.789472
	31.100000	-0.828152
	31.105000	-0.918407
	31.110000	-0.873280
	31.115000	-0.792696
	31.120000	-0.828152
	31.125000	-0.918407
	31.130000	-0.879726
	31.135000	-0.802366
	31.140000	-0.834599
	31.145000	-0.915183
	31.150000	-0.870056
	31.155000	-0.770132
	31.160000	-0.773355
	31.165000	-0.828152
	31.170000	-0.763685
	31.175000	-0.641198
	31.180000	-0.628304
	31.185000	-0.679878
	31.190000	-0.608964
	31.195000	-0.489700
	31.200000	-0.496147
	31.205000	-0.560614
	31.210000	-0.505817
	31.215000	-0.405892
	31.220000	-0.418786
	31.225000	-0.483253
	31.230000	-0.441349
	31.235000	-0.354319
	31.240000	-0.367212
	31.245000	-0.438126
	31.250000	-0.402669
	31.255000	-0.315638
	31.260000	-0.341425
	31.265000	-0.415563
	31.270000	-0.383329
	31.275000	-0.293075
	31.280000	-0.325308
	31.285000	-0.409116
	31.290000	-0.370436
	31.295000	-0.299522
	31.300000	-0.312415
	31.305000	-0.396222
	31.310000	-0.363989
	31.315000	-0.289852
	31.320000	-0.315638
	31.325000	-0.399446
	31.330000	-0.360765
	31.335000	-0.283405
	31.340000	-0.315638
	31.345000	-0.386552
	31.350000	-0.357542
	31.355000	-0.276958
	31.360000	-0.302745
	31.365000	-0.386552
	31.370000	-0.354319
	31.375000	-0.283405
	31.380000	-0.302745
	31.385000	-0.383329
	31.390000	-0.354319
	31.395000	-0.273735
	31.400000	-0.302745
	31.405000	-0.373659
	31.410000	-0.351095
	31.415000	-0.273735
	31.420000	-0.302745
	31.425000	-0.380106
	31.430000	-0.351095
	31.435000	-0.280181
	31.440000	-0.302745
	31.445000	-0.386552
	31.450000	-0.354319
	31.455000	-0.283405
	31.460000	-0.296298
	31.465000	-0.380106
	31.470000	-0.357542
	31.475000	-0.283405
	31.480000	-0.309192
	31.485000	-0.389776
	31.490000	-0.363989
	31.495000	-0.286628
	31.500000	-0.315638
	31.505000	-0.392999
	31.510000	-0.373659
	31.515000	-0.299522
	31.520000	-0.315638
	31.525000	-0.409116
	31.530000	-0.373659
	31.535000	-0.302745
	31.540000	-0.325308
	31.545000	-0.399446
	31.550000	-0.386552
	31.555000	-0.299522
	31.560000	-0.328532
	31.565000	-0.402669
	31.570000	-0.380106
	31.575000	-0.312415
	31.580000	-0.338202
	31.585000	-0.412339
	31.590000	-0.389776
	31.595000	-0.318862
	31.600000	-0.334979
	31.605000	-0.412339
	31.610000	-0.389776
	31.615000	-0.318862
	31.620000	-0.341425
	31.625000	-0.415563
	31.630000	-0.392999
	31.635000	-0.318862
	31.640000	-0.347872
	31.645000	-0.422009
	31.650000	-0.409116
	31.655000	-0.334979
	31.660000	-0.341425
	31.665000	-0.434903
	31.670000	-0.405892
	31.675000	-0.334979
	31.680000	-0.360765
	31.685000	-0.438126
	31.690000	-0.425233
	31.695000	-0.344649
	31.700000	-0.373659
	31.705000	-0.454243
	31.710000	-0.444573
	31.715000	-0.370436
	31.720000	-0.392999
	31.725000	-0.473583
	31.730000	-0.457466
	31.735000	-0.386552
	31.740000	-0.412339
	31.745000	-0.505817
	31.750000	-0.489700
	31.755000	-0.425233
	31.760000	-0.460690
	31.765000	-0.560614
	31.770000	-0.557390
	31.775000	-0.502593
	31.780000	-0.541274
	31.785000	-0.644421
	31.790000	-0.654091
	31.795000	-0.599294
	31.800000	-0.657314
	31.805000	-0.770132
	31.810000	-0.783025
	31.815000	-0.712112
	31.820000	-0.763685
	31.825000	-0.863609
	31.830000	-0.876503
	31.835000	-0.799142
	31.840000	-0.837823
	31.845000	-0.940970
	31.850000	-0.931300
	31.855000	-0.860386
	31.860000	-0.889396
	31.865000	-0.982874
	31.870000	-0.976427
	31.875000	-0.895843
	31.880000	-0.924853
	31.885000	-1.024777
	31.890000	-1.008661
	31.895000	-0.931300
	31.900000	-0.957087
	31.905000	-1.050564
	31.910000	-1.037671
	31.915000	-0.957087
	31.920000	-0.976427
	31.925000	-1.082798
	31.930000	-1.057011
	31.935000	-0.979650
	31.940000	-0.998991
	31.945000	-1.095691
	31.950000	-1.079574
	31.955000	-1.002214
	31.960000	-1.018331
	31.965000	-1.115031
	31.970000	-1.105361
	31.975000	-1.024777
	31.980000	-1.037671
	31.985000	-1.131148
	31.990000	-1.115031
	31.995000	-1.034447
	32.000000	-1.060234
	32.005000	-1.140818
	32.010000	-1.127925
	32.015000	-1.034447
	32.020000	-1.060234
	32.025000	-1.153712
	32.030000	-1.131148
	32.035000	-1.044118
	32.040000	-1.060234
	32.045000	-1.156935
	32.050000	-1.137595
	32.055000	-1.053788
	32.060000	-1.060234
	32.065000	-1.156935
	32.070000	-1.147265
	32.075000	-1.057011
	32.080000	-1.069904
	32.085000	-1.166605
	32.090000	-1.144042
	32.095000	-1.060234
	32.100000	-1.073128
	32.105000	-1.160158
	32.110000	-1.153712
	32.115000	-1.057011
	32.120000	-1.073128
	32.125000	-1.163382
	32.130000	-1.150488
	32.135000	-1.057011
	32.140000	-1.079574
	32.145000	-1.163382
	32.150000	-1.150488
	32.155000	-1.060234
	32.160000	-1.069904
	32.165000	-1.163382
	32.170000	-1.150488
	32.175000	-1.057011
	32.180000	-1.076351
	32.185000	-1.160158
	32.190000	-1.144042
	32.195000	-1.057011
	32.200000	-1.069904
	32.205000	-1.166605
	32.210000	-1.140818
	32.215000	-1.050564
	32.220000	-1.060234
	32.225000	-1.156935
	32.230000	-1.134372
	32.235000	-1.044118
	32.240000	-1.060234
	32.245000	-1.147265
	32.250000	-1.127925
	32.255000	-1.037671
	32.260000	-1.044118
	32.265000	-1.144042
	32.270000	-1.127925
	32.275000	-1.031224
	32.280000	-1.040894
	32.285000	-1.134372
	32.290000	-1.118255
	32.295000	-1.021554
	32.300000	-1.040894
	32.305000	-1.131148
	32.310000	-1.121478
	32.315000	-1.018331
	32.320000	-1.034447
	32.325000	-1.127925
	32.330000	-1.108585
	32.335000	-1.021554
	32.340000	-1.024777
	32.345000	-1.124702
	32.350000	-1.105361
	32.355000	-1.021554
	32.360000	-1.031224
	32.365000	-1.118255
	32.370000	-1.105361
	32.375000	-1.015107
	32.380000	-1.028001
	32.385000	-1.124702
	32.390000	-1.105361
	32.395000	-1.018331
	32.400000	-1.031224
	32.405000	-1.111808
	32.410000	-1.102138
	32.415000	-1.021554
	32.420000	-1.021554
	32.425000	-1.121478
	32.430000	-1.102138
	32.435000	-1.015107
	32.440000	-1.018331
	32.445000	-1.115031
	32.450000	-1.108585
	32.455000	-1.015107
	32.460000	-1.021554
	32.465000	-1.111808
	32.470000	-1.105361
	32.475000	-1.011884
	32.480000	-1.021554
	32.485000	-1.115031
	32.490000	-1.111808
	32.495000	-1.015107
	32.500000	-1.021554
	32.505000	-1.118255
	32.510000	-1.115031
	32.515000	-1.021554
	32.520000	-1.024777
	32.525000	-1.118255
	32.530000	-1.105361
	32.535000	-1.018331
	32.540000	-1.024777
	32.545000	-1.121478
	32.550000	-1.108585
	32.555000	-1.018331
	32.560000	-1.024777
	32.565000	-1.124702
	32.570000	-1.111808
	32.575000	-1.015107
	32.580000	-1.031224
	32.585000	-1.127925
	32.590000	-1.115031
	32.595000	-1.024777
	32.600000	-1.024777
	32.605000	-1.121478
	32.610000	-1.115031
	32.615000	-1.021554
	32.620000	-1.024777
	32.625000	-1.127925
	32.630000	-1.115031
	32.635000	-1.021554
	32.640000	-1.024777
	32.645000	-1.118255
	32.650000	-1.108585
	32.655000	-1.018331
	32.660000	-1.021554
	32.665000	-1.121478
	32.670000	-1.105361
	32.675000	-1.021554
	32.680000	-1.021554
	32.685000	-1.118255
	32.690000	-1.108585
	32.695000	-1.018331
	32.700000	-1.021554
	32.705000	-1.111808
	32.710000	-1.108585
	32.715000	-1.015107
	32.720000	-1.015107
	32.725000	-1.105361
	32.730000	-1.098915
	32.735000	-1.015107
	32.740000	-1.015107
	32.745000	-1.105361
	32.750000	-1.098915
	32.755000	-1.005437
	32.760000	-1.005437
	32.765000	-1.102138
	32.770000	-1.092468
	32.775000	-0.998991
	32.780000	-1.008661
	32.785000	-1.098915
	32.790000	-1.095691
	32.795000	-0.995767
	32.800000	-1.005437
	32.805000	-1.095691
	32.810000	-1.092468
	32.815000	-0.998991
	32.820000	-0.992544
	32.825000	-1.095691
	32.830000	-1.082798
	32.835000	-0.989320
	32.840000	-0.992544
	32.845000	-1.082798
	32.850000	-1.076351
	32.855000	-0.982874
	32.860000	-0.992544
	32.865000	-1.086021
	32.870000	-1.079574
	32.875000	-0.982874
	32.880000	-0.986097
	32.885000	-1.079574
	32.890000	-1.066681
	32.895000	-0.979650
	32.900000	-0.979650
	32.905000	-1.076351
	32.910000	-1.073128
	32.915000	-0.986097
	32.920000	-0.986097
	32.925000	-1.076351
	32.930000	-1.076351
	32.935000	-0.979650
	32.940000	-0.979650
	32.945000	-1.069904
	32.950000	-1.069904
	32.955000	-0.979650
	32.960000	-0.979650
	32.965000	-1.069904
	32.970000	-1.069904
	32.975000	-0.976427
	32.980000	-0.982874
	32.985000	-1.066681
	32.990000	-1.063458
	32.995000	-0.973204
	33.000000	-0.976427
	33.005000	-1.066681
	33.010000	-1.066681
	33.015000	-0.976427
	33.020000	-0.969980
	33.025000	-1.063458
	33.030000	-1.057011
	33.035000	-0.976427
	33.040000	-0.973204
	33.045000	-1.060234
	33.050000	-1.063458
	33.055000	-0.966757
	33.060000	-0.973204
	33.065000	-1.060234
	33.070000	-1.057011
	33.075000	-0.976427
	33.080000	-0.969980
	33.085000	-1.060234
	33.090000	-1.060234
	33.095000	-0.976427
	33.100000	-0.969980
	33.105000	-1.060234
	33.110000	-1.066681
	33.115000	-0.976427
	33.120000	-0.969980
	33.125000	-1.066681
	33.130000	-1.063458
	33.135000	-0.973204
	33.140000	-0.973204
	33.145000	-1.063458
	33.150000	-1.066681
	33.155000	-0.973204
	33.160000	-0.966757
	33.165000	-1.066681
	33.170000	-1.073128
	33.175000	-0.966757
	33.180000	-0.976427
	33.185000	-1.069904
	33.190000	-1.063458
	33.195000	-0.976427
	33.200000	-0.969980
	33.205000	-1.063458
	33.210000	-1.066681
	33.215000	-0.973204
	33.220000	-0.976427
	33.225000	-1.057011
	33.230000	-1.066681
	33.235000	-0.973204
	33.240000	-0.969980
	33.245000	-1.066681
	33.250000	-1.066681
	33.255000	-0.966757
	33.260000	-0.969980
	33.265000	-1.057011
	33.270000	-1.057011
	33.275000	-0.976427
	33.280000	-0.969980
	33.285000	-1.060234
	33.290000	-1.063458
	33.295000	-0.976427
	33.300000	-0.966757
	33.305000	-1.057011
	33.310000	-1.069904
	33.315000	-0.973204
	33.320000	-0.966757
	33.325000	-1.060234
	33.330000	-1.069904
	33.335000	-0.976427
	33.340000	-0.966757
	33.345000	-1.060234
	33.350000	-1.069904
	33.355000	-0.976427
	33.360000	-0.966757
	33.365000	-1.063458
	33.370000	-1.069904
	33.375000	-0.969980
	33.380000	-0.963534
	33.385000	-1.063458
	33.390000	-1.069904
	33.395000	-0.979650
	33.400000	-0.969980
	33.405000	-1.063458
	33.410000	-1.063458
	33.415000	-0.973204
	33.420000	-0.969980
	33.425000	-1.057011
	33.430000	-1.060234
	33.435000	-0.969980
	33.440000	-0.960310
	33.445000	-1.057011
	33.450000	-1.066681
	33.455000	-0.973204
	33.460000	-0.963534
	33.465000	-1.069904
	33.470000	-1.066681
	33.475000	-0.982874
	33.480000	-0.969980
	33.485000	-1.066681
	33.490000	-1.066681
	33.495000	-0.976427
	33.500000	-0.969980
	33.505000	-1.063458
	33.510000	-1.073128
	33.515000	-0.979650
	33.520000	-0.973204
	33.525000	-1.063458
	33.530000	-1.069904
	33.535000	-0.979650
	33.540000	-0.973204
	33.545000	-1.069904
	33.550000	-1.073128
	33.555000	-0.979650
	33.560000	-0.979650
	33.565000	-1.066681
	33.570000	-1.076351
	33.575000	-0.989320
	33.580000	-0.976427
	33.585000	-1.060234
	33.590000	-1.073128
	33.595000	-0.992544
	33.600000	-0.976427
	33.605000	-1.063458
	33.610000	-1.082798
	33.615000	-0.989320
	33.620000	-0.976427
	33.625000	-1.066681
	33.630000	-1.076351
	33.635000	-0.982874
	33.640000	-0.973204
	33.645000	-1.066681
	33.650000	-1.076351
	33.655000	-0.989320
	33.660000	-0.976427
	33.665000	-1.069904
	33.670000	-1.076351
	33.675000	-0.989320
	33.680000	-0.979650
	33.685000	-1.073128
	33.690000	-1.076351
	33.695000	-0.989320
	33.700000	-0.982874
	33.705000	-1.073128
	33.710000	-1.073128
	33.715000	-0.992544
	33.720000	-0.976427
	33.725000	-1.066681
	33.730000	-1.082798
	33.735000	-0.992544
	33.740000	-0.982874
	33.745000	-1.073128
	33.750000	-1.086021
	33.755000	-0.992544
	33.760000	-0.982874
	33.765000	-1.079574
	33.770000	-1.089245
	33.775000	-0.995767
	33.780000	-0.982874
	33.785000	-1.076351
	33.790000	-1.092468
	33.795000	-1.002214
	33.800000	-0.995767
	33.805000	-1.073128
	33.810000	-1.098915
	33.815000	-1.005437
	33.820000	-0.992544
	33.825000	-1.082798
	33.830000	-1.098915
	33.835000	-1.011884
	33.840000	-0.986097
	33.845000	-1.082798
	33.850000	-1.105361
	33.855000	-1.011884
	33.860000	-0.995767
	33.865000	-1.082798
	33.870000	-1.095691
	33.875000	-1.011884
	33.880000	-0.998991
	33.885000	-1.089245
	33.890000	-1.102138
	33.895000	-1.011884
	33.900000	-1.002214
	33.905000	-1.089245
	33.910000	-1.102138
	33.915000	-1.018331
	33.920000	-0.998991
	33.925000	-1.086021
	33.930000	-1.098915
	33.935000	-1.021554
	33.940000	-0.995767
	33.945000	-1.089245
	33.950000	-1.105361
	33.955000	-1.018331
	33.960000	-0.995767
	33.965000	-1.092468
	33.970000	-1.105361
	33.975000	-1.015107
	33.980000	-0.998991
	33.985000	-1.089245
	33.990000	-1.098915
	33.995000	-1.018331
	34.000000	-1.002214
	34.005000	-1.086021
	34.010000	-1.108585
	34.015000	-1.021554
	34.020000	-0.998991
	34.025000	-1.092468
	34.030000	-1.121478
	34.035000	-1.021554
	34.040000	-1.002214
	34.045000	-1.092468
	34.050000	-1.111808
	34.055000	-1.024777
	34.060000	-0.998991
	34.065000	-1.092468
	34.070000	-1.118255
	34.075000	-1.021554
	34.080000	-1.005437
	34.085000	-1.098915
	34.090000	-1.115031
	34.095000	-1.021554
	34.100000	-1.008661
	34.105000	-1.089245
	34.110000	-1.115031
	34.115000	-1.024777
	34.120000	-1.011884
	34.125000	-1.098915
	34.130000	-1.115031
	34.135000	-1.028001
	34.140000	-1.008661
	34.145000	-1.092468
	34.150000	-1.115031
	34.155000	-1.031224
	34.160000	-1.005437
	34.165000	-1.095691
	34.170000	-1.115031
	34.175000	-1.028001
	34.180000	-1.008661
	34.185000	-1.092468
	34.190000	-1.108585
	34.195000	-1.024777
	34.200000	-1.005437
	34.205000	-1.102138
	34.210000	-1.111808
	34.215000	-1.031224
	34.220000	-1.002214
	34.225000	-1.092468
	34.230000	-1.115031
	34.235000	-1.031224
	34.240000	-1.002214
	34.245000	-1.092468
	34.250000	-1.115031
	34.255000	-1.028001
	34.260000	-0.998991
	34.265000	-1.089245
	34.270000	-1.115031
	34.275000	-1.021554
	34.280000	-0.995767
	34.285000	-1.092468
	34.290000	-1.118255
	34.295000	-1.031224
	34.300000	-0.998991
	34.305000	-1.089245
	34.310000	-1.105361
	34.315000	-1.021554
	34.320000	-0.998991
	34.325000	-1.086021
	34.330000	-1.111808
	34.335000	-1.018331
	34.340000	-1.002214
	34.345000	-1.086021
	34.350000	-1.111808
	34.355000	-1.034447
	34.360000	-0.995767
	34.365000	-1.089245
	34.370000	-1.118255
	34.375000	-1.034447
	34.380000	-1.002214
	34.385000	-1.092468
	34.390000	-1.115031
	34.395000	-1.028001
	34.400000	-1.008661
	34.405000	-1.095691
	34.410000	-1.121478
	34.415000	-1.037671
	34.420000	-1.011884
	34.425000	-1.092468
	34.430000	-1.121478
	34.435000	-1.037671
	34.440000	-1.005437
	34.445000	-1.098915
	34.450000	-1.124702
	34.455000	-1.034447
	34.460000	-1.005437
	34.465000	-1.102138
	34.470000	-1.127925
	34.475000	-1.040894
	34.480000	-1.011884
	34.485000	-1.098915
	34.490000	-1.127925
	34.495000	-1.037671
	34.500000	-1.005437
	34.505000	-1.102138
	34.510000	-1.131148
	34.515000	-1.040894
	34.520000	-1.005437
	34.525000	-1.102138
	34.530000	-1.124702
	34.535000	-1.037671
	34.540000	-1.008661
	34.545000	-1.095691
	34.550000	-1.124702
	34.555000	-1.044118
	34.560000	-1.011884
	34.565000	-1.098915
	34.570000	-1.131148
	34.575000	-1.044118
	34.580000	-1.018331
	34.585000	-1.095691
	34.590000	-1.127925
	34.595000	-1.037671
	34.600000	-1.018331
	34.605000	-1.105361
	34.610000	-1.134372
	34.615000	-1.044118
	34.620000	-1.015107
	34.625000	-1.105361
	34.630000	-1.137595
	34.635000	-1.044118
	34.640000	-1.024777
	34.645000	-1.108585
	34.650000	-1.144042
	34.655000	-1.060234
	34.660000	-1.028001
	34.665000	-1.111808
	34.670000	-1.147265
	34.675000	-1.060234
	34.680000	-1.028001
	34.685000	-1.108585
	34.690000	-1.147265
	34.695000	-1.060234
	34.700000	-1.031224
	34.705000	-1.118255
	34.710000	-1.147265
	34.715000	-1.069904
	34.720000	-1.034447
	34.725000	-1.121478
	34.730000	-1.153712
	34.735000	-1.066681
	34.740000	-1.028001
	34.745000	-1.124702
	34.750000	-1.156935
	34.755000	-1.066681
	34.760000	-1.040894
	34.765000	-1.121478
	34.770000	-1.153712
	34.775000	-1.066681
	34.780000	-1.031224
	34.785000	-1.131148
	34.790000	-1.153712
	34.795000	-1.069904
	34.800000	-1.031224
	34.805000	-1.124702
	34.810000	-1.160158
	34.815000	-1.076351
	34.820000	-1.047341
	34.825000	-1.124702
	34.830000	-1.160158
	34.835000	-1.069904
	34.840000	-1.044118
	34.845000	-1.127925
	34.850000	-1.163382
	34.855000	-1.079574
	34.860000	-1.044118
	34.865000	-1.131148
	34.870000	-1.163382
	34.875000	-1.076351
	34.880000	-1.034447
	34.885000	-1.127925
	34.890000	-1.163382
	34.895000	-1.073128
	34.900000	-1.040894
	34.905000	-1.127925
	34.910000	-1.163382
	34.915000	-1.069904
	34.920000	-1.037671
	34.925000	-1.131148
	34.930000	-1.166605
	34.935000	-1.076351
	34.940000	-1.034447
	34.945000	-1.131148
	34.950000	-1.160158
	34.955000	-1.082798
	34.960000	-1.047341
	34.965000	-1.127925
	34.970000	-1.163382
	34.975000	-1.076351
	34.980000	-1.044118
	34.985000	-1.127925
	34.990000	-1.169829
	34.995000	-1.076351
	35.000000	-1.044118
	35.005000	-1.131148
	35.010000	-1.163382
	35.015000	-1.079574
	35.020000	-1.044118
	35.025000	-1.127925
	35.030000	-1.166605
	35.035000	-1.086021
	35.040000	-1.034447
	35.045000	-1.131148
	35.050000	-1.173052
	35.055000	-1.086021
	35.060000	-1.053788
	35.065000	-1.134372
	35.070000	-1.173052
	35.075000	-1.092468
	35.080000	-1.050564
	35.085000	-1.134372
	35.090000	-1.182722
	35.095000	-1.092468
	35.100000	-1.053788
	35.105000	-1.144042
	35.110000	-1.182722
	35.115000	-1.098915
	35.120000	-1.053788
	35.125000	-1.147265
	35.130000	-1.189169
	35.135000	-1.102138
	35.140000	-1.057011
	35.145000	-1.150488
	35.150000	-1.179499
	35.155000	-1.098915
	35.160000	-1.063458
	35.165000	-1.144042
	35.170000	-1.189169
	35.175000	-1.102138
	35.180000	-1.063458
	35.185000	-1.150488
	35.190000	-1.185945
	35.195000	-1.105361
	35.200000	-1.060234
	35.205000	-1.153712
	35.210000	-1.189169
	35.215000	-1.098915
	35.220000	-1.063458
	35.225000	-1.147265
	35.230000	-1.182722
	35.235000	-1.095691
	35.240000	-1.060234
	35.245000	-1.137595
	35.250000	-1.179499
	35.255000	-1.102138
	35.260000	-1.060234
	35.265000	-1.137595
	35.270000	-1.192392
	35.275000	-1.098915
	35.280000	-1.066681
	35.285000	-1.140818
	35.290000	-1.182722
	35.295000	-1.108585
	35.300000	-1.060234
	35.305000	-1.144042
	35.310000	-1.182722
	35.315000	-1.102138
	35.320000	-1.057011
	35.325000	-1.144042
	35.330000	-1.182722
	35.335000	-1.095691
	35.340000	-1.057011
	35.345000	-1.140818
	35.350000	-1.179499
	35.355000	-1.102138
	35.360000	-1.060234
	35.365000	-1.144042
	35.370000	-1.189169
	35.375000	-1.108585
	35.380000	-1.060234
	35.385000	-1.147265
	35.390000	-1.189169
	35.395000	-1.105361
	35.400000	-1.053788
	35.405000	-1.144042
	35.410000	-1.185945
	35.415000	-1.108585
	35.420000	-1.060234
	35.425000	-1.147265
	35.430000	-1.192392
	35.435000	-1.105361
	35.440000	-1.063458
	35.445000	-1.144042
	35.450000	-1.192392
	35.455000	-1.108585
	35.460000	-1.066681
	35.465000	-1.144042
	35.470000	-1.179499
	35.475000	-1.111808
	35.480000	-1.057011
	35.485000	-1.137595
	35.490000	-1.179499
	35.495000	-1.105361
	35.500000	-1.057011
	35.505000	-1.140818
	35.510000	-1.185945
	35.515000	-1.098915
	35.520000	-1.057011
	35.525000	-1.134372
	35.530000	-1.185945
	35.535000	-1.105361
	35.540000	-1.057011
	35.545000	-1.134372
	35.550000	-1.189169
	35.555000	-1.105361
	35.560000	-1.063458
	35.565000	-1.144042
	35.570000	-1.192392
	35.575000	-1.111808
	35.580000	-1.066681
	35.585000	-1.150488
	35.590000	-1.192392
	35.595000	-1.102138
	35.600000	-1.076351
	35.605000	-1.147265
	35.610000	-1.192392
	35.615000	-1.115031
	35.620000	-1.066681
	35.625000	-1.147265
	35.630000	-1.189169
	35.635000	-1.115031
	35.640000	-1.069904
	35.645000	-1.140818
	35.650000	-1.198839
	35.655000	-1.118255
	35.660000	-1.073128
	35.665000	-1.150488
	35.670000	-1.189169
	35.675000	-1.108585
	35.680000	-1.063458
	35.685000	-1.147265
	35.690000	-1.192392
	35.695000	-1.118255
	35.700000	-1.066681
	35.705000	-1.144042
	35.710000	-1.195615
	35.715000	-1.111808
	35.720000	-1.060234
	35.725000	-1.147265
	35.730000	-1.192392
	35.735000	-1.115031
	35.740000	-1.063458
	35.745000	-1.147265
	35.750000	-1.192392
	35.755000	-1.115031
	35.760000	-1.069904
	35.765000	-1.147265
	35.770000	-1.205285
	35.775000	-1.111808
	35.780000	-1.063458
	35.785000	-1.144042
	35.790000	-1.198839
	35.795000	-1.121478
	35.800000	-1.069904
	35.805000	-1.147265
	35.810000	-1.198839
	35.815000	-1.115031
	35.820000	-1.073128
	35.825000	-1.144042
	35.830000	-1.195615
	35.835000	-1.124702
	35.840000	-1.066681
	35.845000	-1.147265
	35.850000	-1.198839
	35.855000	-1.118255
	35.860000	-1.076351
	35.865000	-1.150488
	35.870000	-1.195615
	35.875000	-1.118255
	35.880000	-1.073128
	35.885000	-1.150488
	35.890000	-1.205285
	35.895000	-1.121478
	35.900000	-1.066681
	35.905000	-1.150488
	35.910000	-1.208509
	35.915000	-1.124702
	35.920000	-1.069904
	35.925000	-1.144042
	35.930000	-1.195615
	35.935000	-1.124702
	35.940000	-1.082798
	35.945000	-1.150488
	35.950000	-1.202062
	35.955000	-1.127925
	35.960000	-1.079574
	35.965000	-1.150488
	35.970000	-1.208509
	35.975000	-1.121478
	35.980000	-1.073128
	35.985000	-1.147265
	35.990000	-1.205285
	35.995000	-1.127925
	36.000000	-1.076351
	36.005000	-1.147265
	36.010000	-1.202062
	36.015000	-1.127925
	36.020000	-1.073128
	36.025000	-1.150488
	36.030000	-1.202062
	36.035000	-1.131148
	36.040000	-1.082798
	36.045000	-1.150488
	36.050000	-1.208509
	36.055000	-1.127925
	36.060000	-1.076351
	36.065000	-1.150488
	36.070000	-1.205285
	36.075000	-1.134372
	36.080000	-1.079574
	36.085000	-1.150488
	36.090000	-1.208509
	36.095000	-1.140818
	36.100000	-1.082798
	36.105000	-1.156935
	36.110000	-1.211732
	36.115000	-1.137595
	36.120000	-1.079574
	36.125000	-1.153712
	36.130000	-1.211732
	36.135000	-1.137595
	36.140000	-1.086021
	36.145000	-1.153712
	36.150000	-1.221402
	36.155000	-1.131148
	36.160000	-1.086021
	36.165000	-1.160158
	36.170000	-1.208509
	36.175000	-1.144042
	36.180000	-1.082798
	36.185000	-1.153712
	36.190000	-1.208509
	36.195000	-1.124702
	36.200000	-1.060234
	36.205000	-1.105361
	36.210000	-1.147265
	36.215000	-1.037671
	36.220000	-0.944193
	36.225000	-0.973204
	36.230000	-1.005437
	36.235000	-0.895843
	36.240000	-0.805589
	36.245000	-0.850716
	36.250000	-0.876503
	36.255000	-0.783025
	36.260000	-0.702441
	36.265000	-0.760462
	36.270000	-0.792696
	36.275000	-0.715335
	36.280000	-0.647644
	36.285000	-0.702441
	36.290000	-0.747569
	36.295000	-0.666985
	36.300000	-0.612187
	36.305000	-0.673431
	36.310000	-0.718558
	36.315000	-0.641198
	36.320000	-0.576730
	36.325000	-0.654091
	36.330000	-0.702441
	36.335000	-0.631528
	36.340000	-0.567060
	36.345000	-0.634751
	36.350000	-0.683101
	36.355000	-0.625081
	36.360000	-0.570284
	36.365000	-0.628304
	36.370000	-0.689548
	36.375000	-0.615411
	36.380000	-0.560614
	36.385000	-0.631528
	36.390000	-0.673431
	36.395000	-0.618634
	36.400000	-0.563837
	36.405000	-0.628304
	36.410000	-0.679878
	36.415000	-0.605741
	36.420000	-0.554167
	36.425000	-0.618634
	36.430000	-0.663761
	36.435000	-0.605741
	36.440000	-0.541274
	36.445000	-0.615411
	36.450000	-0.663761
	36.455000	-0.592847
	36.460000	-0.544497
	36.465000	-0.602517
	36.470000	-0.657314
	36.475000	-0.589624
	36.480000	-0.538050
	36.485000	-0.599294
	36.490000	-0.654091
	36.495000	-0.586401
	36.500000	-0.538050
	36.505000	-0.592847
	36.510000	-0.647644
	36.515000	-0.586401
	36.520000	-0.531603
	36.525000	-0.599294
	36.530000	-0.650868
	36.535000	-0.583177
	36.540000	-0.528380
	36.545000	-0.592847
	36.550000	-0.644421
	36.555000	-0.592847
	36.560000	-0.534827
	36.565000	-0.596071
	36.570000	-0.647644
	36.575000	-0.576730
	36.580000	-0.538050
	36.585000	-0.596071
	36.590000	-0.650868
	36.595000	-0.586401
	36.600000	-0.538050
	36.605000	-0.589624
	36.610000	-0.654091
	36.615000	-0.592847
	36.620000	-0.541274
	36.625000	-0.602517
	36.630000	-0.654091
	36.635000	-0.592847
	36.640000	-0.538050
	36.645000	-0.592847
	36.650000	-0.650868
	36.655000	-0.592847
	36.660000	-0.538050
	36.665000	-0.599294
	36.670000	-0.654091
	36.675000	-0.592847
	36.680000	-0.541274
	36.685000	-0.602517
	36.690000	-0.657314
	36.695000	-0.599294
	36.700000	-0.550944
	36.705000	-0.608964
	36.710000	-0.673431
	36.715000	-0.618634
	36.720000	-0.567060
	36.725000	-0.628304
	36.730000	-0.692771
	36.735000	-0.644421
	36.740000	-0.599294
	36.745000	-0.666985
	36.750000	-0.744345
	36.755000	-0.689548
	36.760000	-0.660538
	36.765000	-0.744345
	36.770000	-0.818482
	36.775000	-0.786249
	36.780000	-0.744345
	36.785000	-0.834599
	36.790000	-0.921630
	36.795000	-0.902290
	36.800000	-0.876503
	36.805000	-0.976427
	36.810000	-1.063458
	36.815000	-1.031224
	36.820000	-0.989320
	36.825000	-1.086021
	36.830000	-1.173052
	36.835000	-1.124702
	36.840000	-1.079574
	36.845000	-1.147265
	36.850000	-1.221402
	36.855000	-1.179499
	36.860000	-1.115031
	36.865000	-1.192392
	36.870000	-1.266529
	36.875000	-1.205285
	36.880000	-1.156935
	36.885000	-1.227849
	36.890000	-1.292316
	36.895000	-1.227849
	36.900000	-1.169829
	36.905000	-1.240742
	36.910000	-1.314880
	36.915000	-1.256859
	36.920000	-1.185945
	36.925000	-1.256859
	36.930000	-1.321326
	36.935000	-1.253636
	36.940000	-1.202062
	36.945000	-1.263306
	36.950000	-1.334220
	36.955000	-1.272976
	36.960000	-1.211732
	36.965000	-1.279423
	36.970000	-1.340667
	36.975000	-1.279423
	36.980000	-1.214956
	36.985000	-1.279423
	36.990000	-1.343890
	36.995000	-1.285869
	37.000000	-1.214956
	37.005000	-1.279423
	37.010000	-1.337443
	37.015000	-1.279423
	37.020000	-1.218179
	37.025000	-1.282646
	37.030000	-1.347113
	37.035000	-1.282646
	37.040000	-1.221402
	37.045000	-1.279423
	37.050000	-1.347113
	37.055000	-1.289093
	37.060000	-1.221402
	37.065000	-1.285869
	37.070000	-1.350337
	37.075000	-1.289093
	37.080000	-1.214956
	37.085000	-1.285869
	37.090000	-1.347113
	37.095000	-1.289093
	37.100000	-1.221402
	37.105000	-1.279423
	37.110000	-1.340667
	37.115000	-1.285869
	37.120000	-1.211732
	37.125000	-1.272976
	37.130000	-1.340667
	37.135000	-1.272976
	37.140000	-1.208509
	37.145000	-1.266529
	37.150000	-1.327773
	37.155000	-1.269753
	37.160000	-1.202062
	37.165000	-1.272976
	37.170000	-1.327773
	37.175000	-1.269753
	37.180000	-1.202062
	37.185000	-1.260083
	37.190000	-1.330996
	37.195000	-1.269753
	37.200000	-1.198839
	37.205000	-1.260083
	37.210000	-1.330996
	37.215000	-1.269753
	37.220000	-1.195615
	37.225000	-1.253636
	37.230000	-1.334220
	37.235000	-1.260083
	37.240000	-1.202062
	37.245000	-1.256859
	37.250000	-1.327773
	37.255000	-1.260083
	37.260000	-1.192392
	37.265000	-1.253636
	37.270000	-1.321326
	37.275000	-1.260083
	37.280000	-1.192392
	37.285000	-1.250413
	37.290000	-1.324550
	37.295000	-1.256859
	37.300000	-1.195615
	37.305000	-1.250413
	37.310000	-1.318103
	37.315000	-1.256859
	37.320000	-1.185945
	37.325000	-1.247189
	37.330000	-1.314880
	37.335000	-1.253636
	37.340000	-1.185945
	37.345000	-1.250413
	37.350000	-1.314880
	37.355000	-1.256859
	37.360000	-1.185945
	37.365000	-1.240742
	37.370000	-1.314880
	37.375000	-1.263306
	37.380000	-1.189169
	37.385000	-1.247189
	37.390000	-1.324550
	37.395000	-1.260083
	37.400000	-1.192392
	37.405000	-1.250413
	37.410000	-1.311656
	37.415000	-1.253636
	37.420000	-1.189169
	37.425000	-1.243966
	37.430000	-1.318103
	37.435000	-1.263306
	37.440000	-1.176275
	37.445000	-1.240742
	37.450000	-1.308433
	37.455000	-1.250413
	37.460000	-1.182722
	37.465000	-1.237519
	37.470000	-1.314880
	37.475000	-1.256859
	37.480000	-1.185945
	37.485000	-1.237519
	37.490000	-1.314880
	37.495000	-1.256859
	37.500000	-1.185945
	37.505000	-1.234296
	37.510000	-1.308433
	37.515000	-1.250413
	37.520000	-1.179499
	37.525000	-1.231072
	37.530000	-1.308433
	37.535000	-1.247189
	37.540000	-1.179499
	37.545000	-1.234296
	37.550000	-1.308433
	37.555000	-1.253636
	37.560000	-1.179499
	37.565000	-1.234296
	37.570000	-1.308433
	37.575000	-1.247189
	37.580000	-1.176275
	37.585000	-1.218179
	37.590000	-1.305210
	37.595000	-1.247189
	37.600000	-1.176275
	37.605000	-1.234296
	37.610000	-1.305210
	37.615000	-1.243966
	37.620000	-1.169829
	37.625000	-1.237519
	37.630000	-1.301986
	37.635000	-1.243966
	37.640000	-1.179499
	37.645000	-1.227849
	37.650000	-1.298763
	37.655000	-1.250413
	37.660000	-1.179499
	37.665000	-1.224626
	37.670000	-1.298763
	37.675000	-1.250413
	37.680000	-1.173052
	37.685000	-1.231072
	37.690000	-1.298763
	37.695000	-1.247189
	37.700000	-1.176275
	37.705000	-1.231072
	37.710000	-1.308433
	37.715000	-1.247189
	37.720000	-1.169829
	37.725000	-1.227849
	37.730000	-1.301986
	37.735000	-1.250413
	37.740000	-1.179499
	37.745000	-1.227849
	37.750000	-1.301986
	37.755000	-1.240742
	37.760000	-1.182722
	37.765000	-1.234296
	37.770000	-1.301986
	37.775000	-1.247189
	37.780000	-1.179499
	37.785000	-1.227849
	37.790000	-1.308433
	37.795000	-1.250413
	37.800000	-1.179499
	37.805000	-1.231072
	37.810000	-1.301986
	37.815000	-1.250413
	37.820000	-1.179499
	37.825000	-1.234296
	37.830000	-1.301986
	37.835000	-1.253636
	37.840000	-1.176275
	37.845000	-1.227849
	37.850000	-1.305210
	37.855000	-1.253636
	37.860000	-1.176275
	37.865000	-1.227849
	37.870000	-1.308433
	37.875000	-1.256859
	37.880000	-1.182722
	37.885000	-1.234296
	37.890000	-1.301986
	37.895000	-1.250413
	37.900000	-1.185945
	37.905000	-1.231072
	37.910000	-1.308433
	37.915000	-1.260083
	37.920000	-1.179499
	37.925000	-1.234296
	37.930000	-1.308433
	37.935000	-1.256859
	37.940000	-1.185945
	37.945000	-1.231072
	37.950000	-1.301986
	37.955000	-1.256859
	37.960000	-1.179499
	37.965000	-1.231072
	37.970000	-1.308433
	37.975000	-1.256859
	37.980000	-1.185945
	37.985000	-1.227849
	37.990000	-1.301986
	37.995000	-1.253636
	38.000000	-1.182722
	38.005000	-1.234296
	38.010000	-1.305210
	38.015000	-1.253636
	38.020000	-1.182722
	38.025000	-1.231072
	38.030000	-1.301986
	38.035000	-1.256859
	38.040000	-1.179499
	38.045000	-1.237519
	38.050000	-1.305210
	38.055000	-1.256859
	38.060000	-1.189169
	38.065000	-1.234296
	38.070000	-1.301986
	38.075000	-1.253636
	38.080000	-1.179499
	38.085000	-1.227849
	38.090000	-1.305210
	38.095000	-1.260083
	38.100000	-1.182722
	38.105000	-1.221402
	38.110000	-1.298763
	38.115000	-1.250413
	38.120000	-1.176275
	38.125000	-1.224626
	38.130000	-1.305210
	38.135000	-1.253636
	38.140000	-1.179499
	38.145000	-1.218179
	38.150000	-1.301986
	38.155000	-1.256859
	38.160000	-1.182722
	38.165000	-1.224626
	38.170000	-1.305210
	38.175000	-1.256859
	38.180000	-1.179499
	38.185000	-1.218179
	38.190000	-1.298763
	38.195000	-1.253636
	38.200000	-1.182722
	38.205000	-1.227849
	38.210000	-1.298763
	38.215000	-1.253636
	38.220000	-1.179499
	38.225000	-1.218179
	38.230000	-1.305210
	38.235000	-1.263306
	38.240000	-1.176275
	38.245000	-1.224626
	38.250000	-1.301986
	38.255000	-1.253636
	38.260000	-1.173052
	38.265000	-1.218179
	38.270000	-1.298763
	38.275000	-1.250413
	38.280000	-1.169829
	38.285000	-1.218179
	38.290000	-1.298763
	38.295000	-1.243966
	38.300000	-1.169829
	38.305000	-1.218179
	38.310000	-1.292316
	38.315000	-1.250413
	38.320000	-1.176275
	38.325000	-1.221402
	38.330000	-1.295540
	38.335000	-1.253636
	38.340000	-1.169829
	38.345000	-1.224626
	38.350000	-1.295540
	38.355000	-1.253636
	38.360000	-1.166605
	38.365000	-1.218179
	38.370000	-1.298763
	38.375000	-1.253636
	38.380000	-1.169829
	38.385000	-1.211732
	38.390000	-1.295540
	38.395000	-1.250413
	38.400000	-1.173052
	38.405000	-1.214956
	38.410000	-1.289093
	38.415000	-1.256859
	38.420000	-1.179499
	38.425000	-1.208509
	38.430000	-1.298763
	38.435000	-1.247189
	38.440000	-1.173052
	38.445000	-1.214956
	38.450000	-1.295540
	38.455000	-1.256859
	38.460000	-1.173052
	38.465000	-1.218179
	38.470000	-1.295540
	38.475000	-1.253636
	38.480000	-1.173052
	38.485000	-1.205285
	38.490000	-1.292316
	38.495000	-1.243966
	38.500000	-1.176275
	38.505000	-1.205285
	38.510000	-1.289093
	38.515000	-1.240742
	38.520000	-1.160158
	38.525000	-1.205285
	38.530000	-1.279423
	38.535000	-1.240742
	38.540000	-1.166605
	38.545000	-1.198839
	38.550000	-1.276199
	38.555000	-1.243966
	38.560000	-1.163382
	38.565000	-1.202062
	38.570000	-1.282646
	38.575000	-1.240742
	38.580000	-1.153712
	38.585000	-1.195615
	38.590000	-1.279423
	38.595000	-1.234296
	38.600000	-1.150488
	38.605000	-1.198839
	38.610000	-1.282646
	38.615000	-1.237519
	38.620000	-1.150488
	38.625000	-1.192392
	38.630000	-1.276199
	38.635000	-1.237519
	38.640000	-1.156935
	38.645000	-1.195615
	38.650000	-1.272976
	38.655000	-1.231072
	38.660000	-1.150488
	38.665000	-1.192392
	38.670000	-1.276199
	38.675000	-1.237519
	38.680000	-1.150488
	38.685000	-1.195615
	38.690000	-1.282646
	38.695000	-1.234296
	38.700000	-1.153712
	38.705000	-1.189169
	38.710000	-1.279423
	38.715000	-1.227849
	38.720000	-1.153712
	38.725000	-1.185945
	38.730000	-1.272976
	38.735000	-1.234296
	38.740000	-1.160158
	38.745000	-1.192392
	38.750000	-1.266529
	38.755000	-1.231072
	38.760000	-1.153712
	38.765000	-1.192392
	38.770000	-1.269753
	38.775000	-1.237519
	38.780000	-1.156935
	38.785000	-1.189169
	38.790000	-1.279423
	38.795000	-1.243966
	38.800000	-1.150488
	38.805000	-1.195615
	38.810000	-1.282646
	38.815000	-1.240742
	38.820000	-1.166605
	38.825000	-1.198839
	38.830000	-1.282646
	38.835000	-1.247189
	38.840000	-1.176275
	38.845000	-1.202062
	38.850000	-1.292316
	38.855000	-1.250413
	38.860000	-1.169829
	38.865000	-1.205285
	38.870000	-1.295540
	38.875000	-1.253636
	38.880000	-1.179499
	38.885000	-1.208509
	38.890000	-1.298763
	38.895000	-1.250413
	38.900000	-1.176275
	38.905000	-1.208509
	38.910000	-1.298763
	38.915000	-1.260083
	38.920000	-1.169829
	38.925000	-1.205285
	38.930000	-1.295540
	38.935000	-1.260083
	38.940000	-1.176275
	38.945000	-1.214956
	38.950000	-1.292316
	38.955000	-1.260083
	38.960000	-1.182722
	38.965000	-1.214956
	38.970000	-1.301986
	38.975000	-1.263306
	38.980000	-1.179499
	38.985000	-1.221402
	38.990000	-1.301986
	38.995000	-1.269753
	39.000000	-1.185945
	39.005000	-1.214956
	39.010000	-1.305210
	39.015000	-1.276199
	39.020000	-1.189169
	39.025000	-1.227849
	39.030000	-1.308433
	39.035000	-1.276199
	39.040000	-1.192392
	39.045000	-1.234296
	39.050000	-1.311656
	39.055000	-1.282646
	39.060000	-1.202062
	39.065000	-1.237519
	39.070000	-1.321326
	39.075000	-1.292316
	39.080000	-1.202062
	39.085000	-1.243966
	39.090000	-1.327773
	39.095000	-1.292316
	39.100000	-1.218179
	39.105000	-1.237519
	39.110000	-1.334220
	39.115000	-1.292316
	39.120000	-1.208509
	39.125000	-1.240742
	39.130000	-1.330996
	39.135000	-1.298763
	39.140000	-1.214956
	39.145000	-1.253636
	39.150000	-1.340667
	39.155000	-1.301986
	39.160000	-1.221402
	39.165000	-1.253636
	39.170000	-1.330996
	39.175000	-1.308433
	39.180000	-1.221402
	39.185000	-1.253636
	39.190000	-1.343890
	39.195000	-1.318103
	39.200000	-1.231072
	39.205000	-1.260083
	39.210000	-1.343890
	39.215000	-1.314880
	39.220000	-1.234296
	39.225000	-1.263306
	39.230000	-1.356783
	39.235000	-1.318103
	39.240000	-1.234296
	39.245000	-1.272976
	39.250000	-1.360007
	39.255000	-1.324550
	39.260000	-1.243966
	39.265000	-1.276199
	39.270000	-1.363230
	39.275000	-1.330996
	39.280000	-1.250413
	39.285000	-1.279423
	39.290000	-1.363230
	39.295000	-1.330996
	39.300000	-1.247189
	39.305000	-1.276199
	39.310000	-1.366453
	39.315000	-1.340667
	39.320000	-1.253636
	39.325000	-1.279423
	39.330000	-1.372900
	39.335000	-1.340667
	39.340000	-1.263306
	39.345000	-1.282646
	39.350000	-1.372900
	39.355000	-1.350337
	39.360000	-1.250413
	39.365000	-1.289093
	39.370000	-1.382570
	39.375000	-1.340667
	39.380000	-1.263306
	39.385000	-1.279423
	39.390000	-1.376124
	39.395000	-1.340667
	39.400000	-1.256859
	39.405000	-1.282646
	39.410000	-1.376124
	39.415000	-1.347113
	39.420000	-1.253636
	39.425000	-1.285869
	39.430000	-1.369677
	39.435000	-1.337443
	39.440000	-1.253636
	39.445000	-1.285869
	39.450000	-1.376124
	39.455000	-1.347113
	39.460000	-1.256859
	39.465000	-1.282646
	39.470000	-1.376124
	39.475000	-1.343890
	39.480000	-1.263306
	39.485000	-1.285869
	39.490000	-1.376124
	39.495000	-1.353560
	39.500000	-1.266529
	39.505000	-1.292316
	39.510000	-1.382570
	39.515000	-1.353560
	39.520000	-1.266529
	39.525000	-1.298763
	39.530000	-1.376124
	39.535000	-1.356783
	39.540000	-1.272976
	39.545000	-1.292316
	39.550000	-1.389017
	39.555000	-1.353560
	39.560000	-1.269753
	39.565000	-1.298763
	39.570000	-1.382570
	39.575000	-1.356783
	39.580000	-1.266529
	39.585000	-1.292316
	39.590000	-1.379347
	39.595000	-1.363230
	39.600000	-1.272976
	39.605000	-1.295540
	39.610000	-1.382570
	39.615000	-1.366453
	39.620000	-1.269753
	39.625000	-1.292316
	39.630000	-1.382570
	39.635000	-1.360007
	39.640000	-1.272976
	39.645000	-1.298763
	39.650000	-1.392240
	39.655000	-1.356783
	39.660000	-1.272976
	39.665000	-1.292316
	39.670000	-1.385794
	39.675000	-1.366453
	39.680000	-1.279423
	39.685000	-1.298763
	39.690000	-1.389017
	39.695000	-1.369677
	39.700000	-1.279423
	39.705000	-1.301986
	39.710000	-1.392240
	39.715000	-1.363230
	39.720000	-1.282646
	39.725000	-1.298763
	39.730000	-1.382570
	39.735000	-1.372900
	39.740000	-1.282646
	39.745000	-1.308433
	39.750000	-1.389017
	39.755000	-1.369677
	39.760000	-1.282646
	39.765000	-1.301986
	39.770000	-1.398687
	39.775000	-1.372900
	39.780000	-1.285869
	39.785000	-1.311656
	39.790000	-1.398687
	39.795000	-1.382570
	39.800000	-1.285869
	39.805000	-1.311656
	39.810000	-1.405134
	39.815000	-1.385794
	39.820000	-1.295540
	39.825000	-1.311656
	39.830000	-1.405134
	39.835000	-1.382570
	39.840000	-1.295540
	39.845000	-1.311656
	39.850000	-1.398687
	39.855000	-1.385794
	39.860000	-1.298763
	39.865000	-1.311656
	39.870000	-1.401910
	39.875000	-1.382570
	39.880000	-1.298763
	39.885000	-1.314880
	39.890000	-1.408357
	39.895000	-1.385794
	39.900000	-1.298763
	39.905000	-1.318103
	39.910000	-1.414804
	39.915000	-1.389017
	39.920000	-1.301986
	39.925000	-1.324550
	39.930000	-1.411580
	39.935000	-1.398687
	39.940000	-1.305210
	39.945000	-1.327773
	39.950000	-1.414804
	39.955000	-1.392240
	39.960000	-1.314880
	39.965000	-1.340667
	39.970000	-1.430921
	39.975000	-1.408357
	39.980000	-1.321326
	39.985000	-1.337443
	39.990000	-1.430921
	39.995000	-1.408357
	40.000000	-1.321326
	40.005000	-1.343890
	40.010000	-1.434144
	40.015000	-1.411580
	40.020000	-1.327773
	40.025000	-1.343890
	40.030000	-1.440591
	40.035000	-1.427697
	40.040000	-1.334220
	40.045000	-1.347113
	40.050000	-1.434144
	40.055000	-1.414804
	40.060000	-1.327773
	40.065000	-1.347113
	40.070000	-1.440591
	40.075000	-1.421251
	40.080000	-1.330996
	40.085000	-1.343890
	40.090000	-1.447037
	40.095000	-1.421251
	40.100000	-1.330996
	40.105000	-1.350337
	40.110000	-1.447037
	40.115000	-1.424474
	40.120000	-1.334220
	40.125000	-1.347113
	40.130000	-1.443814
	40.135000	-1.418027
	40.140000	-1.334220
	40.145000	-1.350337
	40.150000	-1.443814
	40.155000	-1.430921
	40.160000	-1.340667
	40.165000	-1.347113
	40.170000	-1.443814
	40.175000	-1.424474
	40.180000	-1.334220
	40.185000	-1.353560
	40.190000	-1.443814
	40.195000	-1.418027
	40.200000	-1.334220
	40.205000	-1.350337
	40.210000	-1.440591
	40.215000	-1.418027
	40.220000	-1.330996
	40.225000	-1.350337
	40.230000	-1.434144
	40.235000	-1.427697
	40.240000	-1.330996
	40.245000	-1.350337
	40.250000	-1.437367
	40.255000	-1.421251
	40.260000	-1.327773
	40.265000	-1.340667
	40.270000	-1.440591
	40.275000	-1.424474
	40.280000	-1.330996
	40.285000	-1.343890
	40.290000	-1.443814
	40.295000	-1.424474
	40.300000	-1.340667
	40.305000	-1.353560
	40.310000	-1.434144
	40.315000	-1.427697
	40.320000	-1.337443
	40.325000	-1.347113
	40.330000	-1.440591
	40.335000	-1.421251
	40.340000	-1.337443
	40.345000	-1.343890
	40.350000	-1.443814
	40.355000	-1.427697
	40.360000	-1.343890
	40.365000	-1.350337
	40.370000	-1.447037
	40.375000	-1.434144
	40.380000	-1.340667
	40.385000	-1.356783
	40.390000	-1.440591
	40.395000	-1.440591
	40.400000	-1.350337
	40.405000	-1.363230
	40.410000	-1.450261
	40.415000	-1.443814
	40.420000	-1.347113
	40.425000	-1.363230
	40.430000	-1.453484
	40.435000	-1.453484
	40.440000	-1.356783
	40.445000	-1.369677
	40.450000	-1.466378
	40.455000	-1.453484
	40.460000	-1.363230
	40.465000	-1.385794
	40.470000	-1.482494
	40.475000	-1.463154
	40.480000	-1.376124
	40.485000	-1.385794
	40.490000	-1.485718
	40.495000	-1.472824
	40.500000	-1.392240
	40.505000	-1.395464
	40.510000	-1.495388
	40.515000	-1.482494
	40.520000	-1.392240
	40.525000	-1.408357
	40.530000	-1.498611
	40.535000	-1.492164
	40.540000	-1.398687
	40.545000	-1.408357
	40.550000	-1.505058
	40.555000	-1.488941
	40.560000	-1.395464
	40.565000	-1.414804
	40.570000	-1.505058
	40.575000	-1.482494
	40.580000	-1.405134
	40.585000	-1.395464
	40.590000	-1.498611
	40.595000	-1.495388
	40.600000	-1.398687
	40.605000	-1.401910
	40.610000	-1.492164
	40.615000	-1.485718
	40.620000	-1.392240
	40.625000	-1.401910
	40.630000	-1.495388
	40.635000	-1.485718
	40.640000	-1.398687
	40.645000	-1.395464
	40.650000	-1.495388
	40.655000	-1.482494
	40.660000	-1.395464
	40.665000	-1.401910
	40.670000	-1.488941
	40.675000	-1.482494
	40.680000	-1.389017
	40.685000	-1.389017
	40.690000	-1.488941
	40.695000	-1.479271
	40.700000	-1.385794
	40.705000	-1.392240
	40.710000	-1.488941
	40.715000	-1.485718
	40.720000	-1.389017
	40.725000	-1.395464
	40.730000	-1.488941
	40.735000	-1.482494
	40.740000	-1.389017
	40.745000	-1.392240
	40.750000	-1.485718
	40.755000	-1.479271
	40.760000	-1.379347
	40.765000	-1.389017
	40.770000	-1.485718
	40.775000	-1.482494
	40.780000	-1.389017
	40.785000	-1.395464
	40.790000	-1.482494
	40.795000	-1.479271
	40.800000	-1.389017
	40.805000	-1.398687
	40.810000	-1.488941
	40.815000	-1.488941
	40.820000	-1.389017
	40.825000	-1.398687
	40.830000	-1.488941
	40.835000	-1.495388
	40.840000	-1.401910
	40.845000	-1.401910
	40.850000	-1.495388
	40.855000	-1.488941
	40.860000	-1.405134
	40.865000	-1.411580
	40.870000	-1.492164
	40.875000	-1.492164
	40.880000	-1.398687
	40.885000	-1.408357
	40.890000	-1.508281
	40.895000	-1.495388
	40.900000	-1.405134
	40.905000	-1.414804
	40.910000	-1.501835
	40.915000	-1.495388
	40.920000	-1.411580
	40.925000	-1.408357
	40.930000	-1.501835
	40.935000	-1.501835
	40.940000	-1.408357
	40.945000	-1.414804
	40.950000	-1.505058
	40.955000	-1.498611
	40.960000	-1.411580
	40.965000	-1.411580
	40.970000	-1.511505
	40.975000	-1.508281
	40.980000	-1.405134
	40.985000	-1.418027
	40.990000	-1.501835
	40.995000	-1.501835
	41.000000	-1.411580
	41.005000	-1.408357
	41.010000	-1.505058
	41.015000	-1.501835
	41.020000	-1.411580
	41.025000	-1.408357
	41.030000	-1.505058
	41.035000	-1.498611
	41.040000	-1.411580
	41.045000	-1.411580
	41.050000	-1.495388
	41.055000	-1.501835
	41.060000	-1.408357
	41.065000	-1.401910
	41.070000	-1.498611
	41.075000	-1.498611
	41.080000	-1.408357
	41.085000	-1.408357
	41.090000	-1.495388
	41.095000	-1.501835
	41.100000	-1.401910
	41.105000	-1.401910
	41.110000	-1.495388
	41.115000	-1.485718
	41.120000	-1.405134
	41.125000	-1.405134
	41.130000	-1.498611
	41.135000	-1.492164
	41.140000	-1.401910
	41.145000	-1.398687
	41.150000	-1.498611
	41.155000	-1.492164
	41.160000	-1.398687
	41.165000	-1.405134
	41.170000	-1.495388
	41.175000	-1.498611
	41.180000	-1.405134
	41.185000	-1.401910
	41.190000	-1.485718
	41.195000	-1.488941
	41.200000	-1.401910
	41.205000	-1.405134
	41.210000	-1.492164
	41.215000	-1.492164
	41.220000	-1.405134
	41.225000	-1.395464
	41.230000	-1.498611
	41.235000	-1.495388
	41.240000	-1.408357
	41.245000	-1.401910
	41.250000	-1.495388
	41.255000	-1.495388
	41.260000	-1.405134
	41.265000	-1.398687
	41.270000	-1.498611
	41.275000	-1.498611
	41.280000	-1.408357
	41.285000	-1.401910
	41.290000	-1.498611
	41.295000	-1.495388
	41.300000	-1.405134
	41.305000	-1.398687
	41.310000	-1.495388
	41.315000	-1.495388
	41.320000	-1.411580
	41.325000	-1.405134
	41.330000	-1.501835
	41.335000	-1.505058
	41.340000	-1.414804
	41.345000	-1.414804
	41.350000	-1.498611
	41.355000	-1.505058
	41.360000	-1.411580
	41.365000	-1.405134
	41.370000	-1.498611
	41.375000	-1.508281
	41.380000	-1.418027
	41.385000	-1.408357
	41.390000	-1.511505
	41.395000	-1.511505
	41.400000	-1.421251
	41.405000	-1.418027
	41.410000	-1.505058
	41.415000	-1.514728
	41.420000	-1.427697
	41.425000	-1.408357
	41.430000	-1.511505
	41.435000	-1.517951
	41.440000	-1.418027
	41.445000	-1.411580
	41.450000	-1.501835
	41.455000	-1.517951
	41.460000	-1.418027
	41.465000	-1.414804
	41.470000	-1.508281
	41.475000	-1.511505
	41.480000	-1.414804
	41.485000	-1.414804
	41.490000	-1.501835
	41.495000	-1.511505
	41.500000	-1.421251
	41.505000	-1.418027
	41.510000	-1.508281
	41.515000	-1.514728
	41.520000	-1.421251
	41.525000	-1.418027
	41.530000	-1.511505
	41.535000	-1.514728
	41.540000	-1.421251
	41.545000	-1.414804
	41.550000	-1.511505
	41.555000	-1.511505
	41.560000	-1.421251
	41.565000	-1.414804
	41.570000	-1.508281
	41.575000	-1.505058
	41.580000	-1.418027
	41.585000	-1.418027
	41.590000	-1.511505
	41.595000	-1.521175
	41.600000	-1.424474
	41.605000	-1.418027
	41.610000	-1.505058
	41.615000	-1.517951
	41.620000	-1.424474
	41.625000	-1.418027
	41.630000	-1.508281
	41.635000	-1.517951
	41.640000	-1.424474
	41.645000	-1.414804
	41.650000	-1.505058
	41.655000	-1.517951
	41.660000	-1.434144
	41.665000	-1.414804
	41.670000	-1.505058
	41.675000	-1.521175
	41.680000	-1.430921
	41.685000	-1.411580
	41.690000	-1.514728
	41.695000	-1.524398
	41.700000	-1.427697
	41.705000	-1.414804
	41.710000	-1.511505
	41.715000	-1.521175
	41.720000	-1.437367
	41.725000	-1.414804
	41.730000	-1.514728
	41.735000	-1.524398
	41.740000	-1.434144
	41.745000	-1.421251
	41.750000	-1.521175
	41.755000	-1.530845
	41.760000	-1.434144
	41.765000	-1.424474
	41.770000	-1.514728
	41.775000	-1.527621
	41.780000	-1.424474
	41.785000	-1.411580
	41.790000	-1.495388
	41.795000	-1.476048
	41.800000	-1.360007
	41.805000	-1.311656
	41.810000	-1.369677
	41.815000	-1.343890
	41.820000	-1.221402
	41.825000	-1.166605
	41.830000	-1.231072
	41.835000	-1.218179
	41.840000	-1.092468
	41.845000	-1.047341
	41.850000	-1.115031
	41.855000	-1.115031
	41.860000	-1.011884
	41.865000	-0.979650
	41.870000	-1.053788
	41.875000	-1.060234
	41.880000	-0.960310
	41.885000	-0.940970
	41.890000	-1.021554
	41.895000	-1.024777
	41.900000	-0.937747
	41.905000	-0.915183
	41.910000	-0.995767
	41.915000	-1.011884
	41.920000	-0.918407
	41.925000	-0.905513
	41.930000	-0.992544
	41.935000	-1.005437
	41.940000	-0.924853
	41.945000	-0.908736
	41.950000	-0.992544
	41.955000	-1.008661
	41.960000	-0.924853
	41.965000	-0.908736
	41.970000	-0.992544
	41.975000	-1.005437
	41.980000	-0.918407
	41.985000	-0.911960
	41.990000	-0.995767
	41.995000	-1.008661
	42.000000	-0.928077
	42.005000	-0.911960
	42.010000	-0.992544
	42.015000	-1.005437
	42.020000	-0.924853
	42.025000	-0.915183
	42.030000	-0.992544
	42.035000	-1.015107
	42.040000	-0.921630
	42.045000	-0.908736
	42.050000	-0.995767
	42.055000	-1.008661
	42.060000	-0.924853
	42.065000	-0.905513
	42.070000	-0.986097
	42.075000	-1.002214
	42.080000	-0.924853
	42.085000	-0.905513
	42.090000	-0.989320
	42.095000	-1.008661
	42.100000	-0.924853
	42.105000	-0.905513
	42.110000	-0.992544
	42.115000	-1.015107
	42.120000	-0.931300
	42.125000	-0.908736
	42.130000	-0.982874
	42.135000	-1.005437
	42.140000	-0.931300
	42.145000	-0.915183
	42.150000	-0.992544
	42.155000	-1.008661
	42.160000	-0.928077
	42.165000	-0.918407
	42.170000	-0.992544
	42.175000	-1.021554
	42.180000	-0.931300
	42.185000	-0.911960
	42.190000	-0.998991
	42.195000	-1.018331
	42.200000	-0.944193
	42.205000	-0.921630
	42.210000	-0.995767
	42.215000	-1.015107
	42.220000	-0.937747
	42.225000	-0.918407
	42.230000	-0.998991
	42.235000	-1.021554
	42.240000	-0.934523
	42.245000	-0.915183
	42.250000	-1.005437
	42.255000	-1.008661
	42.260000	-0.937747
	42.265000	-0.924853
	42.270000	-0.998991
	42.275000	-1.018331
	42.280000	-0.944193
	42.285000	-0.924853
	42.290000	-1.011884
	42.295000	-1.028001
	42.300000	-0.957087
	42.305000	-0.937747
	42.310000	-1.015107
	42.315000	-1.040894
	42.320000	-0.969980
	42.325000	-0.947417
	42.330000	-1.040894
	42.335000	-1.063458
	42.340000	-0.986097
	42.345000	-0.963534
	42.350000	-1.060234
	42.355000	-1.076351
	42.360000	-1.008661
	42.365000	-0.995767
	42.370000	-1.086021
	42.375000	-1.115031
	42.380000	-1.057011
	42.385000	-1.040894
	42.390000	-1.137595
	42.395000	-1.176275
	42.400000	-1.127925
	42.405000	-1.127925
	42.410000	-1.243966
	42.415000	-1.292316
	42.420000	-1.243966
	42.425000	-1.256859
	42.430000	-1.376124
	42.435000	-1.418027
	42.440000	-1.363230
	42.445000	-1.363230
	42.450000	-1.466378
	42.455000	-1.508281
	42.460000	-1.437367
	42.465000	-1.430921
	42.470000	-1.524398
	42.475000	-1.556632
	42.480000	-1.479271
	42.485000	-1.459931
	42.490000	-1.566302
	42.495000	-1.592089
	42.500000	-1.517951
	42.505000	-1.492164
	42.510000	-1.585642
	42.515000	-1.617875
	42.520000	-1.540515
	42.525000	-1.521175
	42.530000	-1.604982
	42.535000	-1.650109
	42.540000	-1.559855
	42.545000	-1.537291
	42.550000	-1.624322
	42.555000	-1.659779
	42.560000	-1.575972
	42.565000	-1.546962
	42.570000	-1.630769
	42.575000	-1.666226
	42.580000	-1.582418
	42.585000	-1.553408
	42.590000	-1.643662
	42.595000	-1.669449
	42.600000	-1.582418
	42.605000	-1.546962
	42.610000	-1.640439
	42.615000	-1.672673
	42.620000	-1.585642
	42.625000	-1.550185
	42.630000	-1.643662
	42.635000	-1.672673
	42.640000	-1.579195
	42.645000	-1.550185
	42.650000	-1.637216
	42.655000	-1.672673
	42.660000	-1.582418
	42.665000	-1.553408
	42.670000	-1.640439
	42.675000	-1.666226
	42.680000	-1.582418
	42.685000	-1.553408
	42.690000	-1.630769
	42.695000	-1.659779
	42.700000	-1.575972
	42.705000	-1.543738
	42.710000	-1.637216
	42.715000	-1.659779
	42.720000	-1.572748
	42.725000	-1.543738
	42.730000	-1.617875
	42.735000	-1.653332
	42.740000	-1.566302
	42.745000	-1.543738
	42.750000	-1.627546
	42.755000	-1.650109
	42.760000	-1.569525
	42.765000	-1.540515
	42.770000	-1.624322
	42.775000	-1.646886
	42.780000	-1.572748
	42.785000	-1.530845
	42.790000	-1.621099
	42.795000	-1.650109
	42.800000	-1.566302
	42.805000	-1.534068
	42.810000	-1.621099
	42.815000	-1.659779
	42.820000	-1.569525
	42.825000	-1.546962
	42.830000	-1.627546
	42.835000	-1.663002
	42.840000	-1.579195
	42.845000	-1.553408
	42.850000	-1.637216
	42.855000	-1.672673
	42.860000	-1.585642
	42.865000	-1.553408
	42.870000	-1.643662
	42.875000	-1.679119
	42.880000	-1.592089
	42.885000	-1.559855
	42.890000	-1.653332
	42.895000	-1.679119
	42.900000	-1.598535
	42.905000	-1.572748
	42.910000	-1.643662
	42.915000	-1.675896
	42.920000	-1.588865
	42.925000	-1.563078
	42.930000	-1.633992
	42.935000	-1.663002
	42.940000	-1.582418
	42.945000	-1.543738
	42.950000	-1.621099
	42.955000	-1.656556
	42.960000	-1.566302
	42.965000	-1.527621
	42.970000	-1.604982
	42.975000	-1.637216
	42.980000	-1.550185
	42.985000	-1.505058
	42.990000	-1.588865
	42.995000	-1.617875
	43.000000	-1.540515
	43.005000	-1.492164
	43.010000	-1.572748
	43.015000	-1.601759
	43.020000	-1.517951
	43.025000	-1.479271
	43.030000	-1.556632
	43.035000	-1.582418
	43.040000	-1.498611
	43.045000	-1.456707
	43.050000	-1.537291
	43.055000	-1.572748
	43.060000	-1.488941
	43.065000	-1.456707
	43.070000	-1.527621
	43.075000	-1.563078
	43.080000	-1.479271
	43.085000	-1.440591
	43.090000	-1.521175
	43.095000	-1.563078
	43.100000	-1.479271
	43.105000	-1.440591
	43.110000	-1.527621
	43.115000	-1.566302
	43.120000	-1.479271
	43.125000	-1.447037
	43.130000	-1.530845
	43.135000	-1.575972
	43.140000	-1.485718
	43.145000	-1.447037
	43.150000	-1.530845
	43.155000	-1.569525
	43.160000	-1.482494
	43.165000	-1.437367
	43.170000	-1.521175
	43.175000	-1.543738
	43.180000	-1.453484
	43.185000	-1.392240
	43.190000	-1.469601
	43.195000	-1.495388
	43.200000	-1.392240
	43.205000	-1.350337
	43.210000	-1.414804
	43.215000	-1.447037
	43.220000	-1.353560
	43.225000	-1.308433
	43.230000	-1.382570
	43.235000	-1.414804
	43.240000	-1.327773
	43.245000	-1.292316
	43.250000	-1.366453
	43.255000	-1.405134
	43.260000	-1.318103
	43.265000	-1.272976
	43.270000	-1.363230
	43.275000	-1.395464
	43.280000	-1.314880
	43.285000	-1.282646
	43.290000	-1.363230
	43.295000	-1.398687
	43.300000	-1.321326
	43.305000	-1.272976
	43.310000	-1.353560
	43.315000	-1.392240
	43.320000	-1.308433
	43.325000	-1.263306
	43.330000	-1.343890
	43.335000	-1.382570
	43.340000	-1.301986
	43.345000	-1.250413
	43.350000	-1.327773
	43.355000	-1.366453
	43.360000	-1.285869
	43.365000	-1.237519
	43.370000	-1.308433
	43.375000	-1.343890
	43.380000	-1.266529
	43.385000	-1.211732
	43.390000	-1.295540
	43.395000	-1.327773
	43.400000	-1.247189
	43.405000	-1.195615
	43.410000	-1.282646
	43.415000	-1.318103
	43.420000	-1.237519
	43.425000	-1.202062
	43.430000	-1.276199
	43.435000	-1.318103
	43.440000	-1.237519
	43.445000	-1.189169
	43.450000	-1.276199
	43.455000	-1.314880
	43.460000	-1.231072
	43.465000	-1.195615
	43.470000	-1.266529
	43.475000	-1.308433
	43.480000	-1.234296
	43.485000	-1.189169
	43.490000	-1.266529
	43.495000	-1.308433
	43.500000	-1.224626
	43.505000	-1.182722
	43.510000	-1.263306
	43.515000	-1.308433
	43.520000	-1.224626
	43.525000	-1.185945
	43.530000	-1.266529
	43.535000	-1.318103
	43.540000	-1.231072
	43.545000	-1.189169
	43.550000	-1.269753
	43.555000	-1.314880
	43.560000	-1.240742
	43.565000	-1.185945
	43.570000	-1.263306
	43.575000	-1.324550
	43.580000	-1.234296
	43.585000	-1.189169
	43.590000	-1.269753
	43.595000	-1.318103
	43.600000	-1.243966
	43.605000	-1.198839
	43.610000	-1.269753
	43.615000	-1.324550
	43.620000	-1.250413
	43.625000	-1.192392
	43.630000	-1.276199
	43.635000	-1.324550
	43.640000	-1.237519
	43.645000	-1.195615
	43.650000	-1.272976
	43.655000	-1.327773
	43.660000	-1.247189
	43.665000	-1.205285
	43.670000	-1.279423
	43.675000	-1.334220
	43.680000	-1.250413
	43.685000	-1.211732
	43.690000	-1.295540
	43.695000	-1.343890
	43.700000	-1.276199
	43.705000	-1.237519
	43.710000	-1.314880
	43.715000	-1.372900
	43.720000	-1.301986
	43.725000	-1.250413
	43.730000	-1.343890
	43.735000	-1.398687
	43.740000	-1.318103
	43.745000	-1.279423
	43.750000	-1.363230
	43.755000	-1.424474
	43.760000	-1.347113
	43.765000	-1.305210
	43.770000	-1.398687
	43.775000	-1.450261
	43.780000	-1.379347
	43.785000	-1.330996
	43.790000	-1.418027
	43.795000	-1.472824
	43.800000	-1.395464
	43.805000	-1.363230
	43.810000	-1.430921
	43.815000	-1.492164
	43.820000	-1.414804
	43.825000	-1.385794
	43.830000	-1.463154
	43.835000	-1.511505
	43.840000	-1.437367
	43.845000	-1.392240
	43.850000	-1.476048
	43.855000	-1.534068
	43.860000	-1.463154
	43.865000	-1.418027
	43.870000	-1.492164
	43.875000	-1.553408
	43.880000	-1.476048
	43.885000	-1.421251
	43.890000	-1.514728
	43.895000	-1.572748
	43.900000	-1.495388
	43.905000	-1.447037
	43.910000	-1.524398
	43.915000	-1.588865
	43.920000	-1.508281
	43.925000	-1.466378
	43.930000	-1.550185
	43.935000	-1.604982
	43.940000	-1.530845
	43.945000	-1.482494
	43.950000	-1.566302
	43.955000	-1.624322
	43.960000	-1.543738
	43.965000	-1.498611
	43.970000	-1.572748
	43.975000	-1.633992
	43.980000	-1.569525
	43.985000	-1.514728
	43.990000	-1.598535
	43.995000	-1.646886
	44.000000	-1.579195
	44.005000	-1.537291
	44.010000	-1.608205
	44.015000	-1.669449
	44.020000	-1.598535
	44.025000	-1.556632
	44.030000	-1.624322
	44.035000	-1.688789
	44.040000	-1.611429
	44.045000	-1.566302
	44.050000	-1.643662
	44.055000	-1.701683
	44.060000	-1.633992
	44.065000	-1.582418
	44.070000	-1.656556
	44.075000	-1.711353
	44.080000	-1.646886
	44.085000	-1.595312
	44.090000	-1.672673
	44.095000	-1.737140
	44.100000	-1.659779
	44.105000	-1.611429
	44.110000	-1.692013
	44.115000	-1.753257
	44.120000	-1.675896
	44.125000	-1.624322
	44.130000	-1.698459
	44.135000	-1.762927
	44.140000	-1.695236
	44.145000	-1.643662
	44.150000	-1.714576
	44.155000	-1.779043
	44.160000	-1.708129
	44.165000	-1.656556
	44.170000	-1.730693
	44.175000	-1.785490
	44.180000	-1.717800
	44.185000	-1.666226
	44.190000	-1.740363
	44.195000	-1.804830
	44.200000	-1.737140
	44.205000	-1.682343
	44.210000	-1.756480
	44.215000	-1.817724
	44.220000	-1.743586
	44.225000	-1.695236
	44.230000	-1.775820
	44.235000	-1.833840
	44.240000	-1.759703
	44.245000	-1.708129
	44.250000	-1.788713
	44.255000	-1.840287
	44.260000	-1.779043
	44.265000	-1.724246
	44.270000	-1.804830
	44.275000	-1.856404
	44.280000	-1.791937
	44.285000	-1.733916
	44.290000	-1.811277
	44.295000	-1.872521
	44.300000	-1.808054
	44.305000	-1.753257
	44.310000	-1.837064
	44.315000	-1.891861
	44.320000	-1.817724
	44.325000	-1.769373
	44.330000	-1.846734
	44.335000	-1.914424
	44.340000	-1.843511
	44.345000	-1.795160
	44.350000	-1.869297
	44.355000	-1.920871
	44.360000	-1.859627
	44.365000	-1.798384
	44.370000	-1.872521
	44.375000	-1.936988
	44.380000	-1.869297
	44.385000	-1.814500
	44.390000	-1.888638
	44.395000	-1.946658
	44.400000	-1.882191
	44.405000	-1.830617
	44.410000	-1.901531
	44.415000	-1.962775
	44.420000	-1.895084
	44.425000	-1.837064
	44.430000	-1.914424
	44.435000	-1.972445
	44.440000	-1.907978
	44.445000	-1.849957
	44.450000	-1.927318
	44.455000	-1.991785
	44.460000	-1.920871
	44.465000	-1.872521
	44.470000	-1.943435
	44.475000	-2.004679
	44.480000	-1.933765
	44.485000	-1.885414
	44.490000	-1.965998
	44.495000	-2.017572
	44.500000	-1.956328
	44.505000	-1.901531
	44.510000	-1.982115
	44.515000	-2.043359
	44.520000	-1.982115
	44.525000	-1.920871
	44.530000	-1.998232
	44.535000	-2.059476
	44.540000	-1.998232
	44.545000	-1.936988
	44.550000	-2.014349
	44.555000	-2.075592
	44.560000	-2.011125
	44.565000	-1.959551
	44.570000	-2.024019
	44.575000	-2.098156
	44.580000	-2.027242
	44.585000	-1.972445
	44.590000	-2.046582
	44.595000	-2.104603
	44.600000	-2.046582
	44.605000	-1.988562
	44.610000	-2.062699
	44.615000	-2.120719
	44.620000	-2.059476
	44.625000	-2.004679
	44.630000	-2.069146
	44.635000	-2.133613
	44.640000	-2.069146
	44.645000	-2.011125
	44.650000	-2.082039
	44.655000	-2.149730
	44.660000	-2.082039
	44.665000	-2.024019
	44.670000	-2.094933
	44.675000	-2.162623
	44.680000	-2.098156
	44.685000	-2.033689
	44.690000	-2.101379
	44.695000	-2.169070
	44.700000	-2.101379
	44.705000	-2.040135
	44.710000	-2.107826
	44.715000	-2.172293
	44.720000	-2.104603
	44.725000	-2.049806
	44.730000	-2.107826
	44.735000	-2.178740
	44.740000	-2.120719
	44.745000	-2.053029
	44.750000	-2.127166
	44.755000	-2.185187
	44.760000	-2.123943
	44.765000	-2.062699
	44.770000	-2.123943
	44.775000	-2.198080
	44.780000	-2.120719
	44.785000	-2.059476
	44.790000	-2.127166
	44.795000	-2.191633
	44.800000	-2.127166
	44.805000	-2.062699
	44.810000	-2.130390
	44.815000	-2.201303
	44.820000	-2.130390
	44.825000	-2.062699
	44.830000	-2.127166
	44.835000	-2.201303
	44.840000	-2.133613
	44.845000	-2.072369
	44.850000	-2.127166
	44.855000	-2.191633
	44.860000	-2.127166
	44.865000	-2.069146
	44.870000	-2.136836
	44.875000	-2.194857
	44.880000	-2.136836
	44.885000	-2.069146
	44.890000	-2.133613
	44.895000	-2.201303
	44.900000	-2.133613
	44.905000	-2.069146
	44.910000	-2.136836
	44.915000	-2.194857
	44.920000	-2.130390
	44.925000	-2.069146
	44.930000	-2.140060
	44.935000	-2.198080
	44.940000	-2.136836
	44.945000	-2.075592
	44.950000	-2.133613
	44.955000	-2.201303
	44.960000	-2.136836
	44.965000	-2.069146
	44.970000	-2.130390
	44.975000	-2.204527
	44.980000	-2.136836
	44.985000	-2.072369
	44.990000	-2.133613
	44.995000	-2.198080
	45.000000	-2.140060
	45.005000	-2.065922
	45.010000	-2.127166
	45.015000	-2.194857
	45.020000	-2.127166
