2024/7/11 	 16:16:06 
 This file comes from Vt only measurement 	 1.000000E-1 
 Voltage Sensitivity 	 0.000000E+0 
 Sampling rate 	 200 
 Number of samples per channel 	 -1 
 No filter from Labview 	 	 	 
 	 
 ***End_of_Header*** 
 	 Time 	  Voltage 	 Filtered Voltage 	 
	0.000000	-1.053788
	0.005000	-1.127925
	0.010000	-1.185945
	0.015000	-1.115031
	0.020000	-1.047341
	0.025000	-1.124702
	0.030000	-1.182722
	0.035000	-1.108585
	0.040000	-1.053788
	0.045000	-1.121478
	0.050000	-1.176275
	0.055000	-1.105361
	0.060000	-1.047341
	0.065000	-1.121478
	0.070000	-1.176275
	0.075000	-1.108585
	0.080000	-1.050564
	0.085000	-1.118255
	0.090000	-1.176275
	0.095000	-1.102138
	0.100000	-1.037671
	0.105000	-1.111808
	0.110000	-1.173052
	0.115000	-1.095691
	0.120000	-1.034447
	0.125000	-1.102138
	0.130000	-1.163382
	0.135000	-1.089245
	0.140000	-1.024777
	0.145000	-1.102138
	0.150000	-1.150488
	0.155000	-1.082798
	0.160000	-1.018331
	0.165000	-1.095691
	0.170000	-1.144042
	0.175000	-1.073128
	0.180000	-1.011884
	0.185000	-1.086021
	0.190000	-1.140818
	0.195000	-1.073128
	0.200000	-1.005437
	0.205000	-1.089245
	0.210000	-1.140818
	0.215000	-1.069904
	0.220000	-0.998991
	0.225000	-1.079574
	0.230000	-1.140818
	0.235000	-1.060234
	0.240000	-0.992544
	0.245000	-1.076351
	0.250000	-1.127925
	0.255000	-1.057011
	0.260000	-1.002214
	0.265000	-1.073128
	0.270000	-1.131148
	0.275000	-1.050564
	0.280000	-0.992544
	0.285000	-1.063458
	0.290000	-1.121478
	0.295000	-1.047341
	0.300000	-0.992544
	0.305000	-1.063458
	0.310000	-1.121478
	0.315000	-1.044118
	0.320000	-0.982874
	0.325000	-1.066681
	0.330000	-1.118255
	0.335000	-1.044118
	0.340000	-0.982874
	0.345000	-1.053788
	0.350000	-1.115031
	0.355000	-1.037671
	0.360000	-0.982874
	0.365000	-1.060234
	0.370000	-1.111808
	0.375000	-1.034447
	0.380000	-0.979650
	0.385000	-1.053788
	0.390000	-1.108585
	0.395000	-1.031224
	0.400000	-0.979650
	0.405000	-1.053788
	0.410000	-1.105361
	0.415000	-1.024777
	0.420000	-0.976427
	0.425000	-1.050564
	0.430000	-1.105361
	0.435000	-1.028001
	0.440000	-0.973204
	0.445000	-1.044118
	0.450000	-1.105361
	0.455000	-1.024777
	0.460000	-0.960310
	0.465000	-1.044118
	0.470000	-1.095691
	0.475000	-1.021554
	0.480000	-0.969980
	0.485000	-1.037671
	0.490000	-1.095691
	0.495000	-1.015107
	0.500000	-0.966757
	0.505000	-1.044118
	0.510000	-1.089245
	0.515000	-1.011884
	0.520000	-0.957087
	0.525000	-1.037671
	0.530000	-1.086021
	0.535000	-1.008661
	0.540000	-0.957087
	0.545000	-1.034447
	0.550000	-1.086021
	0.555000	-1.002214
	0.560000	-0.944193
	0.565000	-1.028001
	0.570000	-1.082798
	0.575000	-1.005437
	0.580000	-0.944193
	0.585000	-1.024777
	0.590000	-1.082798
	0.595000	-0.995767
	0.600000	-0.947417
	0.605000	-1.021554
	0.610000	-1.069904
	0.615000	-0.995767
	0.620000	-0.940970
	0.625000	-1.018331
	0.630000	-1.069904
	0.635000	-0.995767
	0.640000	-0.940970
	0.645000	-1.011884
	0.650000	-1.076351
	0.655000	-0.992544
	0.660000	-0.934523
	0.665000	-1.011884
	0.670000	-1.069904
	0.675000	-0.986097
	0.680000	-0.928077
	0.685000	-1.008661
	0.690000	-1.057011
	0.695000	-0.986097
	0.700000	-0.928077
	0.705000	-1.005437
	0.710000	-1.060234
	0.715000	-0.979650
	0.720000	-0.928077
	0.725000	-1.005437
	0.730000	-1.053788
	0.735000	-0.976427
	0.740000	-0.918407
	0.745000	-0.998991
	0.750000	-1.053788
	0.755000	-0.979650
	0.760000	-0.918407
	0.765000	-0.992544
	0.770000	-1.044118
	0.775000	-0.969980
	0.780000	-0.908736
	0.785000	-0.989320
	0.790000	-1.040894
	0.795000	-0.973204
	0.800000	-0.918407
	0.805000	-0.995767
	0.810000	-1.037671
	0.815000	-0.963534
	0.820000	-0.918407
	0.825000	-0.992544
	0.830000	-1.037671
	0.835000	-0.963534
	0.840000	-0.908736
	0.845000	-0.979650
	0.850000	-1.031224
	0.855000	-0.957087
	0.860000	-0.905513
	0.865000	-0.986097
	0.870000	-1.037671
	0.875000	-0.960310
	0.880000	-0.905513
	0.885000	-0.979650
	0.890000	-1.031224
	0.895000	-0.947417
	0.900000	-0.886173
	0.905000	-0.973204
	0.910000	-1.031224
	0.915000	-0.944193
	0.920000	-0.892620
	0.925000	-0.969980
	0.930000	-1.021554
	0.935000	-0.940970
	0.940000	-0.886173
	0.945000	-0.966757
	0.950000	-1.015107
	0.955000	-0.937747
	0.960000	-0.889396
	0.965000	-0.966757
	0.970000	-1.011884
	0.975000	-0.934523
	0.980000	-0.895843
	0.985000	-0.966757
	0.990000	-1.021554
	0.995000	-0.940970
	1.000000	-0.895843
	1.005000	-0.973204
	1.010000	-1.018331
	1.015000	-0.944193
	1.020000	-0.892620
	1.025000	-0.973204
	1.030000	-1.024777
	1.035000	-0.957087
	1.040000	-0.895843
	1.045000	-0.979650
	1.050000	-1.034447
	1.055000	-0.957087
	1.060000	-0.905513
	1.065000	-0.979650
	1.070000	-1.028001
	1.075000	-0.957087
	1.080000	-0.905513
	1.085000	-0.982874
	1.090000	-1.040894
	1.095000	-0.953863
	1.100000	-0.902290
	1.105000	-0.986097
	1.110000	-1.040894
	1.115000	-0.960310
	1.120000	-0.908736
	1.125000	-0.989320
	1.130000	-1.034447
	1.135000	-0.960310
	1.140000	-0.911960
	1.145000	-0.992544
	1.150000	-1.040894
	1.155000	-0.960310
	1.160000	-0.911960
	1.165000	-0.995767
	1.170000	-1.040894
	1.175000	-0.966757
	1.180000	-0.908736
	1.185000	-0.995767
	1.190000	-1.044118
	1.195000	-0.963534
	1.200000	-0.911960
	1.205000	-0.992544
	1.210000	-1.037671
	1.215000	-0.950640
	1.220000	-0.905513
	1.225000	-0.986097
	1.230000	-1.031224
	1.235000	-0.947417
	1.240000	-0.899066
	1.245000	-0.982874
	1.250000	-1.028001
	1.255000	-0.947417
	1.260000	-0.895843
	1.265000	-0.973204
	1.270000	-1.018331
	1.275000	-0.934523
	1.280000	-0.882950
	1.285000	-0.950640
	1.290000	-1.005437
	1.295000	-0.918407
	1.300000	-0.866833
	1.305000	-0.928077
	1.310000	-0.982874
	1.315000	-0.889396
	1.320000	-0.837823
	1.325000	-0.915183
	1.330000	-0.947417
	1.335000	-0.870056
	1.340000	-0.821706
	1.345000	-0.892620
	1.350000	-0.934523
	1.355000	-0.844269
	1.360000	-0.799142
	1.365000	-0.876503
	1.370000	-0.905513
	1.375000	-0.828152
	1.380000	-0.770132
	1.385000	-0.844269
	1.390000	-0.886173
	1.395000	-0.792696
	1.400000	-0.754015
	1.405000	-0.815259
	1.410000	-0.853939
	1.415000	-0.773355
	1.420000	-0.728228
	1.425000	-0.799142
	1.430000	-0.841046
	1.435000	-0.760462
	1.440000	-0.708888
	1.445000	-0.786249
	1.450000	-0.831376
	1.455000	-0.741122
	1.460000	-0.695995
	1.465000	-0.776579
	1.470000	-0.815259
	1.475000	-0.741122
	1.480000	-0.692771
	1.485000	-0.766909
	1.490000	-0.808812
	1.495000	-0.731452
	1.500000	-0.689548
	1.505000	-0.766909
	1.510000	-0.805589
	1.515000	-0.718558
	1.520000	-0.679878
	1.525000	-0.763685
	1.530000	-0.805589
	1.535000	-0.725005
	1.540000	-0.686325
	1.545000	-0.763685
	1.550000	-0.799142
	1.555000	-0.721782
	1.560000	-0.686325
	1.565000	-0.760462
	1.570000	-0.805589
	1.575000	-0.728228
	1.580000	-0.692771
	1.585000	-0.766909
	1.590000	-0.805589
	1.595000	-0.734675
	1.600000	-0.692771
	1.605000	-0.776579
	1.610000	-0.815259
	1.615000	-0.737898
	1.620000	-0.695995
	1.625000	-0.779802
	1.630000	-0.824929
	1.635000	-0.747569
	1.640000	-0.708888
	1.645000	-0.792696
	1.650000	-0.841046
	1.655000	-0.760462
	1.660000	-0.721782
	1.665000	-0.799142
	1.670000	-0.847493
	1.675000	-0.776579
	1.680000	-0.741122
	1.685000	-0.831376
	1.690000	-0.879726
	1.695000	-0.812036
	1.700000	-0.770132
	1.705000	-0.857163
	1.710000	-0.918407
	1.715000	-0.841046
	1.720000	-0.805589
	1.725000	-0.899066
	1.730000	-0.953863
	1.735000	-0.886173
	1.740000	-0.847493
	1.745000	-0.931300
	1.750000	-0.982874
	1.755000	-0.908736
	1.760000	-0.870056
	1.765000	-0.953863
	1.770000	-0.998991
	1.775000	-0.915183
	1.780000	-0.870056
	1.785000	-0.957087
	1.790000	-0.992544
	1.795000	-0.908736
	1.800000	-0.873280
	1.805000	-0.950640
	1.810000	-0.989320
	1.815000	-0.905513
	1.820000	-0.853939
	1.825000	-0.937747
	1.830000	-0.973204
	1.835000	-0.889396
	1.840000	-0.847493
	1.845000	-0.924853
	1.850000	-0.957087
	1.855000	-0.870056
	1.860000	-0.828152
	1.865000	-0.905513
	1.870000	-0.947417
	1.875000	-0.853939
	1.880000	-0.812036
	1.885000	-0.895843
	1.890000	-0.921630
	1.895000	-0.847493
	1.900000	-0.799142
	1.905000	-0.876503
	1.910000	-0.918407
	1.915000	-0.821706
	1.920000	-0.783025
	1.925000	-0.863609
	1.930000	-0.895843
	1.935000	-0.805589
	1.940000	-0.773355
	1.945000	-0.860386
	1.950000	-0.895843
	1.955000	-0.802366
	1.960000	-0.763685
	1.965000	-0.841046
	1.970000	-0.886173
	1.975000	-0.795919
	1.980000	-0.757239
	1.985000	-0.841046
	1.990000	-0.879726
	1.995000	-0.792696
	2.000000	-0.757239
	2.005000	-0.837823
	2.010000	-0.882950
	2.015000	-0.792696
	2.020000	-0.754015
	2.025000	-0.837823
	2.030000	-0.873280
	2.035000	-0.792696
	2.040000	-0.757239
	2.045000	-0.841046
	2.050000	-0.882950
	2.055000	-0.795919
	2.060000	-0.760462
	2.065000	-0.844269
	2.070000	-0.886173
	2.075000	-0.802366
	2.080000	-0.760462
	2.085000	-0.847493
	2.090000	-0.889396
	2.095000	-0.812036
	2.100000	-0.773355
	2.105000	-0.857163
	2.110000	-0.895843
	2.115000	-0.808812
	2.120000	-0.783025
	2.125000	-0.866833
	2.130000	-0.902290
	2.135000	-0.821706
	2.140000	-0.789472
	2.145000	-0.876503
	2.150000	-0.908736
	2.155000	-0.824929
	2.160000	-0.792696
	2.165000	-0.879726
	2.170000	-0.918407
	2.175000	-0.834599
	2.180000	-0.802366
	2.185000	-0.889396
	2.190000	-0.928077
	2.195000	-0.841046
	2.200000	-0.802366
	2.205000	-0.892620
	2.210000	-0.928077
	2.215000	-0.847493
	2.220000	-0.812036
	2.225000	-0.895843
	2.230000	-0.931300
	2.235000	-0.841046
	2.240000	-0.805589
	2.245000	-0.895843
	2.250000	-0.931300
	2.255000	-0.844269
	2.260000	-0.815259
	2.265000	-0.889396
	2.270000	-0.928077
	2.275000	-0.844269
	2.280000	-0.808812
	2.285000	-0.892620
	2.290000	-0.924853
	2.295000	-0.841046
	2.300000	-0.799142
	2.305000	-0.889396
	2.310000	-0.928077
	2.315000	-0.844269
	2.320000	-0.808812
	2.325000	-0.892620
	2.330000	-0.921630
	2.335000	-0.834599
	2.340000	-0.799142
	2.345000	-0.889396
	2.350000	-0.918407
	2.355000	-0.844269
	2.360000	-0.805589
	2.365000	-0.895843
	2.370000	-0.924853
	2.375000	-0.844269
	2.380000	-0.802366
	2.385000	-0.892620
	2.390000	-0.918407
	2.395000	-0.837823
	2.400000	-0.802366
	2.405000	-0.886173
	2.410000	-0.921630
	2.415000	-0.834599
	2.420000	-0.799142
	2.425000	-0.886173
	2.430000	-0.915183
	2.435000	-0.831376
	2.440000	-0.799142
	2.445000	-0.882950
	2.450000	-0.918407
	2.455000	-0.831376
	2.460000	-0.792696
	2.465000	-0.886173
	2.470000	-0.918407
	2.475000	-0.828152
	2.480000	-0.792696
	2.485000	-0.879726
	2.490000	-0.911960
	2.495000	-0.821706
	2.500000	-0.789472
	2.505000	-0.879726
	2.510000	-0.908736
	2.515000	-0.824929
	2.520000	-0.789472
	2.525000	-0.882950
	2.530000	-0.915183
	2.535000	-0.824929
	2.540000	-0.792696
	2.545000	-0.879726
	2.550000	-0.915183
	2.555000	-0.828152
	2.560000	-0.792696
	2.565000	-0.873280
	2.570000	-0.911960
	2.575000	-0.818482
	2.580000	-0.779802
	2.585000	-0.879726
	2.590000	-0.908736
	2.595000	-0.821706
	2.600000	-0.789472
	2.605000	-0.873280
	2.610000	-0.905513
	2.615000	-0.821706
	2.620000	-0.786249
	2.625000	-0.876503
	2.630000	-0.902290
	2.635000	-0.815259
	2.640000	-0.783025
	2.645000	-0.873280
	2.650000	-0.911960
	2.655000	-0.821706
	2.660000	-0.792696
	2.665000	-0.879726
	2.670000	-0.908736
	2.675000	-0.824929
	2.680000	-0.789472
	2.685000	-0.876503
	2.690000	-0.908736
	2.695000	-0.821706
	2.700000	-0.786249
	2.705000	-0.879726
	2.710000	-0.911960
	2.715000	-0.818482
	2.720000	-0.792696
	2.725000	-0.879726
	2.730000	-0.911960
	2.735000	-0.818482
	2.740000	-0.789472
	2.745000	-0.879726
	2.750000	-0.908736
	2.755000	-0.818482
	2.760000	-0.786249
	2.765000	-0.879726
	2.770000	-0.908736
	2.775000	-0.821706
	2.780000	-0.789472
	2.785000	-0.882950
	2.790000	-0.908736
	2.795000	-0.824929
	2.800000	-0.795919
	2.805000	-0.882950
	2.810000	-0.908736
	2.815000	-0.815259
	2.820000	-0.792696
	2.825000	-0.876503
	2.830000	-0.908736
	2.835000	-0.818482
	2.840000	-0.792696
	2.845000	-0.876503
	2.850000	-0.908736
	2.855000	-0.821706
	2.860000	-0.789472
	2.865000	-0.876503
	2.870000	-0.908736
	2.875000	-0.815259
	2.880000	-0.792696
	2.885000	-0.876503
	2.890000	-0.905513
	2.895000	-0.821706
	2.900000	-0.792696
	2.905000	-0.882950
	2.910000	-0.908736
	2.915000	-0.821706
	2.920000	-0.792696
	2.925000	-0.876503
	2.930000	-0.908736
	2.935000	-0.821706
	2.940000	-0.786249
	2.945000	-0.879726
	2.950000	-0.911960
	2.955000	-0.821706
	2.960000	-0.789472
	2.965000	-0.889396
	2.970000	-0.911960
	2.975000	-0.821706
	2.980000	-0.789472
	2.985000	-0.876503
	2.990000	-0.908736
	2.995000	-0.821706
	3.000000	-0.789472
	3.005000	-0.879726
	3.010000	-0.902290
	3.015000	-0.815259
	3.020000	-0.789472
	3.025000	-0.879726
	3.030000	-0.902290
	3.035000	-0.821706
	3.040000	-0.789472
	3.045000	-0.879726
	3.050000	-0.915183
	3.055000	-0.818482
	3.060000	-0.792696
	3.065000	-0.886173
	3.070000	-0.911960
	3.075000	-0.818482
	3.080000	-0.789472
	3.085000	-0.882950
	3.090000	-0.905513
	3.095000	-0.815259
	3.100000	-0.786249
	3.105000	-0.873280
	3.110000	-0.895843
	3.115000	-0.808812
	3.120000	-0.779802
	3.125000	-0.870056
	3.130000	-0.892620
	3.135000	-0.808812
	3.140000	-0.773355
	3.145000	-0.866833
	3.150000	-0.889396
	3.155000	-0.799142
	3.160000	-0.773355
	3.165000	-0.870056
	3.170000	-0.882950
	3.175000	-0.795919
	3.180000	-0.766909
	3.185000	-0.860386
	3.190000	-0.882950
	3.195000	-0.792696
	3.200000	-0.760462
	3.205000	-0.853939
	3.210000	-0.882950
	3.215000	-0.789472
	3.220000	-0.766909
	3.225000	-0.853939
	3.230000	-0.876503
	3.235000	-0.792696
	3.240000	-0.763685
	3.245000	-0.850716
	3.250000	-0.879726
	3.255000	-0.783025
	3.260000	-0.763685
	3.265000	-0.853939
	3.270000	-0.876503
	3.275000	-0.786249
	3.280000	-0.757239
	3.285000	-0.857163
	3.290000	-0.876503
	3.295000	-0.786249
	3.300000	-0.766909
	3.305000	-0.853939
	3.310000	-0.879726
	3.315000	-0.792696
	3.320000	-0.766909
	3.325000	-0.863609
	3.330000	-0.886173
	3.335000	-0.805589
	3.340000	-0.770132
	3.345000	-0.863609
	3.350000	-0.892620
	3.355000	-0.802366
	3.360000	-0.779802
	3.365000	-0.870056
	3.370000	-0.895843
	3.375000	-0.799142
	3.380000	-0.779802
	3.385000	-0.873280
	3.390000	-0.895843
	3.395000	-0.808812
	3.400000	-0.789472
	3.405000	-0.873280
	3.410000	-0.892620
	3.415000	-0.805589
	3.420000	-0.789472
	3.425000	-0.886173
	3.430000	-0.902290
	3.435000	-0.812036
	3.440000	-0.783025
	3.445000	-0.876503
	3.450000	-0.892620
	3.455000	-0.802366
	3.460000	-0.776579
	3.465000	-0.866833
	3.470000	-0.892620
	3.475000	-0.795919
	3.480000	-0.766909
	3.485000	-0.853939
	3.490000	-0.876503
	3.495000	-0.779802
	3.500000	-0.744345
	3.505000	-0.841046
	3.510000	-0.850716
	3.515000	-0.750792
	3.520000	-0.725005
	3.525000	-0.812036
	3.530000	-0.828152
	3.535000	-0.741122
	3.540000	-0.705665
	3.545000	-0.799142
	3.550000	-0.812036
	3.555000	-0.725005
	3.560000	-0.692771
	3.565000	-0.779802
	3.570000	-0.799142
	3.575000	-0.699218
	3.580000	-0.676655
	3.585000	-0.763685
	3.590000	-0.779802
	3.595000	-0.689548
	3.600000	-0.660538
	3.605000	-0.750792
	3.610000	-0.766909
	3.615000	-0.670208
	3.620000	-0.647644
	3.625000	-0.728228
	3.630000	-0.747569
	3.635000	-0.666985
	3.640000	-0.631528
	3.645000	-0.718558
	3.650000	-0.744345
	3.655000	-0.654091
	3.660000	-0.621858
	3.665000	-0.715335
	3.670000	-0.734675
	3.675000	-0.644421
	3.680000	-0.621858
	3.685000	-0.712112
	3.690000	-0.728228
	3.695000	-0.641198
	3.700000	-0.621858
	3.705000	-0.708888
	3.710000	-0.728228
	3.715000	-0.644421
	3.720000	-0.625081
	3.725000	-0.715335
	3.730000	-0.731452
	3.735000	-0.644421
	3.740000	-0.625081
	3.745000	-0.725005
	3.750000	-0.747569
	3.755000	-0.644421
	3.760000	-0.637974
	3.765000	-0.734675
	3.770000	-0.757239
	3.775000	-0.666985
	3.780000	-0.650868
	3.785000	-0.741122
	3.790000	-0.770132
	3.795000	-0.686325
	3.800000	-0.670208
	3.805000	-0.773355
	3.810000	-0.792696
	3.815000	-0.715335
	3.820000	-0.702441
	3.825000	-0.802366
	3.830000	-0.824929
	3.835000	-0.744345
	3.840000	-0.731452
	3.845000	-0.821706
	3.850000	-0.847493
	3.855000	-0.763685
	3.860000	-0.750792
	3.865000	-0.837823
	3.870000	-0.860386
	3.875000	-0.770132
	3.880000	-0.750792
	3.885000	-0.844269
	3.890000	-0.860386
	3.895000	-0.773355
	3.900000	-0.747569
	3.905000	-0.837823
	3.910000	-0.850716
	3.915000	-0.757239
	3.920000	-0.744345
	3.925000	-0.824929
	3.930000	-0.841046
	3.935000	-0.744345
	3.940000	-0.725005
	3.945000	-0.805589
	3.950000	-0.821706
	3.955000	-0.728228
	3.960000	-0.702441
	3.965000	-0.792696
	3.970000	-0.805589
	3.975000	-0.699218
	3.980000	-0.689548
	3.985000	-0.773355
	3.990000	-0.783025
	3.995000	-0.692771
	4.000000	-0.670208
	4.005000	-0.757239
	4.010000	-0.770132
	4.015000	-0.683101
	4.020000	-0.663761
	4.025000	-0.757239
	4.030000	-0.773355
	4.035000	-0.673431
	4.040000	-0.650868
	4.045000	-0.737898
	4.050000	-0.760462
	4.055000	-0.660538
	4.060000	-0.644421
	4.065000	-0.734675
	4.070000	-0.750792
	4.075000	-0.654091
	4.080000	-0.637974
	4.085000	-0.731452
	4.090000	-0.754015
	4.095000	-0.657314
	4.100000	-0.637974
	4.105000	-0.734675
	4.110000	-0.747569
	4.115000	-0.650868
	4.120000	-0.637974
	4.125000	-0.734675
	4.130000	-0.747569
	4.135000	-0.654091
	4.140000	-0.644421
	4.145000	-0.734675
	4.150000	-0.747569
	4.155000	-0.660538
	4.160000	-0.647644
	4.165000	-0.734675
	4.170000	-0.757239
	4.175000	-0.660538
	4.180000	-0.647644
	4.185000	-0.737898
	4.190000	-0.766909
	4.195000	-0.666985
	4.200000	-0.660538
	4.205000	-0.757239
	4.210000	-0.770132
	4.215000	-0.679878
	4.220000	-0.660538
	4.225000	-0.757239
	4.230000	-0.770132
	4.235000	-0.683101
	4.240000	-0.670208
	4.245000	-0.766909
	4.250000	-0.779802
	4.255000	-0.686325
	4.260000	-0.663761
	4.265000	-0.766909
	4.270000	-0.783025
	4.275000	-0.686325
	4.280000	-0.683101
	4.285000	-0.779802
	4.290000	-0.786249
	4.295000	-0.699218
	4.300000	-0.686325
	4.305000	-0.776579
	4.310000	-0.799142
	4.315000	-0.708888
	4.320000	-0.695995
	4.325000	-0.789472
	4.330000	-0.805589
	4.335000	-0.715335
	4.340000	-0.695995
	4.345000	-0.789472
	4.350000	-0.805589
	4.355000	-0.721782
	4.360000	-0.702441
	4.365000	-0.792696
	4.370000	-0.805589
	4.375000	-0.718558
	4.380000	-0.705665
	4.385000	-0.805589
	4.390000	-0.808812
	4.395000	-0.715335
	4.400000	-0.705665
	4.405000	-0.799142
	4.410000	-0.815259
	4.415000	-0.718558
	4.420000	-0.708888
	4.425000	-0.799142
	4.430000	-0.812036
	4.435000	-0.715335
	4.440000	-0.708888
	4.445000	-0.808812
	4.450000	-0.815259
	4.455000	-0.725005
	4.460000	-0.708888
	4.465000	-0.805589
	4.470000	-0.821706
	4.475000	-0.725005
	4.480000	-0.712112
	4.485000	-0.808812
	4.490000	-0.821706
	4.495000	-0.728228
	4.500000	-0.718558
	4.505000	-0.812036
	4.510000	-0.818482
	4.515000	-0.734675
	4.520000	-0.718558
	4.525000	-0.815259
	4.530000	-0.824929
	4.535000	-0.731452
	4.540000	-0.721782
	4.545000	-0.821706
	4.550000	-0.828152
	4.555000	-0.728228
	4.560000	-0.731452
	4.565000	-0.818482
	4.570000	-0.831376
	4.575000	-0.734675
	4.580000	-0.725005
	4.585000	-0.815259
	4.590000	-0.834599
	4.595000	-0.741122
	4.600000	-0.731452
	4.605000	-0.824929
	4.610000	-0.834599
	4.615000	-0.741122
	4.620000	-0.734675
	4.625000	-0.831376
	4.630000	-0.834599
	4.635000	-0.744345
	4.640000	-0.741122
	4.645000	-0.834599
	4.650000	-0.844269
	4.655000	-0.754015
	4.660000	-0.741122
	4.665000	-0.834599
	4.670000	-0.837823
	4.675000	-0.754015
	4.680000	-0.747569
	4.685000	-0.834599
	4.690000	-0.847493
	4.695000	-0.750792
	4.700000	-0.744345
	4.705000	-0.841046
	4.710000	-0.847493
	4.715000	-0.760462
	4.720000	-0.747569
	4.725000	-0.847493
	4.730000	-0.850716
	4.735000	-0.760462
	4.740000	-0.754015
	4.745000	-0.841046
	4.750000	-0.853939
	4.755000	-0.760462
	4.760000	-0.747569
	4.765000	-0.844269
	4.770000	-0.853939
	4.775000	-0.757239
	4.780000	-0.750792
	4.785000	-0.850716
	4.790000	-0.850716
	4.795000	-0.754015
	4.800000	-0.754015
	4.805000	-0.850716
	4.810000	-0.853939
	4.815000	-0.760462
	4.820000	-0.750792
	4.825000	-0.847493
	4.830000	-0.850716
	4.835000	-0.750792
	4.840000	-0.750792
	4.845000	-0.847493
	4.850000	-0.847493
	4.855000	-0.757239
	4.860000	-0.754015
	4.865000	-0.844269
	4.870000	-0.847493
	4.875000	-0.747569
	4.880000	-0.747569
	4.885000	-0.844269
	4.890000	-0.847493
	4.895000	-0.760462
	4.900000	-0.747569
	4.905000	-0.841046
	4.910000	-0.844269
	4.915000	-0.754015
	4.920000	-0.747569
	4.925000	-0.837823
	4.930000	-0.844269
	4.935000	-0.747569
	4.940000	-0.741122
	4.945000	-0.844269
	4.950000	-0.844269
	4.955000	-0.747569
	4.960000	-0.737898
	4.965000	-0.837823
	4.970000	-0.841046
	4.975000	-0.747569
	4.980000	-0.741122
	4.985000	-0.837823
	4.990000	-0.844269
	4.995000	-0.747569
	5.000000	-0.741122
	5.005000	-0.841046
	5.010000	-0.834599
	5.015000	-0.737898
	5.020000	-0.734675
	5.025000	-0.837823
	5.030000	-0.831376
	5.035000	-0.744345
	5.040000	-0.734675
	5.045000	-0.831376
	5.050000	-0.831376
	5.055000	-0.747569
	5.060000	-0.741122
	5.065000	-0.834599
	5.070000	-0.831376
	5.075000	-0.734675
	5.080000	-0.734675
	5.085000	-0.828152
	5.090000	-0.834599
	5.095000	-0.744345
	5.100000	-0.734675
	5.105000	-0.828152
	5.110000	-0.834599
	5.115000	-0.734675
	5.120000	-0.734675
	5.125000	-0.824929
	5.130000	-0.828152
	5.135000	-0.734675
	5.140000	-0.731452
	5.145000	-0.828152
	5.150000	-0.834599
	5.155000	-0.737898
	5.160000	-0.731452
	5.165000	-0.828152
	5.170000	-0.831376
	5.175000	-0.737898
	5.180000	-0.737898
	5.185000	-0.828152
	5.190000	-0.828152
	5.195000	-0.734675
	5.200000	-0.734675
	5.205000	-0.828152
	5.210000	-0.831376
	5.215000	-0.731452
	5.220000	-0.734675
	5.225000	-0.828152
	5.230000	-0.831376
	5.235000	-0.728228
	5.240000	-0.737898
	5.245000	-0.831376
	5.250000	-0.831376
	5.255000	-0.731452
	5.260000	-0.734675
	5.265000	-0.828152
	5.270000	-0.831376
	5.275000	-0.744345
	5.280000	-0.734675
	5.285000	-0.831376
	5.290000	-0.831376
	5.295000	-0.734675
	5.300000	-0.731452
	5.305000	-0.828152
	5.310000	-0.831376
	5.315000	-0.731452
	5.320000	-0.734675
	5.325000	-0.824929
	5.330000	-0.818482
	5.335000	-0.731452
	5.340000	-0.731452
	5.345000	-0.824929
	5.350000	-0.824929
	5.355000	-0.734675
	5.360000	-0.731452
	5.365000	-0.831376
	5.370000	-0.824929
	5.375000	-0.728228
	5.380000	-0.728228
	5.385000	-0.824929
	5.390000	-0.818482
	5.395000	-0.725005
	5.400000	-0.721782
	5.405000	-0.821706
	5.410000	-0.818482
	5.415000	-0.721782
	5.420000	-0.721782
	5.425000	-0.818482
	5.430000	-0.808812
	5.435000	-0.721782
	5.440000	-0.728228
	5.445000	-0.812036
	5.450000	-0.808812
	5.455000	-0.718558
	5.460000	-0.721782
	5.465000	-0.815259
	5.470000	-0.815259
	5.475000	-0.721782
	5.480000	-0.725005
	5.485000	-0.815259
	5.490000	-0.805589
	5.495000	-0.715335
	5.500000	-0.715335
	5.505000	-0.812036
	5.510000	-0.812036
	5.515000	-0.712112
	5.520000	-0.718558
	5.525000	-0.818482
	5.530000	-0.808812
	5.535000	-0.715335
	5.540000	-0.728228
	5.545000	-0.815259
	5.550000	-0.815259
	5.555000	-0.708888
	5.560000	-0.721782
	5.565000	-0.818482
	5.570000	-0.815259
	5.575000	-0.718558
	5.580000	-0.725005
	5.585000	-0.815259
	5.590000	-0.815259
	5.595000	-0.721782
	5.600000	-0.721782
	5.605000	-0.812036
	5.610000	-0.808812
	5.615000	-0.718558
	5.620000	-0.721782
	5.625000	-0.818482
	5.630000	-0.808812
	5.635000	-0.718558
	5.640000	-0.725005
	5.645000	-0.818482
	5.650000	-0.812036
	5.655000	-0.721782
	5.660000	-0.728228
	5.665000	-0.824929
	5.670000	-0.815259
	5.675000	-0.728228
	5.680000	-0.725005
	5.685000	-0.821706
	5.690000	-0.815259
	5.695000	-0.728228
	5.700000	-0.731452
	5.705000	-0.828152
	5.710000	-0.818482
	5.715000	-0.725005
	5.720000	-0.731452
	5.725000	-0.831376
	5.730000	-0.812036
	5.735000	-0.725005
	5.740000	-0.728228
	5.745000	-0.824929
	5.750000	-0.815259
	5.755000	-0.718558
	5.760000	-0.725005
	5.765000	-0.818482
	5.770000	-0.812036
	5.775000	-0.715335
	5.780000	-0.718558
	5.785000	-0.821706
	5.790000	-0.812036
	5.795000	-0.718558
	5.800000	-0.718558
	5.805000	-0.815259
	5.810000	-0.808812
	5.815000	-0.712112
	5.820000	-0.721782
	5.825000	-0.815259
	5.830000	-0.805589
	5.835000	-0.708888
	5.840000	-0.718558
	5.845000	-0.812036
	5.850000	-0.805589
	5.855000	-0.712112
	5.860000	-0.721782
	5.865000	-0.812036
	5.870000	-0.812036
	5.875000	-0.715335
	5.880000	-0.718558
	5.885000	-0.821706
	5.890000	-0.808812
	5.895000	-0.715335
	5.900000	-0.728228
	5.905000	-0.818482
	5.910000	-0.808812
	5.915000	-0.715335
	5.920000	-0.728228
	5.925000	-0.824929
	5.930000	-0.812036
	5.935000	-0.715335
	5.940000	-0.725005
	5.945000	-0.821706
	5.950000	-0.812036
	5.955000	-0.715335
	5.960000	-0.725005
	5.965000	-0.821706
	5.970000	-0.805589
	5.975000	-0.712112
	5.980000	-0.715335
	5.985000	-0.818482
	5.990000	-0.805589
	5.995000	-0.708888
	6.000000	-0.715335
	6.005000	-0.812036
	6.010000	-0.805589
	6.015000	-0.708888
	6.020000	-0.708888
	6.025000	-0.795919
	6.030000	-0.783025
	6.035000	-0.683101
	6.040000	-0.683101
	6.045000	-0.776579
	6.050000	-0.757239
	6.055000	-0.657314
	6.060000	-0.660538
	6.065000	-0.750792
	6.070000	-0.734675
	6.075000	-0.628304
	6.080000	-0.641198
	6.085000	-0.721782
	6.090000	-0.702441
	6.095000	-0.602517
	6.100000	-0.608964
	6.105000	-0.695995
	6.110000	-0.673431
	6.115000	-0.579954
	6.120000	-0.583177
	6.125000	-0.670208
	6.130000	-0.654091
	6.135000	-0.563837
	6.140000	-0.570284
	6.145000	-0.654091
	6.150000	-0.641198
	6.155000	-0.547720
	6.160000	-0.560614
	6.165000	-0.654091
	6.170000	-0.628304
	6.175000	-0.544497
	6.180000	-0.547720
	6.185000	-0.647644
	6.190000	-0.634751
	6.195000	-0.538050
	6.200000	-0.557390
	6.205000	-0.644421
	6.210000	-0.631528
	6.215000	-0.534827
	6.220000	-0.554167
	6.225000	-0.644421
	6.230000	-0.628304
	6.235000	-0.544497
	6.240000	-0.554167
	6.245000	-0.644421
	6.250000	-0.631528
	6.255000	-0.544497
	6.260000	-0.557390
	6.265000	-0.654091
	6.270000	-0.631528
	6.275000	-0.544497
	6.280000	-0.560614
	6.285000	-0.650868
	6.290000	-0.637974
	6.295000	-0.544497
	6.300000	-0.563837
	6.305000	-0.657314
	6.310000	-0.641198
	6.315000	-0.557390
	6.320000	-0.576730
	6.325000	-0.663761
	6.330000	-0.650868
	6.335000	-0.560614
	6.340000	-0.583177
	6.345000	-0.683101
	6.350000	-0.670208
	6.355000	-0.576730
	6.360000	-0.599294
	6.365000	-0.695995
	6.370000	-0.679878
	6.375000	-0.596071
	6.380000	-0.612187
	6.385000	-0.715335
	6.390000	-0.699218
	6.395000	-0.612187
	6.400000	-0.637974
	6.405000	-0.734675
	6.410000	-0.725005
	6.415000	-0.644421
	6.420000	-0.666985
	6.425000	-0.760462
	6.430000	-0.750792
	6.435000	-0.660538
	6.440000	-0.683101
	6.445000	-0.779802
	6.450000	-0.773355
	6.455000	-0.683101
	6.460000	-0.699218
	6.465000	-0.792696
	6.470000	-0.773355
	6.475000	-0.683101
	6.480000	-0.708888
	6.485000	-0.795919
	6.490000	-0.776579
	6.495000	-0.676655
	6.500000	-0.702441
	6.505000	-0.789472
	6.510000	-0.770132
	6.515000	-0.673431
	6.520000	-0.686325
	6.525000	-0.779802
	6.530000	-0.754015
	6.535000	-0.660538
	6.540000	-0.673431
	6.545000	-0.763685
	6.550000	-0.744345
	6.555000	-0.647644
	6.560000	-0.660538
	6.565000	-0.754015
	6.570000	-0.728228
	6.575000	-0.628304
	6.580000	-0.647644
	6.585000	-0.731452
	6.590000	-0.715335
	6.595000	-0.628304
	6.600000	-0.634751
	6.605000	-0.725005
	6.610000	-0.699218
	6.615000	-0.615411
	6.620000	-0.631528
	6.625000	-0.718558
	6.630000	-0.692771
	6.635000	-0.605741
	6.640000	-0.618634
	6.645000	-0.708888
	6.650000	-0.692771
	6.655000	-0.599294
	6.660000	-0.612187
	6.665000	-0.712112
	6.670000	-0.689548
	6.675000	-0.599294
	6.680000	-0.615411
	6.685000	-0.715335
	6.690000	-0.689548
	6.695000	-0.596071
	6.700000	-0.621858
	6.705000	-0.715335
	6.710000	-0.695995
	6.715000	-0.602517
	6.720000	-0.631528
	6.725000	-0.721782
	6.730000	-0.699218
	6.735000	-0.615411
	6.740000	-0.634751
	6.745000	-0.728228
	6.750000	-0.715335
	6.755000	-0.621858
	6.760000	-0.647644
	6.765000	-0.734675
	6.770000	-0.721782
	6.775000	-0.634751
	6.780000	-0.650868
	6.785000	-0.750792
	6.790000	-0.731452
	6.795000	-0.641198
	6.800000	-0.663761
	6.805000	-0.760462
	6.810000	-0.737898
	6.815000	-0.654091
	6.820000	-0.676655
	6.825000	-0.773355
	6.830000	-0.747569
	6.835000	-0.660538
	6.840000	-0.686325
	6.845000	-0.776579
	6.850000	-0.757239
	6.855000	-0.670208
	6.860000	-0.695995
	6.865000	-0.792696
	6.870000	-0.766909
	6.875000	-0.679878
	6.880000	-0.699218
	6.885000	-0.799142
	6.890000	-0.779802
	6.895000	-0.692771
	6.900000	-0.715335
	6.905000	-0.802366
	6.910000	-0.783025
	6.915000	-0.695995
	6.920000	-0.718558
	6.925000	-0.805589
	6.930000	-0.786249
	6.935000	-0.699218
	6.940000	-0.721782
	6.945000	-0.815259
	6.950000	-0.789472
	6.955000	-0.699218
	6.960000	-0.718558
	6.965000	-0.815259
	6.970000	-0.792696
	6.975000	-0.702441
	6.980000	-0.728228
	6.985000	-0.818482
	6.990000	-0.792696
	6.995000	-0.702441
	7.000000	-0.721782
	7.005000	-0.815259
	7.010000	-0.795919
	7.015000	-0.705665
	7.020000	-0.728228
	7.025000	-0.821706
	7.030000	-0.799142
	7.035000	-0.705665
	7.040000	-0.728228
	7.045000	-0.824929
	7.050000	-0.795919
	7.055000	-0.715335
	7.060000	-0.734675
	7.065000	-0.828152
	7.070000	-0.799142
	7.075000	-0.708888
	7.080000	-0.734675
	7.085000	-0.824929
	7.090000	-0.795919
	7.095000	-0.712112
	7.100000	-0.737898
	7.105000	-0.828152
	7.110000	-0.805589
	7.115000	-0.718558
	7.120000	-0.737898
	7.125000	-0.828152
	7.130000	-0.805589
	7.135000	-0.715335
	7.140000	-0.741122
	7.145000	-0.831376
	7.150000	-0.802366
	7.155000	-0.715335
	7.160000	-0.741122
	7.165000	-0.834599
	7.170000	-0.805589
	7.175000	-0.715335
	7.180000	-0.747569
	7.185000	-0.828152
	7.190000	-0.805589
	7.195000	-0.712112
	7.200000	-0.737898
	7.205000	-0.828152
	7.210000	-0.812036
	7.215000	-0.715335
	7.220000	-0.741122
	7.225000	-0.831376
	7.230000	-0.805589
	7.235000	-0.715335
	7.240000	-0.744345
	7.245000	-0.828152
	7.250000	-0.802366
	7.255000	-0.715335
	7.260000	-0.734675
	7.265000	-0.831376
	7.270000	-0.802366
	7.275000	-0.708888
	7.280000	-0.734675
	7.285000	-0.828152
	7.290000	-0.802366
	7.295000	-0.715335
	7.300000	-0.741122
	7.305000	-0.837823
	7.310000	-0.805589
	7.315000	-0.718558
	7.320000	-0.744345
	7.325000	-0.831376
	7.330000	-0.808812
	7.335000	-0.715335
	7.340000	-0.747569
	7.345000	-0.834599
	7.350000	-0.805589
	7.355000	-0.712112
	7.360000	-0.747569
	7.365000	-0.831376
	7.370000	-0.805589
	7.375000	-0.718558
	7.380000	-0.747569
	7.385000	-0.831376
	7.390000	-0.805589
	7.395000	-0.715335
	7.400000	-0.747569
	7.405000	-0.834599
	7.410000	-0.808812
	7.415000	-0.721782
	7.420000	-0.741122
	7.425000	-0.837823
	7.430000	-0.799142
	7.435000	-0.712112
	7.440000	-0.741122
	7.445000	-0.831376
	7.450000	-0.808812
	7.455000	-0.715335
	7.460000	-0.734675
	7.465000	-0.828152
	7.470000	-0.805589
	7.475000	-0.705665
	7.480000	-0.737898
	7.485000	-0.831376
	7.490000	-0.795919
	7.495000	-0.718558
	7.500000	-0.741122
	7.505000	-0.828152
	7.510000	-0.805589
	7.515000	-0.702441
	7.520000	-0.737898
	7.525000	-0.824929
	7.530000	-0.805589
	7.535000	-0.708888
	7.540000	-0.737898
	7.545000	-0.831376
	7.550000	-0.799142
	7.555000	-0.712112
	7.560000	-0.744345
	7.565000	-0.828152
	7.570000	-0.795919
	7.575000	-0.708888
	7.580000	-0.737898
	7.585000	-0.834599
	7.590000	-0.799142
	7.595000	-0.705665
	7.600000	-0.734675
	7.605000	-0.831376
	7.610000	-0.792696
	7.615000	-0.708888
	7.620000	-0.744345
	7.625000	-0.834599
	7.630000	-0.795919
	7.635000	-0.708888
	7.640000	-0.741122
	7.645000	-0.824929
	7.650000	-0.795919
	7.655000	-0.712112
	7.660000	-0.747569
	7.665000	-0.824929
	7.670000	-0.792696
	7.675000	-0.715335
	7.680000	-0.747569
	7.685000	-0.831376
	7.690000	-0.799142
	7.695000	-0.712112
	7.700000	-0.737898
	7.705000	-0.824929
	7.710000	-0.805589
	7.715000	-0.712112
	7.720000	-0.741122
	7.725000	-0.824929
	7.730000	-0.795919
	7.735000	-0.705665
	7.740000	-0.737898
	7.745000	-0.824929
	7.750000	-0.789472
	7.755000	-0.705665
	7.760000	-0.744345
	7.765000	-0.821706
	7.770000	-0.792696
	7.775000	-0.705665
	7.780000	-0.741122
	7.785000	-0.831376
	7.790000	-0.795919
	7.795000	-0.705665
	7.800000	-0.741122
	7.805000	-0.828152
	7.810000	-0.799142
	7.815000	-0.712112
	7.820000	-0.741122
	7.825000	-0.828152
	7.830000	-0.786249
	7.835000	-0.702441
	7.840000	-0.744345
	7.845000	-0.828152
	7.850000	-0.792696
	7.855000	-0.705665
	7.860000	-0.734675
	7.865000	-0.828152
	7.870000	-0.789472
	7.875000	-0.702441
	7.880000	-0.737898
	7.885000	-0.824929
	7.890000	-0.792696
	7.895000	-0.699218
	7.900000	-0.737898
	7.905000	-0.821706
	7.910000	-0.789472
	7.915000	-0.699218
	7.920000	-0.737898
	7.925000	-0.824929
	7.930000	-0.789472
	7.935000	-0.699218
	7.940000	-0.734675
	7.945000	-0.821706
	7.950000	-0.789472
	7.955000	-0.702441
	7.960000	-0.741122
	7.965000	-0.824929
	7.970000	-0.786249
	7.975000	-0.702441
	7.980000	-0.741122
	7.985000	-0.824929
	7.990000	-0.789472
	7.995000	-0.702441
	8.000000	-0.744345
	8.005000	-0.828152
	8.010000	-0.792696
	8.015000	-0.702441
	8.020000	-0.744345
	8.025000	-0.828152
	8.030000	-0.786249
	8.035000	-0.702441
	8.040000	-0.737898
	8.045000	-0.824929
	8.050000	-0.786249
	8.055000	-0.695995
	8.060000	-0.737898
	8.065000	-0.818482
	8.070000	-0.786249
	8.075000	-0.699218
	8.080000	-0.731452
	8.085000	-0.824929
	8.090000	-0.786249
	8.095000	-0.695995
	8.100000	-0.737898
	8.105000	-0.821706
	8.110000	-0.786249
	8.115000	-0.695995
	8.120000	-0.737898
	8.125000	-0.821706
	8.130000	-0.783025
	8.135000	-0.695995
	8.140000	-0.734675
	8.145000	-0.821706
	8.150000	-0.773355
	8.155000	-0.699218
	8.160000	-0.734675
	8.165000	-0.818482
	8.170000	-0.776579
	8.175000	-0.686325
	8.180000	-0.737898
	8.185000	-0.821706
	8.190000	-0.779802
	8.195000	-0.699218
	8.200000	-0.734675
	8.205000	-0.824929
	8.210000	-0.779802
	8.215000	-0.699218
	8.220000	-0.731452
	8.225000	-0.824929
	8.230000	-0.783025
	8.235000	-0.695995
	8.240000	-0.734675
	8.245000	-0.821706
	8.250000	-0.783025
	8.255000	-0.699218
	8.260000	-0.731452
	8.265000	-0.821706
	8.270000	-0.789472
	8.275000	-0.695995
	8.280000	-0.741122
	8.285000	-0.815259
	8.290000	-0.776579
	8.295000	-0.692771
	8.300000	-0.737898
	8.305000	-0.818482
	8.310000	-0.776579
	8.315000	-0.695995
	8.320000	-0.734675
	8.325000	-0.821706
	8.330000	-0.783025
	8.335000	-0.695995
	8.340000	-0.734675
	8.345000	-0.821706
	8.350000	-0.786249
	8.355000	-0.699218
	8.360000	-0.741122
	8.365000	-0.828152
	8.370000	-0.786249
	8.375000	-0.699218
	8.380000	-0.737898
	8.385000	-0.828152
	8.390000	-0.786249
	8.395000	-0.705665
	8.400000	-0.750792
	8.405000	-0.824929
	8.410000	-0.783025
	8.415000	-0.702441
	8.420000	-0.747569
	8.425000	-0.828152
	8.430000	-0.783025
	8.435000	-0.702441
	8.440000	-0.737898
	8.445000	-0.831376
	8.450000	-0.786249
	8.455000	-0.702441
	8.460000	-0.741122
	8.465000	-0.828152
	8.470000	-0.776579
	8.475000	-0.692771
	8.480000	-0.734675
	8.485000	-0.818482
	8.490000	-0.770132
	8.495000	-0.686325
	8.500000	-0.721782
	8.505000	-0.795919
	8.510000	-0.750792
	8.515000	-0.666985
	8.520000	-0.705665
	8.525000	-0.783025
	8.530000	-0.734675
	8.535000	-0.647644
	8.540000	-0.683101
	8.545000	-0.766909
	8.550000	-0.721782
	8.555000	-0.631528
	8.560000	-0.670208
	8.565000	-0.757239
	8.570000	-0.702441
	8.575000	-0.618634
	8.580000	-0.654091
	8.585000	-0.731452
	8.590000	-0.683101
	8.595000	-0.596071
	8.600000	-0.634751
	8.605000	-0.712112
	8.610000	-0.663761
	8.615000	-0.579954
	8.620000	-0.618634
	8.625000	-0.702441
	8.630000	-0.657314
	8.635000	-0.573507
	8.640000	-0.618634
	8.645000	-0.695995
	8.650000	-0.650868
	8.655000	-0.570284
	8.660000	-0.602517
	8.665000	-0.686325
	8.670000	-0.637974
	8.675000	-0.567060
	8.680000	-0.602517
	8.685000	-0.683101
	8.690000	-0.644421
	8.695000	-0.563837
	8.700000	-0.612187
	8.705000	-0.683101
	8.710000	-0.644421
	8.715000	-0.573507
	8.720000	-0.612187
	8.725000	-0.695995
	8.730000	-0.660538
	8.735000	-0.579954
	8.740000	-0.621858
	8.745000	-0.715335
	8.750000	-0.666985
	8.755000	-0.589624
	8.760000	-0.637974
	8.765000	-0.728228
	8.770000	-0.679878
	8.775000	-0.605741
	8.780000	-0.654091
	8.785000	-0.734675
	8.790000	-0.699218
	8.795000	-0.621858
	8.800000	-0.663761
	8.805000	-0.754015
	8.810000	-0.715335
	8.815000	-0.641198
	8.820000	-0.689548
	8.825000	-0.779802
	8.830000	-0.737898
	8.835000	-0.657314
	8.840000	-0.712112
	8.845000	-0.795919
	8.850000	-0.757239
	8.855000	-0.683101
	8.860000	-0.728228
	8.865000	-0.815259
	8.870000	-0.766909
	8.875000	-0.692771
	8.880000	-0.741122
	8.885000	-0.831376
	8.890000	-0.776579
	8.895000	-0.699218
	8.900000	-0.747569
	8.905000	-0.824929
	8.910000	-0.776579
	8.915000	-0.692771
	8.920000	-0.737898
	8.925000	-0.815259
	8.930000	-0.770132
	8.935000	-0.683101
	8.940000	-0.728228
	8.945000	-0.812036
	8.950000	-0.757239
	8.955000	-0.673431
	8.960000	-0.712112
	8.965000	-0.795919
	8.970000	-0.737898
	8.975000	-0.654091
	8.980000	-0.695995
	8.985000	-0.786249
	8.990000	-0.721782
	8.995000	-0.637974
	9.000000	-0.683101
	9.005000	-0.763685
	9.010000	-0.712112
	9.015000	-0.625081
	9.020000	-0.657314
	9.025000	-0.741122
	9.030000	-0.689548
	9.035000	-0.599294
	9.040000	-0.647644
	9.045000	-0.725005
	9.050000	-0.676655
	9.055000	-0.589624
	9.060000	-0.637974
	9.065000	-0.715335
	9.070000	-0.660538
	9.075000	-0.579954
	9.080000	-0.621858
	9.085000	-0.695995
	9.090000	-0.644421
	9.095000	-0.563837
	9.100000	-0.615411
	9.105000	-0.683101
	9.110000	-0.634751
	9.115000	-0.560614
	9.120000	-0.602517
	9.125000	-0.679878
	9.130000	-0.634751
	9.135000	-0.554167
	9.140000	-0.602517
	9.145000	-0.683101
	9.150000	-0.641198
	9.155000	-0.557390
	9.160000	-0.612187
	9.165000	-0.683101
	9.170000	-0.641198
	9.175000	-0.570284
	9.180000	-0.618634
	9.185000	-0.699218
	9.190000	-0.654091
	9.195000	-0.573507
	9.200000	-0.628304
	9.205000	-0.712112
	9.210000	-0.663761
	9.215000	-0.586401
	9.220000	-0.631528
	9.225000	-0.721782
	9.230000	-0.670208
	9.235000	-0.586401
	9.240000	-0.644421
	9.245000	-0.728228
	9.250000	-0.679878
	9.255000	-0.602517
	9.260000	-0.654091
	9.265000	-0.741122
	9.270000	-0.689548
	9.275000	-0.615411
	9.280000	-0.660538
	9.285000	-0.744345
	9.290000	-0.695995
	9.295000	-0.621858
	9.300000	-0.673431
	9.305000	-0.750792
	9.310000	-0.695995
	9.315000	-0.628304
	9.320000	-0.676655
	9.325000	-0.760462
	9.330000	-0.705665
	9.335000	-0.637974
	9.340000	-0.689548
	9.345000	-0.763685
	9.350000	-0.718558
	9.355000	-0.637974
	9.360000	-0.692771
	9.365000	-0.766909
	9.370000	-0.725005
	9.375000	-0.644421
	9.380000	-0.692771
	9.385000	-0.773355
	9.390000	-0.728228
	9.395000	-0.647644
	9.400000	-0.702441
	9.405000	-0.786249
	9.410000	-0.734675
	9.415000	-0.657314
	9.420000	-0.705665
	9.425000	-0.789472
	9.430000	-0.737898
	9.435000	-0.657314
	9.440000	-0.715335
	9.445000	-0.792696
	9.450000	-0.741122
	9.455000	-0.666985
	9.460000	-0.718558
	9.465000	-0.802366
	9.470000	-0.750792
	9.475000	-0.673431
	9.480000	-0.728228
	9.485000	-0.808812
	9.490000	-0.760462
	9.495000	-0.679878
	9.500000	-0.731452
	9.505000	-0.808812
	9.510000	-0.763685
	9.515000	-0.683101
	9.520000	-0.737898
	9.525000	-0.815259
	9.530000	-0.757239
	9.535000	-0.686325
	9.540000	-0.741122
	9.545000	-0.818482
	9.550000	-0.766909
	9.555000	-0.689548
	9.560000	-0.744345
	9.565000	-0.821706
	9.570000	-0.770132
	9.575000	-0.695995
	9.580000	-0.747569
	9.585000	-0.828152
	9.590000	-0.766909
	9.595000	-0.692771
	9.600000	-0.754015
	9.605000	-0.824929
	9.610000	-0.770132
	9.615000	-0.699218
	9.620000	-0.750792
	9.625000	-0.831376
	9.630000	-0.773355
	9.635000	-0.702441
	9.640000	-0.754015
	9.645000	-0.834599
	9.650000	-0.786249
	9.655000	-0.705665
	9.660000	-0.754015
	9.665000	-0.841046
	9.670000	-0.779802
	9.675000	-0.708888
	9.680000	-0.766909
	9.685000	-0.837823
	9.690000	-0.779802
	9.695000	-0.705665
	9.700000	-0.766909
	9.705000	-0.837823
	9.710000	-0.789472
	9.715000	-0.712112
	9.720000	-0.763685
	9.725000	-0.841046
	9.730000	-0.792696
	9.735000	-0.705665
	9.740000	-0.770132
	9.745000	-0.847493
	9.750000	-0.789472
	9.755000	-0.708888
	9.760000	-0.763685
	9.765000	-0.844269
	9.770000	-0.776579
	9.775000	-0.708888
	9.780000	-0.766909
	9.785000	-0.834599
	9.790000	-0.783025
	9.795000	-0.708888
	9.800000	-0.757239
	9.805000	-0.841046
	9.810000	-0.779802
	9.815000	-0.702441
	9.820000	-0.760462
	9.825000	-0.837823
	9.830000	-0.779802
	9.835000	-0.705665
	9.840000	-0.766909
	9.845000	-0.837823
	9.850000	-0.783025
	9.855000	-0.702441
	9.860000	-0.760462
	9.865000	-0.841046
	9.870000	-0.776579
	9.875000	-0.702441
	9.880000	-0.763685
	9.885000	-0.841046
	9.890000	-0.779802
	9.895000	-0.708888
	9.900000	-0.757239
	9.905000	-0.834599
	9.910000	-0.776579
	9.915000	-0.708888
	9.920000	-0.763685
	9.925000	-0.834599
	9.930000	-0.776579
	9.935000	-0.705665
	9.940000	-0.763685
	9.945000	-0.837823
	9.950000	-0.783025
	9.955000	-0.702441
	9.960000	-0.770132
	9.965000	-0.837823
	9.970000	-0.779802
	9.975000	-0.705665
	9.980000	-0.766909
	9.985000	-0.841046
	9.990000	-0.776579
	9.995000	-0.708888
	10.000000	-0.763685
	10.005000	-0.834599
	10.010000	-0.779802
	10.015000	-0.708888
	10.020000	-0.763685
	10.025000	-0.841046
	10.030000	-0.776579
	10.035000	-0.705665
	10.040000	-0.770132
	10.045000	-0.837823
	10.050000	-0.786249
	10.055000	-0.712112
	10.060000	-0.770132
	10.065000	-0.844269
	10.070000	-0.776579
	10.075000	-0.715335
	10.080000	-0.763685
	10.085000	-0.841046
	10.090000	-0.783025
	10.095000	-0.702441
	10.100000	-0.770132
	10.105000	-0.841046
	10.110000	-0.779802
	10.115000	-0.705665
	10.120000	-0.766909
	10.125000	-0.847493
	10.130000	-0.776579
	10.135000	-0.699218
	10.140000	-0.770132
	10.145000	-0.837823
	10.150000	-0.779802
	10.155000	-0.705665
	10.160000	-0.766909
	10.165000	-0.837823
	10.170000	-0.779802
	10.175000	-0.715335
	10.180000	-0.773355
	10.185000	-0.841046
	10.190000	-0.779802
	10.195000	-0.708888
	10.200000	-0.766909
	10.205000	-0.841046
	10.210000	-0.783025
	10.215000	-0.705665
	10.220000	-0.766909
	10.225000	-0.841046
	10.230000	-0.776579
	10.235000	-0.708888
	10.240000	-0.770132
	10.245000	-0.841046
	10.250000	-0.783025
	10.255000	-0.715335
	10.260000	-0.770132
	10.265000	-0.841046
	10.270000	-0.779802
	10.275000	-0.708888
	10.280000	-0.773355
	10.285000	-0.844269
	10.290000	-0.786249
	10.295000	-0.715335
	10.300000	-0.773355
	10.305000	-0.844269
	10.310000	-0.786249
	10.315000	-0.708888
	10.320000	-0.773355
	10.325000	-0.847493
	10.330000	-0.786249
	10.335000	-0.715335
	10.340000	-0.773355
	10.345000	-0.844269
	10.350000	-0.779802
	10.355000	-0.708888
	10.360000	-0.773355
	10.365000	-0.850716
	10.370000	-0.786249
	10.375000	-0.715335
	10.380000	-0.776579
	10.385000	-0.850716
	10.390000	-0.786249
	10.395000	-0.708888
	10.400000	-0.776579
	10.405000	-0.847493
	10.410000	-0.789472
	10.415000	-0.721782
	10.420000	-0.779802
	10.425000	-0.847493
	10.430000	-0.779802
	10.435000	-0.718558
	10.440000	-0.773355
	10.445000	-0.844269
	10.450000	-0.783025
	10.455000	-0.712112
	10.460000	-0.779802
	10.465000	-0.847493
	10.470000	-0.792696
	10.475000	-0.715335
	10.480000	-0.779802
	10.485000	-0.844269
	10.490000	-0.776579
	10.495000	-0.718558
	10.500000	-0.773355
	10.505000	-0.850716
	10.510000	-0.789472
	10.515000	-0.718558
	10.520000	-0.776579
	10.525000	-0.850716
	10.530000	-0.789472
	10.535000	-0.715335
	10.540000	-0.786249
	10.545000	-0.853939
	10.550000	-0.786249
	10.555000	-0.715335
	10.560000	-0.783025
	10.565000	-0.853939
	10.570000	-0.792696
	10.575000	-0.718558
	10.580000	-0.786249
	10.585000	-0.853939
	10.590000	-0.795919
	10.595000	-0.715335
	10.600000	-0.783025
	10.605000	-0.853939
	10.610000	-0.792696
	10.615000	-0.721782
	10.620000	-0.786249
	10.625000	-0.850716
	10.630000	-0.792696
	10.635000	-0.728228
	10.640000	-0.795919
	10.645000	-0.857163
	10.650000	-0.792696
	10.655000	-0.725005
	10.660000	-0.786249
	10.665000	-0.860386
	10.670000	-0.795919
	10.675000	-0.725005
	10.680000	-0.789472
	10.685000	-0.857163
	10.690000	-0.786249
	10.695000	-0.728228
	10.700000	-0.786249
	10.705000	-0.853939
	10.710000	-0.789472
	10.715000	-0.718558
	10.720000	-0.783025
	10.725000	-0.853939
	10.730000	-0.783025
	10.735000	-0.715335
	10.740000	-0.779802
	10.745000	-0.850716
	10.750000	-0.783025
	10.755000	-0.718558
	10.760000	-0.783025
	10.765000	-0.847493
	10.770000	-0.779802
	10.775000	-0.712112
	10.780000	-0.776579
	10.785000	-0.837823
	10.790000	-0.763685
	10.795000	-0.683101
	10.800000	-0.744345
	10.805000	-0.808812
	10.810000	-0.744345
	10.815000	-0.670208
	10.820000	-0.728228
	10.825000	-0.795919
	10.830000	-0.721782
	10.835000	-0.650868
	10.840000	-0.708888
	10.845000	-0.770132
	10.850000	-0.705665
	10.855000	-0.631528
	10.860000	-0.695995
	10.865000	-0.754015
	10.870000	-0.686325
	10.875000	-0.615411
	10.880000	-0.676655
	10.885000	-0.741122
	10.890000	-0.670208
	10.895000	-0.608964
	10.900000	-0.670208
	10.905000	-0.721782
	10.910000	-0.660538
	10.915000	-0.586401
	10.920000	-0.654091
	10.925000	-0.715335
	10.930000	-0.647644
	10.935000	-0.583177
	10.940000	-0.644421
	10.945000	-0.708888
	10.950000	-0.637974
	10.955000	-0.573507
	10.960000	-0.641198
	10.965000	-0.702441
	10.970000	-0.631528
	10.975000	-0.570284
	10.980000	-0.631528
	10.985000	-0.695995
	10.990000	-0.631528
	10.995000	-0.567060
	11.000000	-0.625081
	11.005000	-0.699218
	11.010000	-0.628304
	11.015000	-0.567060
	11.020000	-0.631528
	11.025000	-0.689548
	11.030000	-0.628304
	11.035000	-0.567060
	11.040000	-0.634751
	11.045000	-0.702441
	11.050000	-0.634751
	11.055000	-0.579954
	11.060000	-0.641198
	11.065000	-0.712112
	11.070000	-0.641198
	11.075000	-0.586401
	11.080000	-0.650868
	11.085000	-0.721782
	11.090000	-0.654091
	11.095000	-0.599294
	11.100000	-0.670208
	11.105000	-0.734675
	11.110000	-0.673431
	11.115000	-0.615411
	11.120000	-0.683101
	11.125000	-0.750792
	11.130000	-0.695995
	11.135000	-0.634751
	11.140000	-0.712112
	11.145000	-0.783025
	11.150000	-0.721782
	11.155000	-0.670208
	11.160000	-0.747569
	11.165000	-0.815259
	11.170000	-0.757239
	11.175000	-0.702441
	11.180000	-0.783025
	11.185000	-0.847493
	11.190000	-0.783025
	11.195000	-0.728228
	11.200000	-0.805589
	11.205000	-0.873280
	11.210000	-0.805589
	11.215000	-0.744345
	11.220000	-0.821706
	11.225000	-0.879726
	11.230000	-0.812036
	11.235000	-0.747569
	11.240000	-0.815259
	11.245000	-0.879726
	11.250000	-0.808812
	11.255000	-0.747569
	11.260000	-0.821706
	11.265000	-0.882950
	11.270000	-0.799142
	11.275000	-0.741122
	11.280000	-0.808812
	11.285000	-0.870056
	11.290000	-0.799142
	11.295000	-0.731452
	11.300000	-0.805589
	11.305000	-0.866833
	11.310000	-0.786249
	11.315000	-0.725005
	11.320000	-0.792696
	11.325000	-0.847493
	11.330000	-0.773355
	11.335000	-0.712112
	11.340000	-0.776579
	11.345000	-0.828152
	11.350000	-0.766909
	11.355000	-0.695995
	11.360000	-0.766909
	11.365000	-0.821706
	11.370000	-0.754015
	11.375000	-0.692771
	11.380000	-0.760462
	11.385000	-0.812036
	11.390000	-0.744345
	11.395000	-0.676655
	11.400000	-0.750792
	11.405000	-0.805589
	11.410000	-0.731452
	11.415000	-0.670208
	11.420000	-0.741122
	11.425000	-0.799142
	11.430000	-0.728228
	11.435000	-0.666985
	11.440000	-0.741122
	11.445000	-0.795919
	11.450000	-0.725005
	11.455000	-0.670208
	11.460000	-0.734675
	11.465000	-0.802366
	11.470000	-0.725005
	11.475000	-0.666985
	11.480000	-0.737898
	11.485000	-0.799142
	11.490000	-0.725005
	11.495000	-0.663761
	11.500000	-0.741122
	11.505000	-0.799142
	11.510000	-0.731452
	11.515000	-0.666985
	11.520000	-0.737898
	11.525000	-0.799142
	11.530000	-0.731452
	11.535000	-0.676655
	11.540000	-0.744345
	11.545000	-0.805589
	11.550000	-0.737898
	11.555000	-0.679878
	11.560000	-0.747569
	11.565000	-0.812036
	11.570000	-0.744345
	11.575000	-0.689548
	11.580000	-0.760462
	11.585000	-0.821706
	11.590000	-0.750792
	11.595000	-0.692771
	11.600000	-0.763685
	11.605000	-0.828152
	11.610000	-0.763685
	11.615000	-0.702441
	11.620000	-0.776579
	11.625000	-0.841046
	11.630000	-0.763685
	11.635000	-0.708888
	11.640000	-0.786249
	11.645000	-0.844269
	11.650000	-0.770132
	11.655000	-0.715335
	11.660000	-0.792696
	11.665000	-0.844269
	11.670000	-0.773355
	11.675000	-0.715335
	11.680000	-0.789472
	11.685000	-0.847493
	11.690000	-0.779802
	11.695000	-0.721782
	11.700000	-0.795919
	11.705000	-0.850716
	11.710000	-0.783025
	11.715000	-0.718558
	11.720000	-0.792696
	11.725000	-0.847493
	11.730000	-0.779802
	11.735000	-0.721782
	11.740000	-0.792696
	11.745000	-0.853939
	11.750000	-0.776579
	11.755000	-0.721782
	11.760000	-0.799142
	11.765000	-0.860386
	11.770000	-0.783025
	11.775000	-0.728228
	11.780000	-0.795919
	11.785000	-0.857163
	11.790000	-0.783025
	11.795000	-0.728228
	11.800000	-0.792696
	11.805000	-0.863609
	11.810000	-0.786249
	11.815000	-0.728228
	11.820000	-0.805589
	11.825000	-0.857163
	11.830000	-0.789472
	11.835000	-0.728228
	11.840000	-0.805589
	11.845000	-0.866833
	11.850000	-0.789472
	11.855000	-0.734675
	11.860000	-0.802366
	11.865000	-0.860386
	11.870000	-0.786249
	11.875000	-0.731452
	11.880000	-0.808812
	11.885000	-0.866833
	11.890000	-0.792696
	11.895000	-0.734675
	11.900000	-0.812036
	11.905000	-0.863609
	11.910000	-0.789472
	11.915000	-0.734675
	11.920000	-0.815259
	11.925000	-0.866833
	11.930000	-0.795919
	11.935000	-0.737898
	11.940000	-0.808812
	11.945000	-0.876503
	11.950000	-0.789472
	11.955000	-0.728228
	11.960000	-0.812036
	11.965000	-0.873280
	11.970000	-0.792696
	11.975000	-0.737898
	11.980000	-0.812036
	11.985000	-0.873280
	11.990000	-0.789472
	11.995000	-0.737898
	12.000000	-0.818482
	12.005000	-0.873280
	12.010000	-0.789472
	12.015000	-0.741122
	12.020000	-0.808812
	12.025000	-0.870056
	12.030000	-0.792696
	12.035000	-0.741122
	12.040000	-0.815259
	12.045000	-0.873280
	12.050000	-0.799142
	12.055000	-0.747569
	12.060000	-0.818482
	12.065000	-0.873280
	12.070000	-0.795919
	12.075000	-0.744345
	12.080000	-0.818482
	12.085000	-0.866833
	12.090000	-0.795919
	12.095000	-0.741122
	12.100000	-0.815259
	12.105000	-0.873280
	12.110000	-0.799142
	12.115000	-0.741122
	12.120000	-0.815259
	12.125000	-0.866833
	12.130000	-0.802366
	12.135000	-0.737898
	12.140000	-0.808812
	12.145000	-0.866833
	12.150000	-0.792696
	12.155000	-0.741122
	12.160000	-0.818482
	12.165000	-0.873280
	12.170000	-0.799142
	12.175000	-0.744345
	12.180000	-0.821706
	12.185000	-0.870056
	12.190000	-0.799142
	12.195000	-0.744345
	12.200000	-0.818482
	12.205000	-0.873280
	12.210000	-0.795919
	12.215000	-0.734675
	12.220000	-0.821706
	12.225000	-0.873280
	12.230000	-0.795919
	12.235000	-0.744345
	12.240000	-0.815259
	12.245000	-0.873280
	12.250000	-0.799142
	12.255000	-0.744345
	12.260000	-0.815259
	12.265000	-0.873280
	12.270000	-0.802366
	12.275000	-0.741122
	12.280000	-0.821706
	12.285000	-0.876503
	12.290000	-0.792696
	12.295000	-0.747569
	12.300000	-0.821706
	12.305000	-0.876503
	12.310000	-0.795919
	12.315000	-0.747569
	12.320000	-0.824929
	12.325000	-0.876503
	12.330000	-0.795919
	12.335000	-0.747569
	12.340000	-0.824929
	12.345000	-0.876503
	12.350000	-0.799142
	12.355000	-0.744345
	12.360000	-0.821706
	12.365000	-0.879726
	12.370000	-0.795919
	12.375000	-0.747569
	12.380000	-0.821706
	12.385000	-0.879726
	12.390000	-0.799142
	12.395000	-0.750792
	12.400000	-0.828152
	12.405000	-0.882950
	12.410000	-0.799142
	12.415000	-0.747569
	12.420000	-0.821706
	12.425000	-0.882950
	12.430000	-0.805589
	12.435000	-0.750792
	12.440000	-0.828152
	12.445000	-0.882950
	12.450000	-0.799142
	12.455000	-0.760462
	12.460000	-0.831376
	12.465000	-0.882950
	12.470000	-0.808812
	12.475000	-0.754015
	12.480000	-0.834599
	12.485000	-0.882950
	12.490000	-0.805589
	12.495000	-0.754015
	12.500000	-0.834599
	12.505000	-0.886173
	12.510000	-0.799142
	12.515000	-0.754015
	12.520000	-0.834599
	12.525000	-0.879726
	12.530000	-0.812036
	12.535000	-0.760462
	12.540000	-0.834599
	12.545000	-0.892620
	12.550000	-0.805589
	12.555000	-0.757239
	12.560000	-0.831376
	12.565000	-0.886173
	12.570000	-0.805589
	12.575000	-0.754015
	12.580000	-0.828152
	12.585000	-0.889396
	12.590000	-0.805589
	12.595000	-0.750792
	12.600000	-0.837823
	12.605000	-0.882950
	12.610000	-0.802366
	12.615000	-0.754015
	12.620000	-0.824929
	12.625000	-0.879726
	12.630000	-0.805589
	12.635000	-0.757239
	12.640000	-0.834599
	12.645000	-0.882950
	12.650000	-0.802366
	12.655000	-0.750792
	12.660000	-0.828152
	12.665000	-0.879726
	12.670000	-0.805589
	12.675000	-0.754015
	12.680000	-0.834599
	12.685000	-0.882950
	12.690000	-0.805589
	12.695000	-0.757239
	12.700000	-0.831376
	12.705000	-0.889396
	12.710000	-0.799142
	12.715000	-0.754015
	12.720000	-0.834599
	12.725000	-0.876503
	12.730000	-0.805589
	12.735000	-0.754015
	12.740000	-0.831376
	12.745000	-0.879726
	12.750000	-0.802366
	12.755000	-0.750792
	12.760000	-0.834599
	12.765000	-0.889396
	12.770000	-0.808812
	12.775000	-0.750792
	12.780000	-0.837823
	12.785000	-0.886173
	12.790000	-0.805589
	12.795000	-0.754015
	12.800000	-0.841046
	12.805000	-0.886173
	12.810000	-0.802366
	12.815000	-0.757239
	12.820000	-0.837823
	12.825000	-0.882950
	12.830000	-0.808812
	12.835000	-0.757239
	12.840000	-0.841046
	12.845000	-0.886173
	12.850000	-0.805589
	12.855000	-0.760462
	12.860000	-0.837823
	12.865000	-0.886173
	12.870000	-0.802366
	12.875000	-0.757239
	12.880000	-0.837823
	12.885000	-0.889396
	12.890000	-0.805589
	12.895000	-0.760462
	12.900000	-0.837823
	12.905000	-0.889396
	12.910000	-0.805589
	12.915000	-0.763685
	12.920000	-0.841046
	12.925000	-0.889396
	12.930000	-0.812036
	12.935000	-0.757239
	12.940000	-0.837823
	12.945000	-0.892620
	12.950000	-0.808812
	12.955000	-0.760462
	12.960000	-0.844269
	12.965000	-0.895843
	12.970000	-0.808812
	12.975000	-0.763685
	12.980000	-0.844269
	12.985000	-0.889396
	12.990000	-0.805589
	12.995000	-0.763685
	13.000000	-0.847493
	13.005000	-0.895843
	13.010000	-0.808812
	13.015000	-0.763685
	13.020000	-0.841046
	13.025000	-0.886173
	13.030000	-0.805589
	13.035000	-0.763685
	13.040000	-0.844269
	13.045000	-0.892620
	13.050000	-0.808812
	13.055000	-0.760462
	13.060000	-0.837823
	13.065000	-0.895843
	13.070000	-0.812036
	13.075000	-0.763685
	13.080000	-0.844269
	13.085000	-0.886173
	13.090000	-0.812036
	13.095000	-0.757239
	13.100000	-0.841046
	13.105000	-0.889396
	13.110000	-0.802366
	13.115000	-0.757239
	13.120000	-0.841046
	13.125000	-0.886173
	13.130000	-0.799142
	13.135000	-0.760462
	13.140000	-0.831376
	13.145000	-0.873280
	13.150000	-0.799142
	13.155000	-0.750792
	13.160000	-0.831376
	13.165000	-0.873280
	13.170000	-0.786249
	13.175000	-0.741122
	13.180000	-0.818482
	13.185000	-0.853939
	13.190000	-0.766909
	13.195000	-0.708888
	13.200000	-0.789472
	13.205000	-0.824929
	13.210000	-0.731452
	13.215000	-0.679878
	13.220000	-0.754015
	13.225000	-0.789472
	13.230000	-0.702441
	13.235000	-0.647644
	13.240000	-0.721782
	13.245000	-0.763685
	13.250000	-0.676655
	13.255000	-0.637974
	13.260000	-0.705665
	13.265000	-0.734675
	13.270000	-0.657314
	13.275000	-0.612187
	13.280000	-0.679878
	13.285000	-0.721782
	13.290000	-0.641198
	13.295000	-0.592847
	13.300000	-0.673431
	13.305000	-0.712112
	13.310000	-0.631528
	13.315000	-0.589624
	13.320000	-0.666985
	13.325000	-0.705665
	13.330000	-0.621858
	13.335000	-0.576730
	13.340000	-0.660538
	13.345000	-0.705665
	13.350000	-0.615411
	13.355000	-0.573507
	13.360000	-0.650868
	13.365000	-0.686325
	13.370000	-0.615411
	13.375000	-0.579954
	13.380000	-0.654091
	13.385000	-0.695995
	13.390000	-0.618634
	13.395000	-0.570284
	13.400000	-0.654091
	13.405000	-0.695995
	13.410000	-0.621858
	13.415000	-0.570284
	13.420000	-0.657314
	13.425000	-0.699218
	13.430000	-0.631528
	13.435000	-0.583177
	13.440000	-0.660538
	13.445000	-0.702441
	13.450000	-0.628304
	13.455000	-0.586401
	13.460000	-0.663761
	13.465000	-0.712112
	13.470000	-0.628304
	13.475000	-0.592847
	13.480000	-0.673431
	13.485000	-0.712112
	13.490000	-0.631528
	13.495000	-0.599294
	13.500000	-0.676655
	13.505000	-0.715335
	13.510000	-0.644421
	13.515000	-0.599294
	13.520000	-0.689548
	13.525000	-0.731452
	13.530000	-0.650868
	13.535000	-0.612187
	13.540000	-0.695995
	13.545000	-0.734675
	13.550000	-0.666985
	13.555000	-0.628304
	13.560000	-0.708888
	13.565000	-0.763685
	13.570000	-0.686325
	13.575000	-0.654091
	13.580000	-0.747569
	13.585000	-0.792696
	13.590000	-0.731452
	13.595000	-0.695995
	13.600000	-0.786249
	13.605000	-0.834599
	13.610000	-0.763685
	13.615000	-0.728228
	13.620000	-0.815259
	13.625000	-0.870056
	13.630000	-0.789472
	13.635000	-0.757239
	13.640000	-0.847493
	13.645000	-0.895843
	13.650000	-0.815259
	13.655000	-0.776579
	13.660000	-0.863609
	13.665000	-0.905513
	13.670000	-0.824929
	13.675000	-0.779802
	13.680000	-0.863609
	13.685000	-0.899066
	13.690000	-0.815259
	13.695000	-0.773355
	13.700000	-0.853939
	13.705000	-0.892620
	13.710000	-0.802366
	13.715000	-0.763685
	13.720000	-0.837823
	13.725000	-0.879726
	13.730000	-0.792696
	13.735000	-0.747569
	13.740000	-0.824929
	13.745000	-0.866833
	13.750000	-0.779802
	13.755000	-0.741122
	13.760000	-0.812036
	13.765000	-0.857163
	13.770000	-0.766909
	13.775000	-0.731452
	13.780000	-0.805589
	13.785000	-0.850716
	13.790000	-0.760462
	13.795000	-0.721782
	13.800000	-0.795919
	13.805000	-0.841046
	13.810000	-0.754015
	13.815000	-0.715335
	13.820000	-0.792696
	13.825000	-0.831376
	13.830000	-0.747569
	13.835000	-0.705665
	13.840000	-0.792696
	13.845000	-0.831376
	13.850000	-0.754015
	13.855000	-0.708888
	13.860000	-0.792696
	13.865000	-0.831376
	13.870000	-0.747569
	13.875000	-0.705665
	13.880000	-0.789472
	13.885000	-0.834599
	13.890000	-0.747569
	13.895000	-0.705665
	13.900000	-0.792696
	13.905000	-0.828152
	13.910000	-0.747569
	13.915000	-0.705665
	13.920000	-0.795919
	13.925000	-0.841046
	13.930000	-0.754015
	13.935000	-0.715335
	13.940000	-0.799142
	13.945000	-0.847493
	13.950000	-0.760462
	13.955000	-0.721782
	13.960000	-0.808812
	13.965000	-0.850716
	13.970000	-0.770132
	13.975000	-0.731452
	13.980000	-0.818482
	13.985000	-0.863609
	13.990000	-0.779802
	13.995000	-0.737898
	14.000000	-0.824929
	14.005000	-0.870056
	14.010000	-0.783025
	14.015000	-0.747569
	14.020000	-0.831376
	14.025000	-0.870056
	14.030000	-0.792696
	14.035000	-0.754015
	14.040000	-0.834599
	14.045000	-0.879726
	14.050000	-0.802366
	14.055000	-0.760462
	14.060000	-0.841046
	14.065000	-0.879726
	14.070000	-0.799142
	14.075000	-0.766909
	14.080000	-0.850716
	14.085000	-0.889396
	14.090000	-0.805589
	14.095000	-0.766909
	14.100000	-0.857163
	14.105000	-0.895843
	14.110000	-0.815259
	14.115000	-0.773355
	14.120000	-0.860386
	14.125000	-0.899066
	14.130000	-0.824929
	14.135000	-0.779802
	14.140000	-0.870056
	14.145000	-0.908736
	14.150000	-0.821706
	14.155000	-0.789472
	14.160000	-0.870056
	14.165000	-0.908736
	14.170000	-0.828152
	14.175000	-0.786249
	14.180000	-0.876503
	14.185000	-0.915183
	14.190000	-0.831376
	14.195000	-0.786249
	14.200000	-0.879726
	14.205000	-0.921630
	14.210000	-0.837823
	14.215000	-0.795919
	14.220000	-0.886173
	14.225000	-0.921630
	14.230000	-0.841046
	14.235000	-0.805589
	14.240000	-0.889396
	14.245000	-0.928077
	14.250000	-0.844269
	14.255000	-0.808812
	14.260000	-0.889396
	14.265000	-0.931300
	14.270000	-0.847493
	14.275000	-0.805589
	14.280000	-0.892620
	14.285000	-0.928077
	14.290000	-0.844269
	14.295000	-0.808812
	14.300000	-0.895843
	14.305000	-0.931300
	14.310000	-0.844269
	14.315000	-0.805589
	14.320000	-0.899066
	14.325000	-0.931300
	14.330000	-0.844269
	14.335000	-0.808812
	14.340000	-0.899066
	14.345000	-0.934523
	14.350000	-0.844269
	14.355000	-0.805589
	14.360000	-0.902290
	14.365000	-0.944193
	14.370000	-0.850716
	14.375000	-0.805589
	14.380000	-0.895843
	14.385000	-0.937747
	14.390000	-0.850716
	14.395000	-0.815259
	14.400000	-0.892620
	14.405000	-0.944193
	14.410000	-0.857163
	14.415000	-0.812036
	14.420000	-0.902290
	14.425000	-0.937747
	14.430000	-0.850716
	14.435000	-0.818482
	14.440000	-0.908736
	14.445000	-0.944193
	14.450000	-0.853939
	14.455000	-0.818482
	14.460000	-0.899066
	14.465000	-0.937747
	14.470000	-0.860386
	14.475000	-0.812036
	14.480000	-0.902290
	14.485000	-0.940970
	14.490000	-0.860386
	14.495000	-0.815259
	14.500000	-0.899066
	14.505000	-0.934523
	14.510000	-0.853939
	14.515000	-0.815259
	14.520000	-0.902290
	14.525000	-0.944193
	14.530000	-0.857163
	14.535000	-0.812036
	14.540000	-0.902290
	14.545000	-0.937747
	14.550000	-0.850716
	14.555000	-0.815259
	14.560000	-0.895843
	14.565000	-0.937747
	14.570000	-0.850716
	14.575000	-0.815259
	14.580000	-0.902290
	14.585000	-0.940970
	14.590000	-0.853939
	14.595000	-0.812036
	14.600000	-0.899066
	14.605000	-0.934523
	14.610000	-0.847493
	14.615000	-0.808812
	14.620000	-0.895843
	14.625000	-0.928077
	14.630000	-0.847493
	14.635000	-0.808812
	14.640000	-0.895843
	14.645000	-0.940970
	14.650000	-0.850716
	14.655000	-0.815259
	14.660000	-0.902290
	14.665000	-0.937747
	14.670000	-0.850716
	14.675000	-0.812036
	14.680000	-0.895843
	14.685000	-0.937747
	14.690000	-0.844269
	14.695000	-0.812036
	14.700000	-0.895843
	14.705000	-0.937747
	14.710000	-0.850716
	14.715000	-0.812036
	14.720000	-0.895843
	14.725000	-0.931300
	14.730000	-0.844269
	14.735000	-0.808812
	14.740000	-0.895843
	14.745000	-0.937747
	14.750000	-0.844269
	14.755000	-0.812036
	14.760000	-0.902290
	14.765000	-0.937747
	14.770000	-0.844269
	14.775000	-0.805589
	14.780000	-0.899066
	14.785000	-0.940970
	14.790000	-0.853939
	14.795000	-0.805589
	14.800000	-0.892620
	14.805000	-0.934523
	14.810000	-0.850716
	14.815000	-0.812036
	14.820000	-0.899066
	14.825000	-0.934523
	14.830000	-0.847493
	14.835000	-0.812036
	14.840000	-0.899066
	14.845000	-0.940970
	14.850000	-0.850716
	14.855000	-0.815259
	14.860000	-0.908736
	14.865000	-0.940970
	14.870000	-0.857163
	14.875000	-0.815259
	14.880000	-0.902290
	14.885000	-0.937747
	14.890000	-0.853939
	14.895000	-0.808812
	14.900000	-0.899066
	14.905000	-0.940970
	14.910000	-0.850716
	14.915000	-0.808812
	14.920000	-0.905513
	14.925000	-0.940970
	14.930000	-0.853939
	14.935000	-0.815259
	14.940000	-0.902290
	14.945000	-0.934523
	14.950000	-0.853939
	14.955000	-0.818482
	14.960000	-0.902290
	14.965000	-0.944193
	14.970000	-0.850716
	14.975000	-0.815259
	14.980000	-0.902290
	14.985000	-0.934523
	14.990000	-0.850716
	14.995000	-0.812036
	15.000000	-0.908736
	15.005000	-0.940970
	15.010000	-0.853939
	15.015000	-0.821706
	15.020000	-0.905513
	15.025000	-0.937747
	15.030000	-0.850716
	15.035000	-0.818482
	15.040000	-0.905513
	15.045000	-0.937747
	15.050000	-0.853939
	15.055000	-0.818482
	15.060000	-0.895843
	15.065000	-0.937747
	15.070000	-0.850716
	15.075000	-0.812036
	15.080000	-0.905513
	15.085000	-0.944193
	15.090000	-0.850716
	15.095000	-0.812036
	15.100000	-0.908736
	15.105000	-0.937747
	15.110000	-0.850716
	15.115000	-0.815259
	15.120000	-0.905513
	15.125000	-0.937747
	15.130000	-0.853939
	15.135000	-0.824929
	15.140000	-0.905513
	15.145000	-0.934523
	15.150000	-0.850716
	15.155000	-0.815259
	15.160000	-0.902290
	15.165000	-0.940970
	15.170000	-0.850716
	15.175000	-0.821706
	15.180000	-0.911960
	15.185000	-0.944193
	15.190000	-0.857163
	15.195000	-0.824929
	15.200000	-0.905513
	15.205000	-0.944193
	15.210000	-0.860386
	15.215000	-0.824929
	15.220000	-0.908736
	15.225000	-0.940970
	15.230000	-0.860386
	15.235000	-0.828152
	15.240000	-0.908736
	15.245000	-0.940970
	15.250000	-0.863609
	15.255000	-0.821706
	15.260000	-0.908736
	15.265000	-0.947417
	15.270000	-0.860386
	15.275000	-0.828152
	15.280000	-0.911960
	15.285000	-0.947417
	15.290000	-0.863609
	15.295000	-0.828152
	15.300000	-0.918407
	15.305000	-0.950640
	15.310000	-0.870056
	15.315000	-0.831376
	15.320000	-0.911960
	15.325000	-0.944193
	15.330000	-0.863609
	15.335000	-0.828152
	15.340000	-0.918407
	15.345000	-0.950640
	15.350000	-0.866833
	15.355000	-0.824929
	15.360000	-0.921630
	15.365000	-0.950640
	15.370000	-0.857163
	15.375000	-0.824929
	15.380000	-0.915183
	15.385000	-0.953863
	15.390000	-0.863609
	15.395000	-0.824929
	15.400000	-0.918407
	15.405000	-0.947417
	15.410000	-0.860386
	15.415000	-0.824929
	15.420000	-0.908736
	15.425000	-0.947417
	15.430000	-0.863609
	15.435000	-0.824929
	15.440000	-0.911960
	15.445000	-0.944193
	15.450000	-0.860386
	15.455000	-0.824929
	15.460000	-0.915183
	15.465000	-0.947417
	15.470000	-0.860386
	15.475000	-0.824929
	15.480000	-0.915183
	15.485000	-0.947417
	15.490000	-0.860386
	15.495000	-0.828152
	15.500000	-0.908736
	15.505000	-0.944193
	15.510000	-0.860386
	15.515000	-0.828152
	15.520000	-0.911960
	15.525000	-0.947417
	15.530000	-0.863609
	15.535000	-0.824929
	15.540000	-0.915183
	15.545000	-0.940970
	15.550000	-0.857163
	15.555000	-0.824929
	15.560000	-0.905513
	15.565000	-0.940970
	15.570000	-0.850716
	15.575000	-0.821706
	15.580000	-0.908736
	15.585000	-0.937747
	15.590000	-0.850716
	15.595000	-0.812036
	15.600000	-0.895843
	15.605000	-0.924853
	15.610000	-0.824929
	15.615000	-0.789472
	15.620000	-0.870056
	15.625000	-0.895843
	15.630000	-0.808812
	15.635000	-0.766909
	15.640000	-0.844269
	15.645000	-0.876503
	15.650000	-0.783025
	15.655000	-0.741122
	15.660000	-0.821706
	15.665000	-0.853939
	15.670000	-0.763685
	15.675000	-0.725005
	15.680000	-0.802366
	15.685000	-0.828152
	15.690000	-0.744345
	15.695000	-0.702441
	15.700000	-0.786249
	15.705000	-0.818482
	15.710000	-0.728228
	15.715000	-0.692771
	15.720000	-0.773355
	15.725000	-0.802366
	15.730000	-0.721782
	15.735000	-0.689548
	15.740000	-0.773355
	15.745000	-0.795919
	15.750000	-0.715335
	15.755000	-0.683101
	15.760000	-0.760462
	15.765000	-0.795919
	15.770000	-0.712112
	15.775000	-0.676655
	15.780000	-0.763685
	15.785000	-0.795919
	15.790000	-0.708888
	15.795000	-0.676655
	15.800000	-0.763685
	15.805000	-0.799142
	15.810000	-0.715335
	15.815000	-0.676655
	15.820000	-0.763685
	15.825000	-0.799142
	15.830000	-0.718558
	15.835000	-0.683101
	15.840000	-0.773355
	15.845000	-0.805589
	15.850000	-0.728228
	15.855000	-0.692771
	15.860000	-0.779802
	15.865000	-0.815259
	15.870000	-0.737898
	15.875000	-0.695995
	15.880000	-0.789472
	15.885000	-0.818482
	15.890000	-0.744345
	15.895000	-0.715335
	15.900000	-0.799142
	15.905000	-0.837823
	15.910000	-0.763685
	15.915000	-0.728228
	15.920000	-0.818482
	15.925000	-0.863609
	15.930000	-0.779802
	15.935000	-0.754015
	15.940000	-0.847493
	15.945000	-0.879726
	15.950000	-0.795919
	15.955000	-0.776579
	15.960000	-0.863609
	15.965000	-0.908736
	15.970000	-0.824929
	15.975000	-0.795919
	15.980000	-0.886173
	15.985000	-0.921630
	15.990000	-0.850716
	15.995000	-0.824929
	16.000000	-0.911960
	16.005000	-0.950640
	16.010000	-0.863609
	16.015000	-0.841046
	16.020000	-0.924853
	16.025000	-0.963534
	16.030000	-0.870056
	16.035000	-0.844269
	16.040000	-0.931300
	16.045000	-0.960310
	16.050000	-0.876503
	16.055000	-0.844269
	16.060000	-0.924853
	16.065000	-0.957087
	16.070000	-0.873280
	16.075000	-0.837823
	16.080000	-0.918407
	16.085000	-0.953863
	16.090000	-0.866833
	16.095000	-0.824929
	16.100000	-0.915183
	16.105000	-0.944193
	16.110000	-0.847493
	16.115000	-0.818482
	16.120000	-0.902290
	16.125000	-0.944193
	16.130000	-0.841046
	16.135000	-0.812036
	16.140000	-0.892620
	16.145000	-0.924853
	16.150000	-0.837823
	16.155000	-0.792696
	16.160000	-0.886173
	16.165000	-0.911960
	16.170000	-0.821706
	16.175000	-0.789472
	16.180000	-0.876503
	16.185000	-0.902290
	16.190000	-0.818482
	16.195000	-0.776579
	16.200000	-0.866833
	16.205000	-0.895843
	16.210000	-0.808812
	16.215000	-0.773355
	16.220000	-0.860386
	16.225000	-0.895843
	16.230000	-0.805589
	16.235000	-0.770132
	16.240000	-0.853939
	16.245000	-0.882950
	16.250000	-0.799142
	16.255000	-0.766909
	16.260000	-0.853939
	16.265000	-0.886173
	16.270000	-0.805589
	16.275000	-0.770132
	16.280000	-0.860386
	16.285000	-0.889396
	16.290000	-0.808812
	16.295000	-0.776579
	16.300000	-0.870056
	16.305000	-0.899066
	16.310000	-0.815259
	16.315000	-0.783025
	16.320000	-0.870056
	16.325000	-0.911960
	16.330000	-0.824929
	16.335000	-0.792696
	16.340000	-0.882950
	16.345000	-0.921630
	16.350000	-0.834599
	16.355000	-0.802366
	16.360000	-0.892620
	16.365000	-0.931300
	16.370000	-0.837823
	16.375000	-0.812036
	16.380000	-0.902290
	16.385000	-0.937747
	16.390000	-0.853939
	16.395000	-0.821706
	16.400000	-0.908736
	16.405000	-0.944193
	16.410000	-0.857163
	16.415000	-0.824929
	16.420000	-0.915183
	16.425000	-0.947417
	16.430000	-0.860386
	16.435000	-0.828152
	16.440000	-0.918407
	16.445000	-0.950640
	16.450000	-0.870056
	16.455000	-0.828152
	16.460000	-0.924853
	16.465000	-0.957087
	16.470000	-0.870056
	16.475000	-0.837823
	16.480000	-0.924853
	16.485000	-0.960310
	16.490000	-0.870056
	16.495000	-0.837823
	16.500000	-0.924853
	16.505000	-0.960310
	16.510000	-0.873280
	16.515000	-0.841046
	16.520000	-0.931300
	16.525000	-0.963534
	16.530000	-0.876503
	16.535000	-0.841046
	16.540000	-0.928077
	16.545000	-0.966757
	16.550000	-0.870056
	16.555000	-0.844269
	16.560000	-0.928077
	16.565000	-0.966757
	16.570000	-0.876503
	16.575000	-0.844269
	16.580000	-0.931300
	16.585000	-0.963534
	16.590000	-0.876503
	16.595000	-0.844269
	16.600000	-0.934523
	16.605000	-0.969980
	16.610000	-0.886173
	16.615000	-0.853939
	16.620000	-0.928077
	16.625000	-0.969980
	16.630000	-0.882950
	16.635000	-0.847493
	16.640000	-0.937747
	16.645000	-0.966757
	16.650000	-0.879726
	16.655000	-0.847493
	16.660000	-0.937747
	16.665000	-0.966757
	16.670000	-0.879726
	16.675000	-0.847493
	16.680000	-0.937747
	16.685000	-0.969980
	16.690000	-0.886173
	16.695000	-0.850716
	16.700000	-0.937747
	16.705000	-0.966757
	16.710000	-0.886173
	16.715000	-0.847493
	16.720000	-0.940970
	16.725000	-0.976427
	16.730000	-0.882950
	16.735000	-0.847493
	16.740000	-0.944193
	16.745000	-0.973204
	16.750000	-0.889396
	16.755000	-0.850716
	16.760000	-0.940970
	16.765000	-0.979650
	16.770000	-0.886173
	16.775000	-0.853939
	16.780000	-0.937747
	16.785000	-0.973204
	16.790000	-0.886173
	16.795000	-0.850716
	16.800000	-0.937747
	16.805000	-0.976427
	16.810000	-0.889396
	16.815000	-0.850716
	16.820000	-0.940970
	16.825000	-0.982874
	16.830000	-0.886173
	16.835000	-0.850716
	16.840000	-0.937747
	16.845000	-0.976427
	16.850000	-0.882950
	16.855000	-0.853939
	16.860000	-0.944193
	16.865000	-0.976427
	16.870000	-0.886173
	16.875000	-0.853939
	16.880000	-0.944193
	16.885000	-0.979650
	16.890000	-0.892620
	16.895000	-0.853939
	16.900000	-0.947417
	16.905000	-0.979650
	16.910000	-0.892620
	16.915000	-0.850716
	16.920000	-0.940970
	16.925000	-0.976427
	16.930000	-0.892620
	16.935000	-0.857163
	16.940000	-0.937747
	16.945000	-0.976427
	16.950000	-0.886173
	16.955000	-0.847493
	16.960000	-0.947417
	16.965000	-0.982874
	16.970000	-0.889396
	16.975000	-0.853939
	16.980000	-0.947417
	16.985000	-0.979650
	16.990000	-0.889396
	16.995000	-0.857163
	17.000000	-0.940970
	17.005000	-0.979650
	17.010000	-0.889396
	17.015000	-0.853939
	17.020000	-0.940970
	17.025000	-0.976427
	17.030000	-0.895843
	17.035000	-0.847493
	17.040000	-0.947417
	17.045000	-0.973204
	17.050000	-0.889396
	17.055000	-0.853939
	17.060000	-0.940970
	17.065000	-0.969980
	17.070000	-0.886173
	17.075000	-0.853939
	17.080000	-0.944193
	17.085000	-0.969980
	17.090000	-0.886173
	17.095000	-0.853939
	17.100000	-0.940970
	17.105000	-0.973204
	17.110000	-0.886173
	17.115000	-0.850716
	17.120000	-0.940970
	17.125000	-0.969980
	17.130000	-0.879726
	17.135000	-0.857163
	17.140000	-0.940970
	17.145000	-0.976427
	17.150000	-0.882950
	17.155000	-0.844269
	17.160000	-0.944193
	17.165000	-0.973204
	17.170000	-0.882950
	17.175000	-0.847493
	17.180000	-0.937747
	17.185000	-0.976427
	17.190000	-0.889396
	17.195000	-0.847493
	17.200000	-0.937747
	17.205000	-0.969980
	17.210000	-0.889396
	17.215000	-0.844269
	17.220000	-0.937747
	17.225000	-0.973204
	17.230000	-0.882950
	17.235000	-0.853939
	17.240000	-0.940970
	17.245000	-0.966757
	17.250000	-0.889396
	17.255000	-0.853939
	17.260000	-0.940970
	17.265000	-0.973204
	17.270000	-0.886173
	17.275000	-0.853939
	17.280000	-0.944193
	17.285000	-0.976427
	17.290000	-0.889396
	17.295000	-0.853939
	17.300000	-0.940970
	17.305000	-0.973204
	17.310000	-0.892620
	17.315000	-0.853939
	17.320000	-0.940970
	17.325000	-0.973204
	17.330000	-0.879726
	17.335000	-0.847493
	17.340000	-0.934523
	17.345000	-0.969980
	17.350000	-0.876503
	17.355000	-0.847493
	17.360000	-0.934523
	17.365000	-0.969980
	17.370000	-0.882950
	17.375000	-0.841046
	17.380000	-0.931300
	17.385000	-0.963534
	17.390000	-0.879726
	17.395000	-0.850716
	17.400000	-0.937747
	17.405000	-0.966757
	17.410000	-0.876503
	17.415000	-0.847493
	17.420000	-0.940970
	17.425000	-0.969980
	17.430000	-0.873280
	17.435000	-0.841046
	17.440000	-0.934523
	17.445000	-0.966757
	17.450000	-0.882950
	17.455000	-0.844269
	17.460000	-0.937747
	17.465000	-0.969980
	17.470000	-0.876503
	17.475000	-0.844269
	17.480000	-0.937747
	17.485000	-0.969980
	17.490000	-0.879726
	17.495000	-0.844269
	17.500000	-0.928077
	17.505000	-0.966757
	17.510000	-0.879726
	17.515000	-0.834599
	17.520000	-0.934523
	17.525000	-0.966757
	17.530000	-0.879726
	17.535000	-0.844269
	17.540000	-0.937747
	17.545000	-0.969980
	17.550000	-0.879726
	17.555000	-0.850716
	17.560000	-0.940970
	17.565000	-0.966757
	17.570000	-0.873280
	17.575000	-0.847493
	17.580000	-0.934523
	17.585000	-0.969980
	17.590000	-0.876503
	17.595000	-0.841046
	17.600000	-0.937747
	17.605000	-0.973204
	17.610000	-0.879726
	17.615000	-0.850716
	17.620000	-0.934523
	17.625000	-0.973204
	17.630000	-0.886173
	17.635000	-0.847493
	17.640000	-0.937747
	17.645000	-0.969980
	17.650000	-0.882950
	17.655000	-0.850716
	17.660000	-0.944193
	17.665000	-0.976427
	17.670000	-0.886173
	17.675000	-0.860386
	17.680000	-0.937747
	17.685000	-0.976427
	17.690000	-0.892620
	17.695000	-0.853939
	17.700000	-0.944193
	17.705000	-0.976427
	17.710000	-0.886173
	17.715000	-0.847493
	17.720000	-0.947417
	17.725000	-0.973204
	17.730000	-0.886173
	17.735000	-0.847493
	17.740000	-0.940970
	17.745000	-0.966757
	17.750000	-0.882950
	17.755000	-0.847493
	17.760000	-0.940970
	17.765000	-0.969980
	17.770000	-0.886173
	17.775000	-0.844269
	17.780000	-0.940970
	17.785000	-0.969980
	17.790000	-0.882950
	17.795000	-0.850716
	17.800000	-0.937747
	17.805000	-0.969980
	17.810000	-0.882950
	17.815000	-0.850716
	17.820000	-0.940970
	17.825000	-0.976427
	17.830000	-0.882950
	17.835000	-0.847493
	17.840000	-0.937747
	17.845000	-0.976427
	17.850000	-0.879726
	17.855000	-0.844269
	17.860000	-0.934523
	17.865000	-0.966757
	17.870000	-0.882950
	17.875000	-0.847493
	17.880000	-0.940970
	17.885000	-0.973204
	17.890000	-0.882950
	17.895000	-0.850716
	17.900000	-0.934523
	17.905000	-0.966757
	17.910000	-0.882950
	17.915000	-0.844269
	17.920000	-0.937747
	17.925000	-0.966757
	17.930000	-0.879726
	17.935000	-0.850716
	17.940000	-0.934523
	17.945000	-0.969980
	17.950000	-0.882950
	17.955000	-0.847493
	17.960000	-0.937747
	17.965000	-0.973204
	17.970000	-0.886173
	17.975000	-0.847493
	17.980000	-0.937747
	17.985000	-0.969980
	17.990000	-0.879726
	17.995000	-0.850716
	18.000000	-0.937747
	18.005000	-0.969980
	18.010000	-0.886173
	18.015000	-0.847493
	18.020000	-0.940970
	18.025000	-0.969980
	18.030000	-0.879726
	18.035000	-0.847493
	18.040000	-0.931300
	18.045000	-0.969980
	18.050000	-0.882950
	18.055000	-0.841046
	18.060000	-0.937747
	18.065000	-0.973204
	18.070000	-0.882950
	18.075000	-0.844269
	18.080000	-0.934523
	18.085000	-0.963534
	18.090000	-0.876503
	18.095000	-0.850716
	18.100000	-0.931300
	18.105000	-0.966757
	18.110000	-0.876503
	18.115000	-0.841046
	18.120000	-0.928077
	18.125000	-0.960310
	18.130000	-0.876503
	18.135000	-0.837823
	18.140000	-0.921630
	18.145000	-0.957087
	18.150000	-0.863609
	18.155000	-0.828152
	18.160000	-0.911960
	18.165000	-0.947417
	18.170000	-0.847493
	18.175000	-0.812036
	18.180000	-0.895843
	18.185000	-0.921630
	18.190000	-0.831376
	18.195000	-0.792696
	18.200000	-0.866833
	18.205000	-0.895843
	18.210000	-0.799142
	18.215000	-0.760462
	18.220000	-0.844269
	18.225000	-0.876503
	18.230000	-0.786249
	18.235000	-0.741122
	18.240000	-0.821706
	18.245000	-0.857163
	18.250000	-0.766909
	18.255000	-0.728228
	18.260000	-0.805589
	18.265000	-0.844269
	18.270000	-0.754015
	18.275000	-0.708888
	18.280000	-0.792696
	18.285000	-0.824929
	18.290000	-0.744345
	18.295000	-0.705665
	18.300000	-0.789472
	18.305000	-0.821706
	18.310000	-0.728228
	18.315000	-0.692771
	18.320000	-0.776579
	18.325000	-0.812036
	18.330000	-0.725005
	18.335000	-0.692771
	18.340000	-0.776579
	18.345000	-0.815259
	18.350000	-0.721782
	18.355000	-0.689548
	18.360000	-0.773355
	18.365000	-0.808812
	18.370000	-0.721782
	18.375000	-0.689548
	18.380000	-0.773355
	18.385000	-0.805589
	18.390000	-0.725005
	18.395000	-0.695995
	18.400000	-0.779802
	18.405000	-0.818482
	18.410000	-0.737898
	18.415000	-0.702441
	18.420000	-0.786249
	18.425000	-0.821706
	18.430000	-0.744345
	18.435000	-0.708888
	18.440000	-0.789472
	18.445000	-0.831376
	18.450000	-0.744345
	18.455000	-0.715335
	18.460000	-0.799142
	18.465000	-0.828152
	18.470000	-0.757239
	18.475000	-0.718558
	18.480000	-0.802366
	18.485000	-0.844269
	18.490000	-0.754015
	18.495000	-0.728228
	18.500000	-0.805589
	18.505000	-0.847493
	18.510000	-0.770132
	18.515000	-0.728228
	18.520000	-0.812036
	18.525000	-0.853939
	18.530000	-0.776579
	18.535000	-0.737898
	18.540000	-0.831376
	18.545000	-0.863609
	18.550000	-0.783025
	18.555000	-0.760462
	18.560000	-0.841046
	18.565000	-0.882950
	18.570000	-0.802366
	18.575000	-0.776579
	18.580000	-0.863609
	18.585000	-0.905513
	18.590000	-0.828152
	18.595000	-0.802366
	18.600000	-0.889396
	18.605000	-0.928077
	18.610000	-0.844269
	18.615000	-0.824929
	18.620000	-0.918407
	18.625000	-0.953863
	18.630000	-0.879726
	18.635000	-0.844269
	18.640000	-0.931300
	18.645000	-0.969980
	18.650000	-0.892620
	18.655000	-0.850716
	18.660000	-0.937747
	18.665000	-0.973204
	18.670000	-0.882950
	18.675000	-0.850716
	18.680000	-0.937747
	18.685000	-0.969980
	18.690000	-0.882950
	18.695000	-0.844269
	18.700000	-0.931300
	18.705000	-0.966757
	18.710000	-0.879726
	18.715000	-0.837823
	18.720000	-0.921630
	18.725000	-0.957087
	18.730000	-0.870056
	18.735000	-0.837823
	18.740000	-0.918407
	18.745000	-0.947417
	18.750000	-0.863609
	18.755000	-0.828152
	18.760000	-0.915183
	18.765000	-0.947417
	18.770000	-0.850716
	18.775000	-0.818482
	18.780000	-0.905513
	18.785000	-0.937747
	18.790000	-0.850716
	18.795000	-0.818482
	18.800000	-0.899066
	18.805000	-0.934523
	18.810000	-0.857163
	18.815000	-0.818482
	18.820000	-0.902290
	18.825000	-0.940970
	18.830000	-0.857163
	18.835000	-0.821706
	18.840000	-0.905513
	18.845000	-0.947417
	18.850000	-0.853939
	18.855000	-0.824929
	18.860000	-0.908736
	18.865000	-0.950640
	18.870000	-0.857163
	18.875000	-0.824929
	18.880000	-0.915183
	18.885000	-0.957087
	18.890000	-0.870056
	18.895000	-0.837823
	18.900000	-0.921630
	18.905000	-0.957087
	18.910000	-0.879726
	18.915000	-0.834599
	18.920000	-0.928077
	18.925000	-0.969980
	18.930000	-0.882950
	18.935000	-0.850716
	18.940000	-0.934523
	18.945000	-0.979650
	18.950000	-0.892620
	18.955000	-0.866833
	18.960000	-0.947417
	18.965000	-0.986097
	18.970000	-0.905513
	18.975000	-0.870056
	18.980000	-0.957087
	18.985000	-0.995767
	18.990000	-0.908736
	18.995000	-0.879726
	19.000000	-0.960310
	19.005000	-0.998991
	19.010000	-0.911960
	19.015000	-0.879726
	19.020000	-0.973204
	19.025000	-1.002214
	19.030000	-0.921630
	19.035000	-0.879726
	19.040000	-0.966757
	19.045000	-1.011884
	19.050000	-0.924853
	19.055000	-0.882950
	19.060000	-0.973204
	19.065000	-1.011884
	19.070000	-0.924853
	19.075000	-0.889396
	19.080000	-0.973204
	19.085000	-1.011884
	19.090000	-0.921630
	19.095000	-0.889396
	19.100000	-0.979650
	19.105000	-1.011884
	19.110000	-0.928077
	19.115000	-0.895843
	19.120000	-0.982874
	19.125000	-1.015107
	19.130000	-0.928077
	19.135000	-0.895843
	19.140000	-0.976427
	19.145000	-1.018331
	19.150000	-0.928077
	19.155000	-0.895843
	19.160000	-0.986097
	19.165000	-1.021554
	19.170000	-0.934523
	19.175000	-0.892620
	19.180000	-0.979650
	19.185000	-1.021554
	19.190000	-0.931300
	19.195000	-0.895843
	19.200000	-0.986097
	19.205000	-1.021554
	19.210000	-0.931300
	19.215000	-0.895843
	19.220000	-0.979650
	19.225000	-1.021554
	19.230000	-0.934523
	19.235000	-0.895843
	19.240000	-0.979650
	19.245000	-1.015107
	19.250000	-0.937747
	19.255000	-0.892620
	19.260000	-0.976427
	19.265000	-1.015107
	19.270000	-0.928077
	19.275000	-0.889396
	19.280000	-0.976427
	19.285000	-1.015107
	19.290000	-0.931300
	19.295000	-0.889396
	19.300000	-0.976427
	19.305000	-1.015107
	19.310000	-0.934523
	19.315000	-0.892620
	19.320000	-0.976427
	19.325000	-1.018331
	19.330000	-0.928077
	19.335000	-0.889396
	19.340000	-0.979650
	19.345000	-1.018331
	19.350000	-0.931300
	19.355000	-0.892620
	19.360000	-0.979650
	19.365000	-1.011884
	19.370000	-0.934523
	19.375000	-0.892620
	19.380000	-0.976427
	19.385000	-1.008661
	19.390000	-0.924853
	19.395000	-0.895843
	19.400000	-0.973204
	19.405000	-1.021554
	19.410000	-0.931300
	19.415000	-0.892620
	19.420000	-0.976427
	19.425000	-1.015107
	19.430000	-0.928077
	19.435000	-0.882950
	19.440000	-0.979650
	19.445000	-1.015107
	19.450000	-0.928077
	19.455000	-0.889396
	19.460000	-0.979650
	19.465000	-1.018331
	19.470000	-0.931300
	19.475000	-0.889396
	19.480000	-0.979650
	19.485000	-1.015107
	19.490000	-0.921630
	19.495000	-0.882950
	19.500000	-0.982874
	19.505000	-1.015107
	19.510000	-0.928077
	19.515000	-0.899066
	19.520000	-0.976427
	19.525000	-1.018331
	19.530000	-0.931300
	19.535000	-0.889396
	19.540000	-0.976427
	19.545000	-1.024777
	19.550000	-0.931300
	19.555000	-0.889396
	19.560000	-0.979650
	19.565000	-1.018331
	19.570000	-0.931300
	19.575000	-0.892620
	19.580000	-0.979650
	19.585000	-1.021554
	19.590000	-0.934523
	19.595000	-0.895843
	19.600000	-0.979650
	19.605000	-1.018331
	19.610000	-0.934523
	19.615000	-0.892620
	19.620000	-0.982874
	19.625000	-1.021554
	19.630000	-0.931300
	19.635000	-0.895843
	19.640000	-0.986097
	19.645000	-1.021554
	19.650000	-0.934523
	19.655000	-0.895843
	19.660000	-0.982874
	19.665000	-1.024777
	19.670000	-0.934523
	19.675000	-0.895843
	19.680000	-0.979650
	19.685000	-1.021554
	19.690000	-0.940970
	19.695000	-0.902290
	19.700000	-0.982874
	19.705000	-1.018331
	19.710000	-0.940970
	19.715000	-0.899066
	19.720000	-0.982874
	19.725000	-1.024777
	19.730000	-0.931300
	19.735000	-0.899066
	19.740000	-0.986097
	19.745000	-1.024777
	19.750000	-0.931300
	19.755000	-0.899066
	19.760000	-0.982874
	19.765000	-1.021554
	19.770000	-0.937747
	19.775000	-0.899066
	19.780000	-0.986097
	19.785000	-1.024777
	19.790000	-0.940970
	19.795000	-0.905513
	19.800000	-0.982874
	19.805000	-1.021554
	19.810000	-0.940970
	19.815000	-0.902290
	19.820000	-0.986097
	19.825000	-1.024777
	19.830000	-0.940970
	19.835000	-0.902290
	19.840000	-0.986097
	19.845000	-1.024777
	19.850000	-0.934523
	19.855000	-0.899066
	19.860000	-0.982874
	19.865000	-1.028001
	19.870000	-0.940970
	19.875000	-0.902290
	19.880000	-0.986097
	19.885000	-1.024777
	19.890000	-0.944193
	19.895000	-0.899066
	19.900000	-0.979650
	19.905000	-1.024777
	19.910000	-0.937747
	19.915000	-0.895843
	19.920000	-0.986097
	19.925000	-1.024777
	19.930000	-0.940970
	19.935000	-0.899066
	19.940000	-0.986097
	19.945000	-1.024777
	19.950000	-0.937747
	19.955000	-0.895843
	19.960000	-0.989320
	19.965000	-1.031224
	19.970000	-0.937747
	19.975000	-0.902290
	19.980000	-0.986097
	19.985000	-1.031224
	19.990000	-0.937747
	19.995000	-0.899066
	20.000000	-0.982874
	20.005000	-1.028001
	20.010000	-0.940970
	20.015000	-0.905513
	20.020000	-0.992544
	20.025000	-1.031224
	20.030000	-0.947417
	20.035000	-0.908736
	20.040000	-0.992544
	20.045000	-1.031224
	20.050000	-0.950640
	20.055000	-0.902290
	20.060000	-0.989320
	20.065000	-1.031224
	20.070000	-0.953863
	20.075000	-0.905513
	20.080000	-0.989320
	20.085000	-1.031224
	20.090000	-0.950640
	20.095000	-0.905513
	20.100000	-0.986097
	20.105000	-1.037671
	20.110000	-0.950640
	20.115000	-0.905513
	20.120000	-0.995767
	20.125000	-1.031224
	20.130000	-0.947417
	20.135000	-0.905513
	20.140000	-0.989320
	20.145000	-1.031224
	20.150000	-0.940970
	20.155000	-0.908736
	20.160000	-0.989320
	20.165000	-1.037671
	20.170000	-0.947417
	20.175000	-0.908736
	20.180000	-0.995767
	20.185000	-1.034447
	20.190000	-0.944193
	20.195000	-0.908736
	20.200000	-0.992544
	20.205000	-1.034447
	20.210000	-0.947417
	20.215000	-0.902290
	20.220000	-0.989320
	20.225000	-1.031224
	20.230000	-0.950640
	20.235000	-0.908736
	20.240000	-0.992544
	20.245000	-1.037671
	20.250000	-0.950640
	20.255000	-0.915183
	20.260000	-0.998991
	20.265000	-1.040894
	20.270000	-0.950640
	20.275000	-0.908736
	20.280000	-0.992544
	20.285000	-1.040894
	20.290000	-0.953863
	20.295000	-0.911960
	20.300000	-0.998991
	20.305000	-1.034447
	20.310000	-0.950640
	20.315000	-0.915183
	20.320000	-0.998991
	20.325000	-1.040894
	20.330000	-0.957087
	20.335000	-0.915183
	20.340000	-0.992544
	20.345000	-1.037671
	20.350000	-0.957087
	20.355000	-0.911960
	20.360000	-0.995767
	20.365000	-1.044118
	20.370000	-0.950640
	20.375000	-0.911960
	20.380000	-0.992544
	20.385000	-1.040894
	20.390000	-0.953863
	20.395000	-0.908736
	20.400000	-0.995767
	20.405000	-1.044118
	20.410000	-0.950640
	20.415000	-0.911960
	20.420000	-0.992544
	20.425000	-1.040894
	20.430000	-0.963534
	20.435000	-0.915183
	20.440000	-0.992544
	20.445000	-1.034447
	20.450000	-0.953863
	20.455000	-0.905513
	20.460000	-0.992544
	20.465000	-1.037671
	20.470000	-0.953863
	20.475000	-0.905513
	20.480000	-0.982874
	20.485000	-1.028001
	20.490000	-0.947417
	20.495000	-0.899066
	20.500000	-0.986097
	20.505000	-1.021554
	20.510000	-0.947417
	20.515000	-0.895843
	20.520000	-0.982874
	20.525000	-1.024777
	20.530000	-0.937747
	20.535000	-0.889396
	20.540000	-0.973204
	20.545000	-1.018331
	20.550000	-0.937747
	20.555000	-0.879726
	20.560000	-0.963534
	20.565000	-1.005437
	20.570000	-0.924853
	20.575000	-0.873280
	20.580000	-0.957087
	20.585000	-0.992544
	20.590000	-0.911960
	20.595000	-0.857163
	20.600000	-0.937747
	20.605000	-0.982874
	20.610000	-0.889396
	20.615000	-0.850716
	20.620000	-0.921630
	20.625000	-0.963534
	20.630000	-0.882950
	20.635000	-0.831376
	20.640000	-0.902290
	20.645000	-0.953863
	20.650000	-0.863609
	20.655000	-0.808812
	20.660000	-0.889396
	20.665000	-0.940970
	20.670000	-0.847493
	20.675000	-0.799142
	20.680000	-0.879726
	20.685000	-0.924853
	20.690000	-0.841046
	20.695000	-0.789472
	20.700000	-0.870056
	20.705000	-0.911960
	20.710000	-0.824929
	20.715000	-0.779802
	20.720000	-0.860386
	20.725000	-0.895843
	20.730000	-0.821706
	20.735000	-0.770132
	20.740000	-0.847493
	20.745000	-0.882950
	20.750000	-0.812036
	20.755000	-0.766909
	20.760000	-0.847493
	20.765000	-0.889396
	20.770000	-0.808812
	20.775000	-0.757239
	20.780000	-0.841046
	20.785000	-0.886173
	20.790000	-0.802366
	20.795000	-0.760462
	20.800000	-0.844269
	20.805000	-0.882950
	20.810000	-0.802366
	20.815000	-0.760462
	20.820000	-0.837823
	20.825000	-0.886173
	20.830000	-0.802366
	20.835000	-0.763685
	20.840000	-0.850716
	20.845000	-0.889396
	20.850000	-0.815259
	20.855000	-0.770132
	20.860000	-0.847493
	20.865000	-0.895843
	20.870000	-0.821706
	20.875000	-0.779802
	20.880000	-0.853939
	20.885000	-0.911960
	20.890000	-0.837823
	20.895000	-0.789472
	20.900000	-0.873280
	20.905000	-0.928077
	20.910000	-0.847493
	20.915000	-0.802366
	20.920000	-0.889396
	20.925000	-0.931300
	20.930000	-0.870056
	20.935000	-0.821706
	20.940000	-0.908736
	20.945000	-0.953863
	20.950000	-0.879726
	20.955000	-0.841046
	20.960000	-0.924853
	20.965000	-0.969980
	20.970000	-0.895843
	20.975000	-0.866833
	20.980000	-0.937747
	20.985000	-0.992544
	20.990000	-0.918407
	20.995000	-0.879726
	21.000000	-0.963534
	21.005000	-1.011884
	21.010000	-0.937747
	21.015000	-0.902290
	21.020000	-0.986097
	21.025000	-1.037671
	21.030000	-0.957087
	21.035000	-0.915183
	21.040000	-1.005437
	21.045000	-1.053788
	21.050000	-0.976427
	21.055000	-0.934523
	21.060000	-1.018331
	21.065000	-1.069904
	21.070000	-0.982874
	21.075000	-0.934523
	21.080000	-1.018331
	21.085000	-1.066681
	21.090000	-0.986097
	21.095000	-0.934523
	21.100000	-1.015107
	21.105000	-1.057011
	21.110000	-0.976427
	21.115000	-0.924853
	21.120000	-1.008661
	21.125000	-1.050564
	21.130000	-0.963534
	21.135000	-0.915183
	21.140000	-0.986097
	21.145000	-1.031224
	21.150000	-0.957087
	21.155000	-0.902290
	21.160000	-0.976427
	21.165000	-1.015107
	21.170000	-0.937747
	21.175000	-0.882950
	21.180000	-0.960310
	21.185000	-1.002214
	21.190000	-0.918407
	21.195000	-0.866833
	21.200000	-0.944193
	21.205000	-0.989320
	21.210000	-0.908736
	21.215000	-0.860386
	21.220000	-0.934523
	21.225000	-0.986097
	21.230000	-0.899066
	21.235000	-0.847493
	21.240000	-0.928077
	21.245000	-0.976427
	21.250000	-0.895843
	21.255000	-0.844269
	21.260000	-0.928077
	21.265000	-0.979650
	21.270000	-0.895843
	21.275000	-0.844269
	21.280000	-0.918407
	21.285000	-0.966757
	21.290000	-0.892620
	21.295000	-0.847493
	21.300000	-0.924853
	21.305000	-0.973204
	21.310000	-0.892620
	21.315000	-0.844269
	21.320000	-0.934523
	21.325000	-0.979650
	21.330000	-0.899066
	21.335000	-0.857163
	21.340000	-0.944193
	21.345000	-0.992544
	21.350000	-0.918407
	21.355000	-0.863609
	21.360000	-0.950640
	21.365000	-0.995767
	21.370000	-0.924853
	21.375000	-0.879726
	21.380000	-0.960310
	21.385000	-1.011884
	21.390000	-0.934523
	21.395000	-0.882950
	21.400000	-0.963534
	21.405000	-1.011884
	21.410000	-0.947417
	21.415000	-0.895843
	21.420000	-0.979650
	21.425000	-1.028001
	21.430000	-0.944193
	21.435000	-0.899066
	21.440000	-0.979650
	21.445000	-1.028001
	21.450000	-0.957087
	21.455000	-0.905513
	21.460000	-0.986097
	21.465000	-1.040894
	21.470000	-0.966757
	21.475000	-0.915183
	21.480000	-0.995767
	21.485000	-1.047341
	21.490000	-0.966757
	21.495000	-0.924853
	21.500000	-0.998991
	21.505000	-1.053788
	21.510000	-0.973204
	21.515000	-0.928077
	21.520000	-1.002214
	21.525000	-1.057011
	21.530000	-0.973204
	21.535000	-0.928077
	21.540000	-1.005437
	21.545000	-1.057011
	21.550000	-0.979650
	21.555000	-0.924853
	21.560000	-1.002214
	21.565000	-1.053788
	21.570000	-0.982874
	21.575000	-0.931300
	21.580000	-1.015107
	21.585000	-1.066681
	21.590000	-0.982874
	21.595000	-0.931300
	21.600000	-1.015107
	21.605000	-1.063458
	21.610000	-0.989320
	21.615000	-0.937747
	21.620000	-1.018331
	21.625000	-1.066681
	21.630000	-0.989320
	21.635000	-0.937747
	21.640000	-1.005437
	21.645000	-1.066681
	21.650000	-0.989320
	21.655000	-0.934523
	21.660000	-1.015107
	21.665000	-1.073128
	21.670000	-0.986097
	21.675000	-0.940970
	21.680000	-1.018331
	21.685000	-1.076351
	21.690000	-0.989320
	21.695000	-0.940970
	21.700000	-1.021554
	21.705000	-1.066681
	21.710000	-0.992544
	21.715000	-0.940970
	21.720000	-1.018331
	21.725000	-1.076351
	21.730000	-0.995767
	21.735000	-0.934523
	21.740000	-1.018331
	21.745000	-1.069904
	21.750000	-0.989320
	21.755000	-0.940970
	21.760000	-1.021554
	21.765000	-1.073128
	21.770000	-0.992544
	21.775000	-0.937747
	21.780000	-1.018331
	21.785000	-1.069904
	21.790000	-0.995767
	21.795000	-0.940970
	21.800000	-1.018331
	21.805000	-1.069904
	21.810000	-0.995767
	21.815000	-0.937747
	21.820000	-1.011884
	21.825000	-1.076351
	21.830000	-0.992544
	21.835000	-0.937747
	21.840000	-1.018331
	21.845000	-1.076351
	21.850000	-1.002214
	21.855000	-0.947417
	21.860000	-1.018331
	21.865000	-1.076351
	21.870000	-0.998991
	21.875000	-0.944193
	21.880000	-1.015107
	21.885000	-1.073128
	21.890000	-0.992544
	21.895000	-0.944193
	21.900000	-1.018331
	21.905000	-1.073128
	21.910000	-0.995767
	21.915000	-0.944193
	21.920000	-1.021554
	21.925000	-1.073128
	21.930000	-0.998991
	21.935000	-0.940970
	21.940000	-1.018331
	21.945000	-1.073128
	21.950000	-0.995767
	21.955000	-0.940970
	21.960000	-1.015107
	21.965000	-1.076351
	21.970000	-0.998991
	21.975000	-0.940970
	21.980000	-1.015107
	21.985000	-1.076351
	21.990000	-0.995767
	21.995000	-0.947417
	22.000000	-1.021554
	22.005000	-1.079574
	22.010000	-0.998991
	22.015000	-0.944193
	22.020000	-1.015107
	22.025000	-1.076351
	22.030000	-0.995767
	22.035000	-0.947417
	22.040000	-1.018331
	22.045000	-1.073128
	22.050000	-0.995767
	22.055000	-0.940970
	22.060000	-1.015107
	22.065000	-1.073128
	22.070000	-0.998991
	22.075000	-0.947417
	22.080000	-1.018331
	22.085000	-1.069904
	22.090000	-0.998991
	22.095000	-0.940970
	22.100000	-1.015107
	22.105000	-1.069904
	22.110000	-1.005437
	22.115000	-0.944193
	22.120000	-1.018331
	22.125000	-1.073128
	22.130000	-1.002214
	22.135000	-0.940970
	22.140000	-1.021554
	22.145000	-1.073128
	22.150000	-1.002214
	22.155000	-0.947417
	22.160000	-1.015107
	22.165000	-1.073128
	22.170000	-0.998991
	22.175000	-0.940970
	22.180000	-1.015107
	22.185000	-1.076351
	22.190000	-0.998991
	22.195000	-0.944193
	22.200000	-1.018331
	22.205000	-1.073128
	22.210000	-1.005437
	22.215000	-0.950640
	22.220000	-1.011884
	22.225000	-1.073128
	22.230000	-1.002214
	22.235000	-0.947417
	22.240000	-1.015107
	22.245000	-1.079574
	22.250000	-0.998991
	22.255000	-0.940970
	22.260000	-1.021554
	22.265000	-1.079574
	22.270000	-0.998991
	22.275000	-0.947417
	22.280000	-1.018331
	22.285000	-1.082798
	22.290000	-1.002214
	22.295000	-0.947417
	22.300000	-1.018331
	22.305000	-1.076351
	22.310000	-1.008661
	22.315000	-0.950640
	22.320000	-1.024777
	22.325000	-1.079574
	22.330000	-1.005437
	22.335000	-0.947417
	22.340000	-1.021554
	22.345000	-1.082798
	22.350000	-1.008661
	22.355000	-0.950640
	22.360000	-1.031224
	22.365000	-1.082798
	22.370000	-1.005437
	22.375000	-0.950640
	22.380000	-1.024777
	22.385000	-1.086021
	22.390000	-1.015107
	22.395000	-0.950640
	22.400000	-1.028001
	22.405000	-1.089245
	22.410000	-1.002214
	22.415000	-0.957087
	22.420000	-1.024777
	22.425000	-1.086021
	22.430000	-1.011884
	22.435000	-0.957087
	22.440000	-1.024777
	22.445000	-1.092468
	22.450000	-1.015107
	22.455000	-0.957087
	22.460000	-1.031224
	22.465000	-1.089245
	22.470000	-1.008661
	22.475000	-0.957087
	22.480000	-1.024777
	22.485000	-1.086021
	22.490000	-1.015107
	22.495000	-0.947417
	22.500000	-1.028001
	22.505000	-1.086021
	22.510000	-1.008661
	22.515000	-0.947417
	22.520000	-1.028001
	22.525000	-1.086021
	22.530000	-1.011884
	22.535000	-0.953863
	22.540000	-1.024777
	22.545000	-1.086021
	22.550000	-1.011884
	22.555000	-0.950640
	22.560000	-1.031224
	22.565000	-1.092468
	22.570000	-1.011884
	22.575000	-0.953863
	22.580000	-1.031224
	22.585000	-1.086021
	22.590000	-1.015107
	22.595000	-0.947417
	22.600000	-1.031224
	22.605000	-1.086021
	22.610000	-1.015107
	22.615000	-0.953863
	22.620000	-1.024777
	22.625000	-1.089245
	22.630000	-1.015107
	22.635000	-0.953863
	22.640000	-1.024777
	22.645000	-1.095691
	22.650000	-1.021554
	22.655000	-0.953863
	22.660000	-1.034447
	22.665000	-1.089245
	22.670000	-1.018331
	22.675000	-0.957087
	22.680000	-1.034447
	22.685000	-1.095691
	22.690000	-1.018331
	22.695000	-0.960310
	22.700000	-1.031224
	22.705000	-1.098915
	22.710000	-1.024777
	22.715000	-0.963534
	22.720000	-1.031224
	22.725000	-1.089245
	22.730000	-1.024777
	22.735000	-0.960310
	22.740000	-1.024777
	22.745000	-1.102138
	22.750000	-1.018331
	22.755000	-0.960310
	22.760000	-1.034447
	22.765000	-1.095691
	22.770000	-1.021554
	22.775000	-0.953863
	22.780000	-1.031224
	22.785000	-1.098915
	22.790000	-1.018331
	22.795000	-0.960310
	22.800000	-1.028001
	22.805000	-1.092468
	22.810000	-1.018331
	22.815000	-0.960310
	22.820000	-1.031224
	22.825000	-1.095691
	22.830000	-1.021554
	22.835000	-0.953863
	22.840000	-1.028001
	22.845000	-1.086021
	22.850000	-1.024777
	22.855000	-0.960310
	22.860000	-1.021554
	22.865000	-1.089245
	22.870000	-1.011884
	22.875000	-0.957087
	22.880000	-1.024777
	22.885000	-1.092468
	22.890000	-1.018331
	22.895000	-0.953863
	22.900000	-1.024777
	22.905000	-1.089245
	22.910000	-1.015107
	22.915000	-0.953863
	22.920000	-1.018331
	22.925000	-1.082798
	22.930000	-1.011884
	22.935000	-0.950640
	22.940000	-1.011884
	22.945000	-1.082798
	22.950000	-1.008661
	22.955000	-0.950640
	22.960000	-1.018331
	22.965000	-1.082798
	22.970000	-1.011884
	22.975000	-0.940970
	22.980000	-1.018331
	22.985000	-1.076351
	22.990000	-1.002214
	22.995000	-0.934523
	23.000000	-1.002214
	23.005000	-1.063458
	23.010000	-0.986097
	23.015000	-0.921630
	23.020000	-0.992544
	23.025000	-1.050564
	23.030000	-0.973204
	23.035000	-0.905513
	23.040000	-0.973204
	23.045000	-1.031224
	23.050000	-0.963534
	23.055000	-0.892620
	23.060000	-0.953863
	23.065000	-1.018331
	23.070000	-0.944193
	23.075000	-0.879726
	23.080000	-0.940970
	23.085000	-1.002214
	23.090000	-0.928077
	23.095000	-0.866833
	23.100000	-0.934523
	23.105000	-0.979650
	23.110000	-0.921630
	23.115000	-0.850716
	23.120000	-0.918407
	23.125000	-0.979650
	23.130000	-0.905513
	23.135000	-0.841046
	23.140000	-0.905513
	23.145000	-0.973204
	23.150000	-0.902290
	23.155000	-0.831376
	23.160000	-0.895843
	23.165000	-0.963534
	23.170000	-0.892620
	23.175000	-0.824929
	23.180000	-0.892620
	23.185000	-0.960310
	23.190000	-0.889396
	23.195000	-0.824929
	23.200000	-0.889396
	23.205000	-0.960310
	23.210000	-0.889396
	23.215000	-0.828152
	23.220000	-0.889396
	23.225000	-0.969980
	23.230000	-0.899066
	23.235000	-0.837823
	23.240000	-0.908736
	23.245000	-0.963534
	23.250000	-0.899066
	23.255000	-0.834599
	23.260000	-0.905513
	23.265000	-0.973204
	23.270000	-0.918407
	23.275000	-0.853939
	23.280000	-0.924853
	23.285000	-0.992544
	23.290000	-0.934523
	23.295000	-0.870056
	23.300000	-0.940970
	23.305000	-1.005437
	23.310000	-0.953863
	23.315000	-0.886173
	23.320000	-0.963534
	23.325000	-1.034447
	23.330000	-0.979650
	23.335000	-0.911960
	23.340000	-0.989320
	23.345000	-1.060234
	23.350000	-1.005437
	23.355000	-0.944193
	23.360000	-1.015107
	23.365000	-1.092468
	23.370000	-1.024777
	23.375000	-0.966757
	23.380000	-1.037671
	23.385000	-1.105361
	23.390000	-1.044118
	23.395000	-0.979650
	23.400000	-1.047341
	23.405000	-1.111808
	23.410000	-1.044118
	23.415000	-0.979650
	23.420000	-1.040894
	23.425000	-1.115031
	23.430000	-1.047341
	23.435000	-0.976427
	23.440000	-1.040894
	23.445000	-1.105361
	23.450000	-1.037671
	23.455000	-0.969980
	23.460000	-1.028001
	23.465000	-1.095691
	23.470000	-1.021554
	23.475000	-0.960310
	23.480000	-1.024777
	23.485000	-1.079574
	23.490000	-1.011884
	23.495000	-0.944193
	23.500000	-0.995767
	23.505000	-1.066681
	23.510000	-0.992544
	23.515000	-0.915183
	23.520000	-0.973204
	23.525000	-1.037671
	23.530000	-0.969980
	23.535000	-0.895843
	23.540000	-0.950640
	23.545000	-1.005437
	23.550000	-0.947417
	23.555000	-0.870056
	23.560000	-0.928077
	23.565000	-0.992544
	23.570000	-0.924853
	23.575000	-0.850716
	23.580000	-0.915183
	23.585000	-0.973204
	23.590000	-0.905513
	23.595000	-0.834599
	23.600000	-0.892620
	23.605000	-0.960310
	23.610000	-0.892620
	23.615000	-0.831376
	23.620000	-0.882950
	23.625000	-0.953863
	23.630000	-0.889396
	23.635000	-0.818482
	23.640000	-0.889396
	23.645000	-0.947417
	23.650000	-0.879726
	23.655000	-0.815259
	23.660000	-0.879726
	23.665000	-0.950640
	23.670000	-0.895843
	23.675000	-0.824929
	23.680000	-0.889396
	23.685000	-0.957087
	23.690000	-0.902290
	23.695000	-0.841046
	23.700000	-0.899066
	23.705000	-0.966757
	23.710000	-0.905513
	23.715000	-0.847493
	23.720000	-0.915183
	23.725000	-0.986097
	23.730000	-0.921630
	23.735000	-0.873280
	23.740000	-0.934523
	23.745000	-1.002214
	23.750000	-0.940970
	23.755000	-0.886173
	23.760000	-0.944193
	23.765000	-1.015107
	23.770000	-0.960310
	23.775000	-0.889396
	23.780000	-0.957087
	23.785000	-1.034447
	23.790000	-0.973204
	23.795000	-0.908736
	23.800000	-0.973204
	23.805000	-1.040894
	23.810000	-0.989320
	23.815000	-0.918407
	23.820000	-0.986097
	23.825000	-1.060234
	23.830000	-0.995767
	23.835000	-0.934523
	23.840000	-0.998991
	23.845000	-1.076351
	23.850000	-1.015107
	23.855000	-0.944193
	23.860000	-1.002214
	23.865000	-1.082798
	23.870000	-1.021554
	23.875000	-0.957087
	23.880000	-1.018331
	23.885000	-1.092468
	23.890000	-1.040894
	23.895000	-0.957087
	23.900000	-1.024777
	23.905000	-1.098915
	23.910000	-1.037671
	23.915000	-0.969980
	23.920000	-1.034447
	23.925000	-1.098915
	23.930000	-1.037671
	23.935000	-0.969980
	23.940000	-1.034447
	23.945000	-1.111808
	23.950000	-1.047341
	23.955000	-0.976427
	23.960000	-1.037671
	23.965000	-1.118255
	23.970000	-1.050564
	23.975000	-0.982874
	23.980000	-1.037671
	23.985000	-1.108585
	23.990000	-1.057011
	23.995000	-0.986097
	24.000000	-1.044118
	24.005000	-1.115031
	24.010000	-1.053788
	24.015000	-0.982874
	24.020000	-1.044118
	24.025000	-1.121478
	24.030000	-1.060234
	24.035000	-0.982874
	24.040000	-1.050564
	24.045000	-1.118255
	24.050000	-1.060234
	24.055000	-0.986097
	24.060000	-1.057011
	24.065000	-1.127925
	24.070000	-1.066681
	24.075000	-0.989320
	24.080000	-1.050564
	24.085000	-1.124702
	24.090000	-1.060234
	24.095000	-0.986097
	24.100000	-1.050564
	24.105000	-1.127925
	24.110000	-1.063458
	24.115000	-0.995767
	24.120000	-1.053788
	24.125000	-1.127925
	24.130000	-1.066681
	24.135000	-0.995767
	24.140000	-1.050564
	24.145000	-1.131148
	24.150000	-1.066681
	24.155000	-0.986097
	24.160000	-1.053788
	24.165000	-1.131148
	24.170000	-1.060234
	24.175000	-0.995767
	24.180000	-1.050564
	24.185000	-1.131148
	24.190000	-1.066681
	24.195000	-0.989320
	24.200000	-1.057011
	24.205000	-1.131148
	24.210000	-1.073128
	24.215000	-0.995767
	24.220000	-1.053788
	24.225000	-1.137595
	24.230000	-1.073128
	24.235000	-0.998991
	24.240000	-1.057011
	24.245000	-1.134372
	24.250000	-1.069904
	24.255000	-0.998991
	24.260000	-1.060234
	24.265000	-1.131148
	24.270000	-1.076351
	24.275000	-1.005437
	24.280000	-1.066681
	24.285000	-1.131148
	24.290000	-1.076351
	24.295000	-0.998991
	24.300000	-1.060234
	24.305000	-1.131148
	24.310000	-1.082798
	24.315000	-1.005437
	24.320000	-1.066681
	24.325000	-1.137595
	24.330000	-1.079574
	24.335000	-1.008661
	24.340000	-1.066681
	24.345000	-1.144042
	24.350000	-1.076351
	24.355000	-1.005437
	24.360000	-1.060234
	24.365000	-1.134372
	24.370000	-1.076351
	24.375000	-1.005437
	24.380000	-1.057011
	24.385000	-1.140818
	24.390000	-1.079574
	24.395000	-1.005437
	24.400000	-1.060234
	24.405000	-1.144042
	24.410000	-1.076351
	24.415000	-0.998991
	24.420000	-1.063458
	24.425000	-1.137595
	24.430000	-1.082798
	24.435000	-1.002214
	24.440000	-1.066681
	24.445000	-1.134372
	24.450000	-1.082798
	24.455000	-1.005437
	24.460000	-1.063458
	24.465000	-1.144042
	24.470000	-1.079574
	24.475000	-0.998991
	24.480000	-1.060234
	24.485000	-1.134372
	24.490000	-1.089245
	24.495000	-1.002214
	24.500000	-1.060234
	24.505000	-1.137595
	24.510000	-1.079574
	24.515000	-1.005437
	24.520000	-1.063458
	24.525000	-1.137595
	24.530000	-1.069904
	24.535000	-1.008661
	24.540000	-1.057011
	24.545000	-1.134372
	24.550000	-1.082798
	24.555000	-1.005437
	24.560000	-1.066681
	24.565000	-1.134372
	24.570000	-1.076351
	24.575000	-0.998991
	24.580000	-1.060234
	24.585000	-1.137595
	24.590000	-1.079574
	24.595000	-1.008661
	24.600000	-1.060234
	24.605000	-1.134372
	24.610000	-1.086021
	24.615000	-1.005437
	24.620000	-1.063458
	24.625000	-1.137595
	24.630000	-1.082798
	24.635000	-1.008661
	24.640000	-1.066681
	24.645000	-1.140818
	24.650000	-1.086021
	24.655000	-1.008661
	24.660000	-1.069904
	24.665000	-1.144042
	24.670000	-1.082798
	24.675000	-1.008661
	24.680000	-1.063458
	24.685000	-1.140818
	24.690000	-1.086021
	24.695000	-1.008661
	24.700000	-1.066681
	24.705000	-1.140818
	24.710000	-1.089245
	24.715000	-1.008661
	24.720000	-1.069904
	24.725000	-1.147265
	24.730000	-1.079574
	24.735000	-1.005437
	24.740000	-1.069904
	24.745000	-1.144042
	24.750000	-1.082798
	24.755000	-1.015107
	24.760000	-1.063458
	24.765000	-1.147265
	24.770000	-1.086021
	24.775000	-1.005437
	24.780000	-1.060234
	24.785000	-1.144042
	24.790000	-1.092468
	24.795000	-1.008661
	24.800000	-1.066681
	24.805000	-1.147265
	24.810000	-1.086021
	24.815000	-1.011884
	24.820000	-1.063458
	24.825000	-1.144042
	24.830000	-1.086021
	24.835000	-1.011884
	24.840000	-1.066681
	24.845000	-1.144042
	24.850000	-1.092468
	24.855000	-1.015107
	24.860000	-1.066681
	24.865000	-1.147265
	24.870000	-1.086021
	24.875000	-1.015107
	24.880000	-1.063458
	24.885000	-1.147265
	24.890000	-1.092468
	24.895000	-1.011884
	24.900000	-1.066681
	24.905000	-1.147265
	24.910000	-1.089245
	24.915000	-1.011884
	24.920000	-1.063458
	24.925000	-1.140818
	24.930000	-1.089245
	24.935000	-1.015107
	24.940000	-1.066681
	24.945000	-1.144042
	24.950000	-1.089245
	24.955000	-1.008661
	24.960000	-1.063458
	24.965000	-1.140818
	24.970000	-1.082798
	24.975000	-1.005437
	24.980000	-1.069904
	24.985000	-1.140818
	24.990000	-1.098915
	24.995000	-1.011884
	25.000000	-1.066681
	25.005000	-1.140818
	25.010000	-1.089245
	25.015000	-1.018331
	25.020000	-1.060234
	25.025000	-1.144042
	25.030000	-1.082798
	25.035000	-1.011884
	25.040000	-1.066681
	25.045000	-1.150488
	25.050000	-1.082798
	25.055000	-1.008661
	25.060000	-1.063458
	25.065000	-1.144042
	25.070000	-1.092468
	25.075000	-1.011884
	25.080000	-1.063458
	25.085000	-1.144042
	25.090000	-1.092468
	25.095000	-1.005437
	25.100000	-1.066681
	25.105000	-1.144042
	25.110000	-1.086021
	25.115000	-1.018331
	25.120000	-1.069904
	25.125000	-1.147265
	25.130000	-1.089245
	25.135000	-1.018331
	25.140000	-1.063458
	25.145000	-1.150488
	25.150000	-1.092468
	25.155000	-1.018331
	25.160000	-1.066681
	25.165000	-1.150488
	25.170000	-1.102138
	25.175000	-1.015107
	25.180000	-1.063458
	25.185000	-1.150488
	25.190000	-1.092468
	25.195000	-1.015107
	25.200000	-1.063458
	25.205000	-1.156935
	25.210000	-1.095691
	25.215000	-1.018331
	25.220000	-1.066681
	25.225000	-1.153712
	25.230000	-1.092468
	25.235000	-1.021554
	25.240000	-1.069904
	25.245000	-1.147265
	25.250000	-1.102138
	25.255000	-1.018331
	25.260000	-1.069904
	25.265000	-1.153712
	25.270000	-1.108585
	25.275000	-1.018331
	25.280000	-1.069904
	25.285000	-1.147265
	25.290000	-1.102138
	25.295000	-1.018331
	25.300000	-1.073128
	25.305000	-1.153712
	25.310000	-1.098915
	25.315000	-1.018331
	25.320000	-1.069904
	25.325000	-1.147265
	25.330000	-1.095691
	25.335000	-1.021554
	25.340000	-1.060234
	25.345000	-1.147265
	25.350000	-1.102138
	25.355000	-1.018331
	25.360000	-1.063458
	25.365000	-1.147265
	25.370000	-1.092468
	25.375000	-1.018331
	25.380000	-1.066681
	25.385000	-1.144042
	25.390000	-1.098915
	25.395000	-1.015107
	25.400000	-1.063458
	25.405000	-1.144042
	25.410000	-1.095691
	25.415000	-1.011884
	25.420000	-1.053788
	25.425000	-1.137595
	25.430000	-1.082798
	25.435000	-1.002214
	25.440000	-1.044118
	25.445000	-1.121478
	25.450000	-1.066681
	25.455000	-0.979650
	25.460000	-1.024777
	25.465000	-1.095691
	25.470000	-1.037671
	25.475000	-0.957087
	25.480000	-1.002214
	25.485000	-1.082798
	25.490000	-1.031224
	25.495000	-0.940970
	25.500000	-0.986097
	25.505000	-1.069904
	25.510000	-1.008661
	25.515000	-0.931300
	25.520000	-0.973204
	25.525000	-1.044118
	25.530000	-0.992544
	25.535000	-0.911960
	25.540000	-0.947417
	25.545000	-1.024777
	25.550000	-0.982874
	25.555000	-0.899066
	25.560000	-0.937747
	25.565000	-1.018331
	25.570000	-0.969980
	25.575000	-0.886173
	25.580000	-0.934523
	25.585000	-1.015107
	25.590000	-0.963534
	25.595000	-0.886173
	25.600000	-0.934523
	25.605000	-1.015107
	25.610000	-0.963534
	25.615000	-0.886173
	25.620000	-0.934523
	25.625000	-1.008661
	25.630000	-0.960310
	25.635000	-0.886173
	25.640000	-0.931300
	25.645000	-1.011884
	25.650000	-0.966757
	25.655000	-0.876503
	25.660000	-0.931300
	25.665000	-1.015107
	25.670000	-0.969980
	25.675000	-0.892620
	25.680000	-0.931300
	25.685000	-1.011884
	25.690000	-0.969980
	25.695000	-0.895843
	25.700000	-0.937747
	25.705000	-1.031224
	25.710000	-0.979650
	25.715000	-0.899066
	25.720000	-0.944193
	25.725000	-1.031224
	25.730000	-0.986097
	25.735000	-0.915183
	25.740000	-0.957087
	25.745000	-1.040894
	25.750000	-1.005437
	25.755000	-0.924853
	25.760000	-0.973204
	25.765000	-1.063458
	25.770000	-1.028001
	25.775000	-0.950640
	25.780000	-1.005437
	25.785000	-1.082798
	25.790000	-1.053788
	25.795000	-0.979650
	25.800000	-1.034447
	25.805000	-1.121478
	25.810000	-1.089245
	25.815000	-1.015107
	25.820000	-1.066681
	25.825000	-1.156935
	25.830000	-1.111808
	25.835000	-1.037671
	25.840000	-1.089245
	25.845000	-1.173052
	25.850000	-1.134372
	25.855000	-1.057011
	25.860000	-1.098915
	25.865000	-1.179499
	25.870000	-1.140818
	25.875000	-1.053788
	25.880000	-1.102138
	25.885000	-1.185945
	25.890000	-1.134372
	25.895000	-1.057011
	25.900000	-1.089245
	25.905000	-1.169829
	25.910000	-1.127925
	25.915000	-1.037671
	25.920000	-1.086021
	25.925000	-1.160158
	25.930000	-1.118255
	25.935000	-1.031224
	25.940000	-1.060234
	25.945000	-1.144042
	25.950000	-1.098915
	25.955000	-1.015107
	25.960000	-1.053788
	25.965000	-1.134372
	25.970000	-1.086021
	25.975000	-1.002214
	25.980000	-1.037671
	25.985000	-1.115031
	25.990000	-1.073128
	25.995000	-0.989320
	26.000000	-1.024777
	26.005000	-1.105361
	26.010000	-1.063458
	26.015000	-0.976427
	26.020000	-1.011884
	26.025000	-1.095691
	26.030000	-1.053788
	26.035000	-0.969980
	26.040000	-1.015107
	26.045000	-1.092468
	26.050000	-1.047341
	26.055000	-0.973204
	26.060000	-1.011884
	26.065000	-1.098915
	26.070000	-1.053788
	26.075000	-0.973204
	26.080000	-1.015107
	26.085000	-1.098915
	26.090000	-1.053788
	26.095000	-0.973204
	26.100000	-1.015107
	26.105000	-1.105361
	26.110000	-1.066681
	26.115000	-0.979650
	26.120000	-1.021554
	26.125000	-1.111808
	26.130000	-1.069904
	26.135000	-0.992544
	26.140000	-1.034447
	26.145000	-1.124702
	26.150000	-1.076351
	26.155000	-0.995767
	26.160000	-1.044118
	26.165000	-1.121478
	26.170000	-1.086021
	26.175000	-1.005437
	26.180000	-1.047341
	26.185000	-1.131148
	26.190000	-1.095691
	26.195000	-1.018331
	26.200000	-1.053788
	26.205000	-1.140818
	26.210000	-1.105361
	26.215000	-1.024777
	26.220000	-1.063458
	26.225000	-1.150488
	26.230000	-1.108585
	26.235000	-1.024777
	26.240000	-1.066681
	26.245000	-1.153712
	26.250000	-1.121478
	26.255000	-1.031224
	26.260000	-1.073128
	26.265000	-1.156935
	26.270000	-1.118255
	26.275000	-1.031224
	26.280000	-1.069904
	26.285000	-1.153712
	26.290000	-1.115031
	26.295000	-1.037671
	26.300000	-1.079574
	26.305000	-1.163382
	26.310000	-1.121478
	26.315000	-1.031224
	26.320000	-1.076351
	26.325000	-1.169829
	26.330000	-1.131148
	26.335000	-1.044118
	26.340000	-1.082798
	26.345000	-1.166605
	26.350000	-1.127925
	26.355000	-1.040894
	26.360000	-1.082798
	26.365000	-1.163382
	26.370000	-1.131148
	26.375000	-1.037671
	26.380000	-1.076351
	26.385000	-1.166605
	26.390000	-1.127925
	26.395000	-1.047341
	26.400000	-1.076351
	26.405000	-1.166605
	26.410000	-1.124702
	26.415000	-1.037671
	26.420000	-1.069904
	26.425000	-1.163382
	26.430000	-1.121478
	26.435000	-1.040894
	26.440000	-1.073128
	26.445000	-1.153712
	26.450000	-1.127925
	26.455000	-1.034447
	26.460000	-1.076351
	26.465000	-1.160158
	26.470000	-1.118255
	26.475000	-1.031224
	26.480000	-1.076351
	26.485000	-1.163382
	26.490000	-1.121478
	26.495000	-1.031224
	26.500000	-1.069904
	26.505000	-1.163382
	26.510000	-1.121478
	26.515000	-1.031224
	26.520000	-1.066681
	26.525000	-1.156935
	26.530000	-1.115031
	26.535000	-1.037671
	26.540000	-1.076351
	26.545000	-1.156935
	26.550000	-1.127925
	26.555000	-1.040894
	26.560000	-1.066681
	26.565000	-1.163382
	26.570000	-1.124702
	26.575000	-1.037671
	26.580000	-1.069904
	26.585000	-1.156935
	26.590000	-1.127925
	26.595000	-1.037671
	26.600000	-1.069904
	26.605000	-1.156935
	26.610000	-1.118255
	26.615000	-1.037671
	26.620000	-1.069904
	26.625000	-1.153712
	26.630000	-1.124702
	26.635000	-1.031224
	26.640000	-1.073128
	26.645000	-1.160158
	26.650000	-1.121478
	26.655000	-1.031224
	26.660000	-1.073128
	26.665000	-1.160158
	26.670000	-1.124702
	26.675000	-1.031224
	26.680000	-1.073128
	26.685000	-1.163382
	26.690000	-1.118255
	26.695000	-1.040894
	26.700000	-1.073128
	26.705000	-1.156935
	26.710000	-1.127925
	26.715000	-1.040894
	26.720000	-1.073128
	26.725000	-1.160158
	26.730000	-1.121478
	26.735000	-1.040894
	26.740000	-1.073128
	26.745000	-1.160158
	26.750000	-1.121478
	26.755000	-1.037671
	26.760000	-1.069904
	26.765000	-1.160158
	26.770000	-1.127925
	26.775000	-1.037671
	26.780000	-1.076351
	26.785000	-1.160158
	26.790000	-1.131148
	26.795000	-1.037671
	26.800000	-1.069904
	26.805000	-1.156935
	26.810000	-1.134372
	26.815000	-1.047341
	26.820000	-1.076351
	26.825000	-1.169829
	26.830000	-1.124702
	26.835000	-1.037671
	26.840000	-1.073128
	26.845000	-1.163382
	26.850000	-1.131148
	26.855000	-1.037671
	26.860000	-1.069904
	26.865000	-1.163382
	26.870000	-1.134372
	26.875000	-1.034447
	26.880000	-1.073128
	26.885000	-1.163382
	26.890000	-1.131148
	26.895000	-1.044118
	26.900000	-1.073128
	26.905000	-1.156935
	26.910000	-1.134372
	26.915000	-1.047341
	26.920000	-1.073128
	26.925000	-1.166605
	26.930000	-1.127925
	26.935000	-1.040894
	26.940000	-1.073128
	26.945000	-1.160158
	26.950000	-1.137595
	26.955000	-1.050564
	26.960000	-1.079574
	26.965000	-1.169829
	26.970000	-1.134372
	26.975000	-1.044118
	26.980000	-1.076351
	26.985000	-1.166605
	26.990000	-1.134372
	26.995000	-1.047341
	27.000000	-1.076351
	27.005000	-1.169829
	27.010000	-1.134372
	27.015000	-1.047341
	27.020000	-1.076351
	27.025000	-1.160158
	27.030000	-1.137595
	27.035000	-1.047341
	27.040000	-1.076351
	27.045000	-1.169829
	27.050000	-1.134372
	27.055000	-1.044118
	27.060000	-1.079574
	27.065000	-1.166605
	27.070000	-1.144042
	27.075000	-1.047341
	27.080000	-1.079574
	27.085000	-1.166605
	27.090000	-1.137595
	27.095000	-1.050564
	27.100000	-1.079574
	27.105000	-1.176275
	27.110000	-1.144042
	27.115000	-1.050564
	27.120000	-1.079574
	27.125000	-1.169829
	27.130000	-1.144042
	27.135000	-1.060234
	27.140000	-1.086021
	27.145000	-1.173052
	27.150000	-1.150488
	27.155000	-1.050564
	27.160000	-1.082798
	27.165000	-1.173052
	27.170000	-1.144042
	27.175000	-1.060234
	27.180000	-1.086021
	27.185000	-1.173052
	27.190000	-1.150488
	27.195000	-1.057011
	27.200000	-1.089245
	27.205000	-1.185945
	27.210000	-1.150488
	27.215000	-1.060234
	27.220000	-1.086021
	27.225000	-1.182722
	27.230000	-1.156935
	27.235000	-1.063458
	27.240000	-1.095691
	27.245000	-1.189169
	27.250000	-1.160158
	27.255000	-1.063458
	27.260000	-1.098915
	27.265000	-1.189169
	27.270000	-1.160158
	27.275000	-1.073128
	27.280000	-1.098915
	27.285000	-1.185945
	27.290000	-1.166605
	27.295000	-1.076351
	27.300000	-1.102138
	27.305000	-1.182722
	27.310000	-1.166605
	27.315000	-1.073128
	27.320000	-1.102138
	27.325000	-1.192392
	27.330000	-1.160158
	27.335000	-1.069904
	27.340000	-1.105361
	27.345000	-1.189169
	27.350000	-1.166605
	27.355000	-1.073128
	27.360000	-1.095691
	27.365000	-1.189169
	27.370000	-1.163382
	27.375000	-1.073128
	27.380000	-1.092468
	27.385000	-1.189169
	27.390000	-1.156935
	27.395000	-1.069904
	27.400000	-1.095691
	27.405000	-1.182722
	27.410000	-1.160158
	27.415000	-1.073128
	27.420000	-1.095691
	27.425000	-1.182722
	27.430000	-1.153712
	27.435000	-1.073128
	27.440000	-1.086021
	27.445000	-1.179499
	27.450000	-1.156935
	27.455000	-1.063458
	27.460000	-1.089245
	27.465000	-1.176275
	27.470000	-1.150488
	27.475000	-1.063458
	27.480000	-1.082798
	27.485000	-1.176275
	27.490000	-1.153712
	27.495000	-1.057011
	27.500000	-1.076351
	27.505000	-1.166605
	27.510000	-1.153712
	27.515000	-1.057011
	27.520000	-1.082798
	27.525000	-1.169829
	27.530000	-1.147265
	27.535000	-1.057011
	27.540000	-1.082798
	27.545000	-1.173052
	27.550000	-1.144042
	27.555000	-1.047341
	27.560000	-1.069904
	27.565000	-1.163382
	27.570000	-1.144042
	27.575000	-1.050564
	27.580000	-1.073128
	27.585000	-1.160158
	27.590000	-1.140818
	27.595000	-1.044118
	27.600000	-1.069904
	27.605000	-1.153712
	27.610000	-1.127925
	27.615000	-1.037671
	27.620000	-1.057011
	27.625000	-1.147265
	27.630000	-1.121478
	27.635000	-1.028001
	27.640000	-1.044118
	27.645000	-1.131148
	27.650000	-1.108585
	27.655000	-1.008661
	27.660000	-1.031224
	27.665000	-1.121478
	27.670000	-1.089245
	27.675000	-0.992544
	27.680000	-1.008661
	27.685000	-1.105361
	27.690000	-1.076351
	27.695000	-0.982874
	27.700000	-0.992544
	27.705000	-1.082798
	27.710000	-1.063458
	27.715000	-0.973204
	27.720000	-0.989320
	27.725000	-1.076351
	27.730000	-1.053788
	27.735000	-0.957087
	27.740000	-0.979650
	27.745000	-1.063458
	27.750000	-1.040894
	27.755000	-0.944193
	27.760000	-0.969980
	27.765000	-1.053788
	27.770000	-1.034447
	27.775000	-0.940970
	27.780000	-0.960310
	27.785000	-1.044118
	27.790000	-1.024777
	27.795000	-0.928077
	27.800000	-0.950640
	27.805000	-1.040894
	27.810000	-1.018331
	27.815000	-0.924853
	27.820000	-0.947417
	27.825000	-1.037671
	27.830000	-1.018331
	27.835000	-0.928077
	27.840000	-0.940970
	27.845000	-1.034447
	27.850000	-1.008661
	27.855000	-0.918407
	27.860000	-0.940970
	27.865000	-1.028001
	27.870000	-1.008661
	27.875000	-0.915183
	27.880000	-0.931300
	27.885000	-1.018331
	27.890000	-1.002214
	27.895000	-0.921630
	27.900000	-0.928077
	27.905000	-1.024777
	27.910000	-1.008661
	27.915000	-0.918407
	27.920000	-0.940970
	27.925000	-1.028001
	27.930000	-1.008661
	27.935000	-0.921630
	27.940000	-0.944193
	27.945000	-1.031224
	27.950000	-1.018331
	27.955000	-0.928077
	27.960000	-0.947417
	27.965000	-1.040894
	27.970000	-1.028001
	27.975000	-0.940970
	27.980000	-0.960310
	27.985000	-1.050564
	27.990000	-1.037671
	27.995000	-0.960310
	28.000000	-0.976427
	28.005000	-1.069904
	28.010000	-1.060234
	28.015000	-0.979650
	28.020000	-1.002214
	28.025000	-1.098915
	28.030000	-1.086021
	28.035000	-1.008661
	28.040000	-1.028001
	28.045000	-1.131148
	28.050000	-1.118255
	28.055000	-1.044118
	28.060000	-1.060234
	28.065000	-1.163382
	28.070000	-1.156935
	28.075000	-1.066681
	28.080000	-1.095691
	28.085000	-1.189169
	28.090000	-1.173052
	28.095000	-1.095691
	28.100000	-1.115031
	28.105000	-1.205285
	28.110000	-1.189169
	28.115000	-1.095691
	28.120000	-1.118255
	28.125000	-1.202062
	28.130000	-1.195615
	28.135000	-1.102138
	28.140000	-1.111808
	28.145000	-1.202062
	28.150000	-1.185945
	28.155000	-1.095691
	28.160000	-1.102138
	28.165000	-1.195615
	28.170000	-1.176275
	28.175000	-1.089245
	28.180000	-1.105361
	28.185000	-1.189169
	28.190000	-1.169829
	28.195000	-1.082798
	28.200000	-1.098915
	28.205000	-1.185945
	28.210000	-1.176275
	28.215000	-1.069904
	28.220000	-1.082798
	28.225000	-1.169829
	28.230000	-1.163382
	28.235000	-1.066681
	28.240000	-1.079574
	28.245000	-1.176275
	28.250000	-1.160158
	28.255000	-1.069904
	28.260000	-1.076351
	28.265000	-1.169829
	28.270000	-1.160158
	28.275000	-1.063458
	28.280000	-1.082798
	28.285000	-1.166605
	28.290000	-1.156935
	28.295000	-1.066681
	28.300000	-1.079574
	28.305000	-1.160158
	28.310000	-1.156935
	28.315000	-1.063458
	28.320000	-1.073128
	28.325000	-1.169829
	28.330000	-1.163382
	28.335000	-1.069904
	28.340000	-1.073128
	28.345000	-1.173052
	28.350000	-1.169829
	28.355000	-1.063458
	28.360000	-1.092468
	28.365000	-1.179499
	28.370000	-1.166605
	28.375000	-1.079574
	28.380000	-1.092468
	28.385000	-1.176275
	28.390000	-1.185945
	28.395000	-1.082798
	28.400000	-1.102138
	28.405000	-1.192392
	28.410000	-1.182722
	28.415000	-1.089245
	28.420000	-1.102138
	28.425000	-1.192392
	28.430000	-1.182722
	28.435000	-1.092468
	28.440000	-1.105361
	28.445000	-1.205285
	28.450000	-1.189169
	28.455000	-1.098915
	28.460000	-1.105361
	28.465000	-1.198839
	28.470000	-1.192392
	28.475000	-1.095691
	28.480000	-1.108585
	28.485000	-1.208509
	28.490000	-1.195615
	28.495000	-1.105361
	28.500000	-1.108585
	28.505000	-1.205285
	28.510000	-1.198839
	28.515000	-1.105361
	28.520000	-1.111808
	28.525000	-1.202062
	28.530000	-1.198839
	28.535000	-1.105361
	28.540000	-1.111808
	28.545000	-1.214956
	28.550000	-1.198839
	28.555000	-1.108585
	28.560000	-1.121478
	28.565000	-1.208509
	28.570000	-1.202062
	28.575000	-1.108585
	28.580000	-1.121478
	28.585000	-1.205285
	28.590000	-1.205285
	28.595000	-1.118255
	28.600000	-1.121478
	28.605000	-1.208509
	28.610000	-1.202062
	28.615000	-1.108585
	28.620000	-1.118255
	28.625000	-1.214956
	28.630000	-1.208509
	28.635000	-1.111808
	28.640000	-1.118255
	28.645000	-1.218179
	28.650000	-1.205285
	28.655000	-1.115031
	28.660000	-1.121478
	28.665000	-1.214956
	28.670000	-1.205285
	28.675000	-1.115031
	28.680000	-1.121478
	28.685000	-1.218179
	28.690000	-1.205285
	28.695000	-1.118255
	28.700000	-1.118255
	28.705000	-1.211732
	28.710000	-1.198839
	28.715000	-1.111808
	28.720000	-1.121478
	28.725000	-1.211732
	28.730000	-1.205285
	28.735000	-1.111808
	28.740000	-1.118255
	28.745000	-1.214956
	28.750000	-1.202062
	28.755000	-1.115031
	28.760000	-1.118255
	28.765000	-1.208509
	28.770000	-1.205285
	28.775000	-1.115031
	28.780000	-1.115031
	28.785000	-1.211732
	28.790000	-1.205285
	28.795000	-1.115031
	28.800000	-1.115031
	28.805000	-1.208509
	28.810000	-1.211732
	28.815000	-1.108585
	28.820000	-1.111808
	28.825000	-1.211732
	28.830000	-1.205285
	28.835000	-1.111808
	28.840000	-1.111808
	28.845000	-1.205285
	28.850000	-1.205285
	28.855000	-1.108585
	28.860000	-1.111808
	28.865000	-1.208509
	28.870000	-1.205285
	28.875000	-1.105361
	28.880000	-1.108585
	28.885000	-1.208509
	28.890000	-1.205285
	28.895000	-1.105361
	28.900000	-1.115031
	28.905000	-1.202062
	28.910000	-1.205285
	28.915000	-1.108585
	28.920000	-1.108585
	28.925000	-1.205285
	28.930000	-1.208509
	28.935000	-1.108585
	28.940000	-1.111808
	28.945000	-1.208509
	28.950000	-1.195615
	28.955000	-1.111808
	28.960000	-1.108585
	28.965000	-1.205285
	28.970000	-1.202062
	28.975000	-1.105361
	28.980000	-1.111808
	28.985000	-1.208509
	28.990000	-1.198839
	28.995000	-1.108585
	29.000000	-1.105361
	29.005000	-1.202062
	29.010000	-1.198839
	29.015000	-1.108585
	29.020000	-1.111808
	29.025000	-1.198839
	29.030000	-1.202062
	29.035000	-1.111808
	29.040000	-1.111808
	29.045000	-1.208509
	29.050000	-1.198839
	29.055000	-1.111808
	29.060000	-1.105361
	29.065000	-1.211732
	29.070000	-1.202062
	29.075000	-1.111808
	29.080000	-1.105361
	29.085000	-1.205285
	29.090000	-1.198839
	29.095000	-1.108585
	29.100000	-1.105361
	29.105000	-1.202062
	29.110000	-1.198839
	29.115000	-1.108585
	29.120000	-1.105361
	29.125000	-1.202062
	29.130000	-1.198839
	29.135000	-1.111808
	29.140000	-1.111808
	29.145000	-1.205285
	29.150000	-1.202062
	29.155000	-1.105361
	29.160000	-1.111808
	29.165000	-1.195615
	29.170000	-1.205285
	29.175000	-1.108585
	29.180000	-1.102138
	29.185000	-1.198839
	29.190000	-1.198839
	29.195000	-1.108585
	29.200000	-1.102138
	29.205000	-1.195615
	29.210000	-1.205285
	29.215000	-1.105361
	29.220000	-1.105361
	29.225000	-1.202062
	29.230000	-1.202062
	29.235000	-1.108585
	29.240000	-1.105361
	29.245000	-1.198839
	29.250000	-1.205285
	29.255000	-1.108585
	29.260000	-1.105361
	29.265000	-1.208509
	29.270000	-1.198839
	29.275000	-1.111808
	29.280000	-1.102138
	29.285000	-1.202062
	29.290000	-1.205285
	29.295000	-1.108585
	29.300000	-1.108585
	29.305000	-1.208509
	29.310000	-1.202062
	29.315000	-1.111808
	29.320000	-1.111808
	29.325000	-1.195615
	29.330000	-1.205285
	29.335000	-1.111808
	29.340000	-1.105361
	29.345000	-1.202062
	29.350000	-1.202062
	29.355000	-1.108585
	29.360000	-1.105361
	29.365000	-1.208509
	29.370000	-1.208509
	29.375000	-1.115031
	29.380000	-1.105361
	29.385000	-1.198839
	29.390000	-1.198839
	29.395000	-1.115031
	29.400000	-1.108585
	29.405000	-1.202062
	29.410000	-1.198839
	29.415000	-1.115031
	29.420000	-1.111808
	29.425000	-1.198839
	29.430000	-1.211732
	29.435000	-1.108585
	29.440000	-1.108585
	29.445000	-1.202062
	29.450000	-1.208509
	29.455000	-1.111808
	29.460000	-1.111808
	29.465000	-1.205285
	29.470000	-1.205285
	29.475000	-1.111808
	29.480000	-1.111808
	29.485000	-1.202062
	29.490000	-1.205285
	29.495000	-1.108585
	29.500000	-1.108585
	29.505000	-1.202062
	29.510000	-1.208509
	29.515000	-1.118255
	29.520000	-1.108585
	29.525000	-1.205285
	29.530000	-1.208509
	29.535000	-1.118255
	29.540000	-1.105361
	29.545000	-1.202062
	29.550000	-1.208509
	29.555000	-1.111808
	29.560000	-1.105361
	29.565000	-1.202062
	29.570000	-1.214956
	29.575000	-1.115031
	29.580000	-1.111808
	29.585000	-1.205285
	29.590000	-1.205285
	29.595000	-1.118255
	29.600000	-1.108585
	29.605000	-1.202062
	29.610000	-1.214956
	29.615000	-1.115031
	29.620000	-1.108585
	29.625000	-1.205285
	29.630000	-1.211732
	29.635000	-1.115031
	29.640000	-1.108585
	29.645000	-1.198839
	29.650000	-1.208509
	29.655000	-1.115031
	29.660000	-1.108585
	29.665000	-1.208509
	29.670000	-1.211732
	29.675000	-1.115031
	29.680000	-1.108585
	29.685000	-1.205285
	29.690000	-1.208509
	29.695000	-1.118255
	29.700000	-1.105361
	29.705000	-1.208509
	29.710000	-1.211732
	29.715000	-1.121478
	29.720000	-1.108585
	29.725000	-1.202062
	29.730000	-1.214956
	29.735000	-1.118255
	29.740000	-1.111808
	29.745000	-1.202062
	29.750000	-1.214956
	29.755000	-1.118255
	29.760000	-1.105361
	29.765000	-1.202062
	29.770000	-1.218179
	29.775000	-1.118255
	29.780000	-1.105361
	29.785000	-1.198839
	29.790000	-1.211732
	29.795000	-1.121478
	29.800000	-1.105361
	29.805000	-1.192392
	29.810000	-1.205285
	29.815000	-1.121478
	29.820000	-1.098915
	29.825000	-1.198839
	29.830000	-1.202062
	29.835000	-1.111808
	29.840000	-1.102138
	29.845000	-1.192392
	29.850000	-1.202062
	29.855000	-1.105361
	29.860000	-1.095691
	29.865000	-1.179499
	29.870000	-1.185945
	29.875000	-1.098915
	29.880000	-1.082798
	29.885000	-1.169829
	29.890000	-1.179499
	29.895000	-1.082798
	29.900000	-1.066681
	29.905000	-1.163382
	29.910000	-1.169829
	29.915000	-1.082798
	29.920000	-1.057011
	29.925000	-1.147265
	29.930000	-1.150488
	29.935000	-1.063458
	29.940000	-1.047341
	29.945000	-1.131148
	29.950000	-1.137595
	29.955000	-1.040894
	29.960000	-1.021554
	29.965000	-1.118255
	29.970000	-1.127925
	29.975000	-1.024777
	29.980000	-1.005437
	29.985000	-1.098915
	29.990000	-1.108585
	29.995000	-1.008661
	30.000000	-0.998991
	30.005000	-1.079574
	30.010000	-1.098915
	30.015000	-0.998991
	30.020000	-0.989320
	30.025000	-1.069904
	30.030000	-1.086021
	30.035000	-0.998991
	30.040000	-0.986097
	30.045000	-1.073128
	30.050000	-1.082798
	30.055000	-0.992544
	30.060000	-0.976427
	30.065000	-1.069904
	30.070000	-1.082798
	30.075000	-0.998991
	30.080000	-0.979650
	30.085000	-1.069904
	30.090000	-1.086021
	30.095000	-1.002214
	30.100000	-0.982874
	30.105000	-1.073128
	30.110000	-1.089245
	30.115000	-1.005437
	30.120000	-0.989320
	30.125000	-1.079574
	30.130000	-1.092468
	30.135000	-1.015107
	30.140000	-0.995767
	30.145000	-1.086021
	30.150000	-1.108585
	30.155000	-1.024777
	30.160000	-1.002214
	30.165000	-1.102138
	30.170000	-1.118255
	30.175000	-1.031224
	30.180000	-1.018331
	30.185000	-1.111808
	30.190000	-1.140818
	30.195000	-1.050564
	30.200000	-1.034447
	30.205000	-1.134372
	30.210000	-1.156935
	30.215000	-1.079574
	30.220000	-1.057011
	30.225000	-1.163382
	30.230000	-1.179499
	30.235000	-1.095691
	30.240000	-1.082798
	30.245000	-1.179499
	30.250000	-1.211732
	30.255000	-1.121478
	30.260000	-1.108585
	30.265000	-1.205285
	30.270000	-1.227849
	30.275000	-1.134372
	30.280000	-1.121478
	30.285000	-1.214956
	30.290000	-1.240742
	30.295000	-1.140818
	30.300000	-1.127925
	30.305000	-1.214956
	30.310000	-1.237519
	30.315000	-1.147265
	30.320000	-1.127925
	30.325000	-1.224626
	30.330000	-1.237519
	30.335000	-1.150488
	30.340000	-1.131148
	30.345000	-1.211732
	30.350000	-1.240742
	30.355000	-1.150488
	30.360000	-1.115031
	30.365000	-1.211732
	30.370000	-1.234296
	30.375000	-1.144042
	30.380000	-1.118255
	30.385000	-1.208509
	30.390000	-1.234296
	30.395000	-1.134372
	30.400000	-1.118255
	30.405000	-1.208509
	30.410000	-1.234296
	30.415000	-1.137595
	30.420000	-1.111808
	30.425000	-1.208509
	30.430000	-1.224626
	30.435000	-1.140818
	30.440000	-1.108585
	30.445000	-1.208509
	30.450000	-1.224626
	30.455000	-1.137595
	30.460000	-1.105361
	30.465000	-1.202062
	30.470000	-1.227849
	30.475000	-1.137595
	30.480000	-1.108585
	30.485000	-1.208509
	30.490000	-1.227849
	30.495000	-1.137595
	30.500000	-1.111808
	30.505000	-1.205285
	30.510000	-1.224626
	30.515000	-1.134372
	30.520000	-1.111808
	30.525000	-1.198839
	30.530000	-1.224626
	30.535000	-1.140818
	30.540000	-1.115031
	30.545000	-1.208509
	30.550000	-1.227849
	30.555000	-1.140818
	30.560000	-1.108585
	30.565000	-1.208509
	30.570000	-1.231072
	30.575000	-1.137595
	30.580000	-1.115031
	30.585000	-1.208509
	30.590000	-1.237519
	30.595000	-1.144042
	30.600000	-1.118255
	30.605000	-1.211732
	30.610000	-1.234296
	30.615000	-1.147265
	30.620000	-1.115031
	30.625000	-1.214956
	30.630000	-1.237519
	30.635000	-1.147265
	30.640000	-1.124702
	30.645000	-1.211732
	30.650000	-1.237519
	30.655000	-1.150488
	30.660000	-1.127925
	30.665000	-1.208509
	30.670000	-1.234296
	30.675000	-1.150488
	30.680000	-1.121478
	30.685000	-1.211732
	30.690000	-1.237519
	30.695000	-1.153712
	30.700000	-1.121478
	30.705000	-1.214956
	30.710000	-1.243966
	30.715000	-1.153712
	30.720000	-1.124702
	30.725000	-1.211732
	30.730000	-1.243966
	30.735000	-1.150488
	30.740000	-1.124702
	30.745000	-1.218179
	30.750000	-1.237519
	30.755000	-1.153712
	30.760000	-1.124702
	30.765000	-1.214956
	30.770000	-1.243966
	30.775000	-1.153712
	30.780000	-1.127925
	30.785000	-1.214956
	30.790000	-1.247189
	30.795000	-1.156935
	30.800000	-1.124702
	30.805000	-1.211732
	30.810000	-1.247189
	30.815000	-1.153712
	30.820000	-1.118255
	30.825000	-1.221402
	30.830000	-1.250413
	30.835000	-1.156935
	30.840000	-1.124702
	30.845000	-1.214956
	30.850000	-1.247189
	30.855000	-1.160158
	30.860000	-1.127925
	30.865000	-1.211732
	30.870000	-1.243966
	30.875000	-1.160158
	30.880000	-1.127925
	30.885000	-1.218179
	30.890000	-1.250413
	30.895000	-1.153712
	30.900000	-1.127925
	30.905000	-1.214956
	30.910000	-1.250413
	30.915000	-1.160158
	30.920000	-1.127925
	30.925000	-1.211732
	30.930000	-1.250413
	30.935000	-1.160158
	30.940000	-1.121478
	30.945000	-1.211732
	30.950000	-1.247189
	30.955000	-1.153712
	30.960000	-1.121478
	30.965000	-1.214956
	30.970000	-1.247189
	30.975000	-1.160158
	30.980000	-1.124702
	30.985000	-1.221402
	30.990000	-1.247189
	30.995000	-1.153712
	31.000000	-1.131148
	31.005000	-1.218179
	31.010000	-1.247189
	31.015000	-1.160158
	31.020000	-1.131148
	31.025000	-1.214956
	31.030000	-1.243966
	31.035000	-1.166605
	31.040000	-1.124702
	31.045000	-1.218179
	31.050000	-1.247189
	31.055000	-1.160158
	31.060000	-1.124702
	31.065000	-1.221402
	31.070000	-1.243966
	31.075000	-1.160158
	31.080000	-1.127925
	31.085000	-1.221402
	31.090000	-1.256859
	31.095000	-1.173052
	31.100000	-1.137595
	31.105000	-1.214956
	31.110000	-1.250413
	31.115000	-1.160158
	31.120000	-1.127925
	31.125000	-1.218179
	31.130000	-1.243966
	31.135000	-1.163382
	31.140000	-1.137595
	31.145000	-1.221402
	31.150000	-1.253636
	31.155000	-1.163382
	31.160000	-1.124702
	31.165000	-1.218179
	31.170000	-1.253636
	31.175000	-1.166605
	31.180000	-1.134372
	31.185000	-1.218179
	31.190000	-1.256859
	31.195000	-1.169829
	31.200000	-1.131148
	31.205000	-1.214956
	31.210000	-1.253636
	31.215000	-1.166605
	31.220000	-1.131148
	31.225000	-1.211732
	31.230000	-1.256859
	31.235000	-1.169829
	31.240000	-1.131148
	31.245000	-1.218179
	31.250000	-1.253636
	31.255000	-1.169829
	31.260000	-1.131148
	31.265000	-1.218179
	31.270000	-1.253636
	31.275000	-1.166605
	31.280000	-1.131148
	31.285000	-1.214956
	31.290000	-1.256859
	31.295000	-1.169829
	31.300000	-1.131148
	31.305000	-1.218179
	31.310000	-1.253636
	31.315000	-1.166605
	31.320000	-1.131148
	31.325000	-1.218179
	31.330000	-1.253636
	31.335000	-1.166605
	31.340000	-1.131148
	31.345000	-1.214956
	31.350000	-1.253636
	31.355000	-1.169829
	31.360000	-1.127925
	31.365000	-1.218179
	31.370000	-1.260083
	31.375000	-1.166605
	31.380000	-1.131148
	31.385000	-1.218179
	31.390000	-1.260083
	31.395000	-1.176275
	31.400000	-1.124702
	31.405000	-1.218179
	31.410000	-1.253636
	31.415000	-1.169829
	31.420000	-1.131148
	31.425000	-1.214956
	31.430000	-1.253636
	31.435000	-1.176275
	31.440000	-1.134372
	31.445000	-1.218179
	31.450000	-1.256859
	31.455000	-1.169829
	31.460000	-1.134372
	31.465000	-1.218179
	31.470000	-1.266529
	31.475000	-1.169829
	31.480000	-1.131148
	31.485000	-1.218179
	31.490000	-1.256859
	31.495000	-1.176275
	31.500000	-1.134372
	31.505000	-1.218179
	31.510000	-1.263306
	31.515000	-1.176275
	31.520000	-1.131148
	31.525000	-1.224626
	31.530000	-1.256859
	31.535000	-1.176275
	31.540000	-1.134372
	31.545000	-1.218179
	31.550000	-1.260083
	31.555000	-1.176275
	31.560000	-1.127925
	31.565000	-1.218179
	31.570000	-1.263306
	31.575000	-1.179499
	31.580000	-1.134372
	31.585000	-1.218179
	31.590000	-1.260083
	31.595000	-1.176275
	31.600000	-1.127925
	31.605000	-1.218179
	31.610000	-1.260083
	31.615000	-1.173052
	31.620000	-1.137595
	31.625000	-1.221402
	31.630000	-1.263306
	31.635000	-1.173052
	31.640000	-1.140818
	31.645000	-1.214956
	31.650000	-1.263306
	31.655000	-1.176275
	31.660000	-1.131148
	31.665000	-1.214956
	31.670000	-1.263306
	31.675000	-1.182722
	31.680000	-1.134372
	31.685000	-1.218179
	31.690000	-1.263306
	31.695000	-1.173052
	31.700000	-1.134372
	31.705000	-1.221402
	31.710000	-1.260083
	31.715000	-1.176275
	31.720000	-1.134372
	31.725000	-1.214956
	31.730000	-1.260083
	31.735000	-1.182722
	31.740000	-1.137595
	31.745000	-1.214956
	31.750000	-1.269753
	31.755000	-1.182722
	31.760000	-1.134372
	31.765000	-1.221402
	31.770000	-1.269753
	31.775000	-1.185945
	31.780000	-1.124702
	31.785000	-1.221402
	31.790000	-1.263306
	31.795000	-1.176275
	31.800000	-1.131148
	31.805000	-1.211732
	31.810000	-1.260083
	31.815000	-1.176275
	31.820000	-1.134372
	31.825000	-1.224626
	31.830000	-1.266529
	31.835000	-1.185945
	31.840000	-1.134372
	31.845000	-1.221402
	31.850000	-1.266529
	31.855000	-1.182722
	31.860000	-1.134372
	31.865000	-1.221402
	31.870000	-1.260083
	31.875000	-1.185945
	31.880000	-1.140818
	31.885000	-1.221402
	31.890000	-1.263306
	31.895000	-1.182722
	31.900000	-1.140818
	31.905000	-1.218179
	31.910000	-1.269753
	31.915000	-1.189169
	31.920000	-1.144042
	31.925000	-1.218179
	31.930000	-1.266529
	31.935000	-1.185945
	31.940000	-1.137595
	31.945000	-1.221402
	31.950000	-1.269753
	31.955000	-1.185945
	31.960000	-1.134372
	31.965000	-1.218179
	31.970000	-1.263306
	31.975000	-1.185945
	31.980000	-1.137595
	31.985000	-1.214956
	31.990000	-1.272976
	31.995000	-1.185945
	32.000000	-1.137595
	32.005000	-1.221402
	32.010000	-1.266529
	32.015000	-1.185945
	32.020000	-1.137595
	32.025000	-1.214956
	32.030000	-1.269753
	32.035000	-1.182722
	32.040000	-1.134372
	32.045000	-1.224626
	32.050000	-1.263306
	32.055000	-1.185945
	32.060000	-1.131148
	32.065000	-1.211732
	32.070000	-1.263306
	32.075000	-1.185945
	32.080000	-1.137595
	32.085000	-1.218179
	32.090000	-1.266529
	32.095000	-1.185945
	32.100000	-1.137595
	32.105000	-1.218179
	32.110000	-1.263306
	32.115000	-1.192392
	32.120000	-1.137595
	32.125000	-1.214956
	32.130000	-1.266529
	32.135000	-1.192392
	32.140000	-1.140818
	32.145000	-1.211732
	32.150000	-1.266529
	32.155000	-1.185945
	32.160000	-1.134372
	32.165000	-1.211732
	32.170000	-1.269753
	32.175000	-1.185945
	32.180000	-1.140818
	32.185000	-1.214956
	32.190000	-1.269753
	32.195000	-1.192392
	32.200000	-1.140818
	32.205000	-1.214956
	32.210000	-1.263306
	32.215000	-1.192392
	32.220000	-1.140818
	32.225000	-1.221402
	32.230000	-1.269753
	32.235000	-1.192392
	32.240000	-1.144042
	32.245000	-1.214956
	32.250000	-1.269753
	32.255000	-1.189169
	32.260000	-1.137595
	32.265000	-1.214956
	32.270000	-1.266529
	32.275000	-1.189169
	32.280000	-1.144042
	32.285000	-1.211732
	32.290000	-1.272976
	32.295000	-1.189169
	32.300000	-1.140818
	32.305000	-1.214956
	32.310000	-1.263306
	32.315000	-1.192392
	32.320000	-1.150488
	32.325000	-1.218179
	32.330000	-1.269753
	32.335000	-1.192392
	32.340000	-1.140818
	32.345000	-1.214956
	32.350000	-1.272976
	32.355000	-1.192392
	32.360000	-1.144042
	32.365000	-1.211732
	32.370000	-1.269753
	32.375000	-1.195615
	32.380000	-1.147265
	32.385000	-1.214956
	32.390000	-1.266529
	32.395000	-1.198839
	32.400000	-1.144042
	32.405000	-1.214956
	32.410000	-1.272976
	32.415000	-1.195615
	32.420000	-1.137595
	32.425000	-1.218179
	32.430000	-1.272976
	32.435000	-1.195615
	32.440000	-1.147265
	32.445000	-1.214956
	32.450000	-1.276199
	32.455000	-1.195615
	32.460000	-1.144042
	32.465000	-1.221402
	32.470000	-1.269753
	32.475000	-1.198839
	32.480000	-1.137595
	32.485000	-1.218179
	32.490000	-1.276199
	32.495000	-1.198839
	32.500000	-1.144042
	32.505000	-1.214956
	32.510000	-1.269753
	32.515000	-1.195615
	32.520000	-1.134372
	32.525000	-1.214956
	32.530000	-1.272976
	32.535000	-1.195615
	32.540000	-1.140818
	32.545000	-1.214956
	32.550000	-1.276199
	32.555000	-1.198839
	32.560000	-1.144042
	32.565000	-1.218179
	32.570000	-1.272976
	32.575000	-1.195615
	32.580000	-1.144042
	32.585000	-1.214956
	32.590000	-1.272976
	32.595000	-1.198839
	32.600000	-1.134372
	32.605000	-1.218179
	32.610000	-1.276199
	32.615000	-1.198839
	32.620000	-1.147265
	32.625000	-1.218179
	32.630000	-1.279423
	32.635000	-1.202062
	32.640000	-1.140818
	32.645000	-1.218179
	32.650000	-1.276199
	32.655000	-1.202062
	32.660000	-1.144042
	32.665000	-1.214956
	32.670000	-1.272976
	32.675000	-1.202062
	32.680000	-1.140818
	32.685000	-1.214956
	32.690000	-1.272976
	32.695000	-1.202062
	32.700000	-1.140818
	32.705000	-1.218179
	32.710000	-1.282646
	32.715000	-1.202062
	32.720000	-1.144042
	32.725000	-1.214956
	32.730000	-1.279423
	32.735000	-1.208509
	32.740000	-1.144042
	32.745000	-1.218179
	32.750000	-1.276199
	32.755000	-1.211732
	32.760000	-1.147265
	32.765000	-1.211732
	32.770000	-1.276199
	32.775000	-1.211732
	32.780000	-1.144042
	32.785000	-1.211732
	32.790000	-1.276199
	32.795000	-1.205285
	32.800000	-1.147265
	32.805000	-1.218179
	32.810000	-1.272976
	32.815000	-1.208509
	32.820000	-1.147265
	32.825000	-1.221402
	32.830000	-1.276199
	32.835000	-1.205285
	32.840000	-1.140818
	32.845000	-1.208509
	32.850000	-1.279423
	32.855000	-1.205285
	32.860000	-1.144042
	32.865000	-1.218179
	32.870000	-1.279423
	32.875000	-1.208509
	32.880000	-1.140818
	32.885000	-1.211732
	32.890000	-1.276199
	32.895000	-1.211732
	32.900000	-1.140818
	32.905000	-1.221402
	32.910000	-1.279423
	32.915000	-1.205285
	32.920000	-1.140818
	32.925000	-1.214956
	32.930000	-1.276199
	32.935000	-1.205285
	32.940000	-1.140818
	32.945000	-1.211732
	32.950000	-1.279423
	32.955000	-1.211732
	32.960000	-1.147265
	32.965000	-1.218179
	32.970000	-1.276199
	32.975000	-1.205285
	32.980000	-1.150488
	32.985000	-1.214956
	32.990000	-1.282646
	32.995000	-1.211732
	33.000000	-1.150488
	33.005000	-1.221402
	33.010000	-1.279423
	33.015000	-1.211732
	33.020000	-1.144042
	33.025000	-1.218179
	33.030000	-1.279423
	33.035000	-1.211732
	33.040000	-1.150488
	33.045000	-1.218179
	33.050000	-1.272976
	33.055000	-1.211732
	33.060000	-1.147265
	33.065000	-1.211732
	33.070000	-1.279423
	33.075000	-1.208509
	33.080000	-1.150488
	33.085000	-1.218179
	33.090000	-1.282646
	33.095000	-1.214956
	33.100000	-1.147265
	33.105000	-1.211732
	33.110000	-1.282646
	33.115000	-1.208509
	33.120000	-1.153712
	33.125000	-1.218179
	33.130000	-1.285869
	33.135000	-1.214956
	33.140000	-1.150488
	33.145000	-1.214956
	33.150000	-1.282646
	33.155000	-1.218179
	33.160000	-1.156935
	33.165000	-1.211732
	33.170000	-1.279423
	33.175000	-1.211732
	33.180000	-1.153712
	33.185000	-1.221402
	33.190000	-1.282646
	33.195000	-1.214956
	33.200000	-1.153712
	33.205000	-1.221402
	33.210000	-1.292316
	33.215000	-1.214956
	33.220000	-1.156935
	33.225000	-1.221402
	33.230000	-1.285869
	33.235000	-1.214956
	33.240000	-1.147265
	33.245000	-1.221402
	33.250000	-1.285869
	33.255000	-1.218179
	33.260000	-1.150488
	33.265000	-1.211732
	33.270000	-1.282646
	33.275000	-1.214956
	33.280000	-1.147265
	33.285000	-1.221402
	33.290000	-1.282646
	33.295000	-1.211732
	33.300000	-1.156935
	33.305000	-1.221402
	33.310000	-1.285869
	33.315000	-1.218179
	33.320000	-1.150488
	33.325000	-1.211732
	33.330000	-1.279423
	33.335000	-1.214956
	33.340000	-1.153712
	33.345000	-1.211732
	33.350000	-1.279423
	33.355000	-1.218179
	33.360000	-1.150488
	33.365000	-1.208509
	33.370000	-1.279423
	33.375000	-1.211732
	33.380000	-1.144042
	33.385000	-1.211732
	33.390000	-1.276199
	33.395000	-1.205285
	33.400000	-1.144042
	33.405000	-1.202062
	33.410000	-1.263306
	33.415000	-1.195615
	33.420000	-1.131148
	33.425000	-1.185945
	33.430000	-1.250413
	33.435000	-1.182722
	33.440000	-1.111808
	33.445000	-1.166605
	33.450000	-1.234296
	33.455000	-1.163382
	33.460000	-1.095691
	33.465000	-1.153712
	33.470000	-1.211732
	33.475000	-1.147265
	33.480000	-1.076351
	33.485000	-1.131148
	33.490000	-1.205285
	33.495000	-1.131148
	33.500000	-1.063458
	33.505000	-1.124702
	33.510000	-1.189169
	33.515000	-1.124702
	33.520000	-1.053788
	33.525000	-1.115031
	33.530000	-1.179499
	33.535000	-1.111808
	33.540000	-1.044118
	33.545000	-1.102138
	33.550000	-1.173052
	33.555000	-1.111808
	33.560000	-1.040894
	33.565000	-1.095691
	33.570000	-1.160158
	33.575000	-1.105361
	33.580000	-1.037671
	33.585000	-1.102138
	33.590000	-1.169829
	33.595000	-1.102138
	33.600000	-1.037671
	33.605000	-1.095691
	33.610000	-1.166605
	33.615000	-1.108585
	33.620000	-1.037671
	33.625000	-1.095691
	33.630000	-1.166605
	33.635000	-1.105361
	33.640000	-1.037671
	33.645000	-1.098915
	33.650000	-1.166605
	33.655000	-1.108585
	33.660000	-1.037671
	33.665000	-1.102138
	33.670000	-1.169829
	33.675000	-1.121478
	33.680000	-1.040894
	33.685000	-1.108585
	33.690000	-1.179499
	33.695000	-1.118255
	33.700000	-1.057011
	33.705000	-1.111808
	33.710000	-1.189169
	33.715000	-1.137595
	33.720000	-1.060234
	33.725000	-1.121478
	33.730000	-1.192392
	33.735000	-1.147265
	33.740000	-1.073128
	33.745000	-1.137595
	33.750000	-1.208509
	33.755000	-1.156935
	33.760000	-1.095691
	33.765000	-1.153712
	33.770000	-1.234296
	33.775000	-1.179499
	33.780000	-1.115031
	33.785000	-1.179499
	33.790000	-1.260083
	33.795000	-1.205285
	33.800000	-1.140818
	33.805000	-1.205285
	33.810000	-1.292316
	33.815000	-1.231072
	33.820000	-1.166605
	33.825000	-1.231072
	33.830000	-1.301986
	33.835000	-1.253636
	33.840000	-1.185945
	33.845000	-1.247189
	33.850000	-1.321326
	33.855000	-1.269753
	33.860000	-1.189169
	33.865000	-1.253636
	33.870000	-1.334220
	33.875000	-1.266529
	33.880000	-1.198839
	33.885000	-1.256859
	33.890000	-1.324550
	33.895000	-1.269753
	33.900000	-1.189169
	33.905000	-1.243966
	33.910000	-1.321326
	33.915000	-1.263306
	33.920000	-1.185945
	33.925000	-1.240742
	33.930000	-1.308433
	33.935000	-1.250413
	33.940000	-1.169829
	33.945000	-1.221402
	33.950000	-1.295540
	33.955000	-1.234296
	33.960000	-1.156935
	33.965000	-1.205285
	33.970000	-1.272976
	33.975000	-1.218179
	33.980000	-1.144042
	33.985000	-1.192392
	33.990000	-1.272976
	33.995000	-1.208509
	34.000000	-1.131148
	34.005000	-1.182722
	34.010000	-1.253636
	34.015000	-1.198839
	34.020000	-1.121478
	34.025000	-1.173052
	34.030000	-1.247189
	34.035000	-1.192392
	34.040000	-1.115031
	34.045000	-1.166605
	34.050000	-1.243966
	34.055000	-1.189169
	34.060000	-1.124702
	34.065000	-1.173052
	34.070000	-1.253636
	34.075000	-1.192392
	34.080000	-1.121478
	34.085000	-1.179499
	34.090000	-1.253636
	34.095000	-1.198839
	34.100000	-1.127925
	34.105000	-1.185945
	34.110000	-1.263306
	34.115000	-1.211732
	34.120000	-1.140818
	34.125000	-1.195615
	34.130000	-1.269753
	34.135000	-1.221402
	34.140000	-1.150488
	34.145000	-1.205285
	34.150000	-1.279423
	34.155000	-1.227849
	34.160000	-1.153712
	34.165000	-1.208509
	34.170000	-1.289093
	34.175000	-1.234296
	34.180000	-1.163382
	34.185000	-1.214956
	34.190000	-1.295540
	34.195000	-1.250413
	34.200000	-1.173052
	34.205000	-1.218179
	34.210000	-1.305210
	34.215000	-1.247189
	34.220000	-1.173052
	34.225000	-1.227849
	34.230000	-1.301986
	34.235000	-1.250413
	34.240000	-1.179499
	34.245000	-1.227849
	34.250000	-1.308433
	34.255000	-1.256859
	34.260000	-1.182722
	34.265000	-1.234296
	34.270000	-1.314880
	34.275000	-1.263306
	34.280000	-1.185945
	34.285000	-1.240742
	34.290000	-1.321326
	34.295000	-1.263306
	34.300000	-1.185945
	34.305000	-1.234296
	34.310000	-1.311656
	34.315000	-1.263306
	34.320000	-1.189169
	34.325000	-1.237519
	34.330000	-1.318103
	34.335000	-1.266529
	34.340000	-1.189169
	34.345000	-1.231072
	34.350000	-1.314880
	34.355000	-1.263306
	34.360000	-1.189169
	34.365000	-1.234296
	34.370000	-1.314880
	34.375000	-1.260083
	34.380000	-1.189169
	34.385000	-1.234296
	34.390000	-1.311656
	34.395000	-1.260083
	34.400000	-1.185945
	34.405000	-1.237519
	34.410000	-1.314880
	34.415000	-1.263306
	34.420000	-1.182722
	34.425000	-1.237519
	34.430000	-1.318103
	34.435000	-1.263306
	34.440000	-1.185945
	34.445000	-1.237519
	34.450000	-1.318103
	34.455000	-1.266529
	34.460000	-1.185945
	34.465000	-1.231072
	34.470000	-1.314880
	34.475000	-1.269753
	34.480000	-1.185945
	34.485000	-1.234296
	34.490000	-1.314880
	34.495000	-1.266529
	34.500000	-1.185945
	34.505000	-1.234296
	34.510000	-1.314880
	34.515000	-1.263306
	34.520000	-1.182722
	34.525000	-1.234296
	34.530000	-1.321326
	34.535000	-1.266529
	34.540000	-1.185945
	34.545000	-1.234296
	34.550000	-1.318103
	34.555000	-1.263306
	34.560000	-1.182722
	34.565000	-1.237519
	34.570000	-1.321326
	34.575000	-1.263306
	34.580000	-1.189169
	34.585000	-1.237519
	34.590000	-1.318103
	34.595000	-1.263306
	34.600000	-1.185945
	34.605000	-1.231072
	34.610000	-1.314880
	34.615000	-1.272976
	34.620000	-1.185945
	34.625000	-1.237519
	34.630000	-1.314880
	34.635000	-1.269753
	34.640000	-1.185945
	34.645000	-1.234296
	34.650000	-1.314880
	34.655000	-1.269753
	34.660000	-1.185945
	34.665000	-1.234296
	34.670000	-1.318103
	34.675000	-1.269753
	34.680000	-1.182722
	34.685000	-1.231072
	34.690000	-1.318103
	34.695000	-1.263306
	34.700000	-1.192392
	34.705000	-1.231072
	34.710000	-1.318103
	34.715000	-1.272976
	34.720000	-1.192392
	34.725000	-1.231072
	34.730000	-1.318103
	34.735000	-1.263306
	34.740000	-1.192392
	34.745000	-1.237519
	34.750000	-1.318103
	34.755000	-1.269753
	34.760000	-1.189169
	34.765000	-1.234296
	34.770000	-1.318103
	34.775000	-1.266529
	34.780000	-1.189169
	34.785000	-1.234296
	34.790000	-1.318103
	34.795000	-1.266529
	34.800000	-1.189169
	34.805000	-1.231072
	34.810000	-1.321326
	34.815000	-1.269753
	34.820000	-1.189169
	34.825000	-1.227849
	34.830000	-1.318103
	34.835000	-1.272976
	34.840000	-1.189169
	34.845000	-1.237519
	34.850000	-1.318103
	34.855000	-1.272976
	34.860000	-1.189169
	34.865000	-1.231072
	34.870000	-1.318103
	34.875000	-1.276199
	34.880000	-1.195615
	34.885000	-1.231072
	34.890000	-1.318103
	34.895000	-1.272976
	34.900000	-1.189169
	34.905000	-1.234296
	34.910000	-1.321326
	34.915000	-1.279423
	34.920000	-1.185945
	34.925000	-1.231072
	34.930000	-1.314880
	34.935000	-1.276199
	34.940000	-1.192392
	34.945000	-1.234296
	34.950000	-1.318103
	34.955000	-1.282646
	34.960000	-1.189169
	34.965000	-1.237519
	34.970000	-1.321326
	34.975000	-1.279423
	34.980000	-1.195615
	34.985000	-1.237519
	34.990000	-1.324550
	34.995000	-1.276199
	35.000000	-1.192392
	35.005000	-1.234296
	35.010000	-1.324550
	35.015000	-1.279423
	35.020000	-1.195615
	35.025000	-1.231072
	35.030000	-1.321326
	35.035000	-1.282646
	35.040000	-1.198839
	35.045000	-1.234296
	35.050000	-1.314880
	35.055000	-1.276199
	35.060000	-1.195615
	35.065000	-1.234296
	35.070000	-1.314880
	35.075000	-1.282646
	35.080000	-1.195615
	35.085000	-1.237519
	35.090000	-1.324550
	35.095000	-1.272976
	35.100000	-1.195615
	35.105000	-1.240742
	35.110000	-1.321326
	35.115000	-1.276199
	35.120000	-1.192392
	35.125000	-1.231072
	35.130000	-1.318103
	35.135000	-1.279423
	35.140000	-1.195615
	35.145000	-1.240742
	35.150000	-1.324550
	35.155000	-1.285869
	35.160000	-1.192392
	35.165000	-1.234296
	35.170000	-1.327773
	35.175000	-1.279423
	35.180000	-1.195615
	35.185000	-1.237519
	35.190000	-1.324550
	35.195000	-1.282646
	35.200000	-1.202062
	35.205000	-1.231072
	35.210000	-1.327773
	35.215000	-1.282646
	35.220000	-1.202062
	35.225000	-1.231072
	35.230000	-1.324550
	35.235000	-1.279423
	35.240000	-1.195615
	35.245000	-1.231072
	35.250000	-1.321326
	35.255000	-1.282646
	35.260000	-1.195615
	35.265000	-1.234296
	35.270000	-1.321326
	35.275000	-1.282646
	35.280000	-1.198839
	35.285000	-1.234296
	35.290000	-1.321326
	35.295000	-1.282646
	35.300000	-1.192392
	35.305000	-1.240742
	35.310000	-1.318103
	35.315000	-1.289093
	35.320000	-1.198839
	35.325000	-1.234296
	35.330000	-1.314880
	35.335000	-1.285869
	35.340000	-1.198839
	35.345000	-1.231072
	35.350000	-1.318103
	35.355000	-1.282646
	35.360000	-1.198839
	35.365000	-1.240742
	35.370000	-1.321326
	35.375000	-1.292316
	35.380000	-1.202062
	35.385000	-1.237519
	35.390000	-1.324550
	35.395000	-1.282646
	35.400000	-1.195615
	35.405000	-1.227849
	35.410000	-1.321326
	35.415000	-1.282646
	35.420000	-1.198839
	35.425000	-1.237519
	35.430000	-1.314880
	35.435000	-1.282646
	35.440000	-1.202062
	35.445000	-1.237519
	35.450000	-1.321326
	35.455000	-1.289093
	35.460000	-1.198839
	35.465000	-1.231072
	35.470000	-1.318103
	35.475000	-1.289093
	35.480000	-1.202062
	35.485000	-1.237519
	35.490000	-1.324550
	35.495000	-1.289093
	35.500000	-1.202062
	35.505000	-1.231072
	35.510000	-1.324550
	35.515000	-1.285869
	35.520000	-1.198839
	35.525000	-1.231072
	35.530000	-1.318103
	35.535000	-1.289093
	35.540000	-1.202062
	35.545000	-1.231072
	35.550000	-1.321326
	35.555000	-1.285869
	35.560000	-1.202062
	35.565000	-1.231072
	35.570000	-1.324550
	35.575000	-1.285869
	35.580000	-1.202062
	35.585000	-1.224626
	35.590000	-1.324550
	35.595000	-1.289093
	35.600000	-1.198839
	35.605000	-1.234296
	35.610000	-1.327773
	35.615000	-1.285869
	35.620000	-1.198839
	35.625000	-1.227849
	35.630000	-1.314880
	35.635000	-1.289093
	35.640000	-1.198839
	35.645000	-1.231072
	35.650000	-1.321326
	35.655000	-1.289093
	35.660000	-1.198839
	35.665000	-1.231072
	35.670000	-1.321326
	35.675000	-1.285869
	35.680000	-1.205285
	35.685000	-1.231072
	35.690000	-1.324550
	35.695000	-1.289093
	35.700000	-1.198839
	35.705000	-1.234296
	35.710000	-1.321326
	35.715000	-1.285869
	35.720000	-1.198839
	35.725000	-1.227849
	35.730000	-1.321326
	35.735000	-1.289093
	35.740000	-1.192392
	35.745000	-1.227849
	35.750000	-1.318103
	35.755000	-1.292316
	35.760000	-1.205285
	35.765000	-1.231072
	35.770000	-1.324550
	35.775000	-1.292316
	35.780000	-1.198839
	35.785000	-1.234296
	35.790000	-1.321326
	35.795000	-1.292316
	35.800000	-1.202062
	35.805000	-1.227849
	35.810000	-1.324550
	35.815000	-1.292316
	35.820000	-1.198839
	35.825000	-1.227849
	35.830000	-1.318103
	35.835000	-1.285869
	35.840000	-1.202062
	35.845000	-1.237519
	35.850000	-1.321326
	35.855000	-1.285869
	35.860000	-1.205285
	35.865000	-1.231072
	35.870000	-1.324550
	35.875000	-1.289093
	35.880000	-1.198839
	35.885000	-1.231072
	35.890000	-1.318103
	35.895000	-1.289093
	35.900000	-1.205285
	35.905000	-1.224626
	35.910000	-1.321326
	35.915000	-1.292316
	35.920000	-1.198839
	35.925000	-1.231072
	35.930000	-1.321326
	35.935000	-1.289093
	35.940000	-1.202062
	35.945000	-1.227849
	35.950000	-1.318103
	35.955000	-1.289093
	35.960000	-1.205285
	35.965000	-1.227849
	35.970000	-1.324550
	35.975000	-1.295540
	35.980000	-1.195615
	35.985000	-1.224626
	35.990000	-1.324550
	35.995000	-1.292316
	36.000000	-1.202062
	36.005000	-1.234296
	36.010000	-1.321326
	36.015000	-1.298763
	36.020000	-1.198839
	36.025000	-1.231072
	36.030000	-1.321326
	36.035000	-1.298763
	36.040000	-1.205285
	36.045000	-1.224626
	36.050000	-1.318103
	36.055000	-1.292316
	36.060000	-1.205285
	36.065000	-1.234296
	36.070000	-1.321326
	36.075000	-1.295540
	36.080000	-1.208509
	36.085000	-1.227849
	36.090000	-1.318103
	36.095000	-1.295540
	36.100000	-1.205285
	36.105000	-1.227849
	36.110000	-1.314880
	36.115000	-1.292316
	36.120000	-1.205285
	36.125000	-1.227849
	36.130000	-1.321326
	36.135000	-1.301986
	36.140000	-1.202062
	36.145000	-1.231072
	36.150000	-1.314880
	36.155000	-1.292316
	36.160000	-1.202062
	36.165000	-1.224626
	36.170000	-1.321326
	36.175000	-1.292316
	36.180000	-1.202062
	36.185000	-1.218179
	36.190000	-1.308433
	36.195000	-1.285869
	36.200000	-1.192392
	36.205000	-1.218179
	36.210000	-1.305210
	36.215000	-1.276199
	36.220000	-1.179499
	36.225000	-1.202062
	36.230000	-1.289093
	36.235000	-1.256859
	36.240000	-1.173052
	36.245000	-1.182722
	36.250000	-1.272976
	36.255000	-1.237519
	36.260000	-1.147265
	36.265000	-1.166605
	36.270000	-1.250413
	36.275000	-1.224626
	36.280000	-1.127925
	36.285000	-1.150488
	36.290000	-1.227849
	36.295000	-1.205285
	36.300000	-1.111808
	36.305000	-1.127925
	36.310000	-1.214956
	36.315000	-1.192392
	36.320000	-1.098915
	36.325000	-1.118255
	36.330000	-1.198839
	36.335000	-1.182722
	36.340000	-1.089245
	36.345000	-1.105361
	36.350000	-1.195615
	36.355000	-1.163382
	36.360000	-1.079574
	36.365000	-1.095691
	36.370000	-1.179499
	36.375000	-1.156935
	36.380000	-1.073128
	36.385000	-1.089245
	36.390000	-1.173052
	36.395000	-1.160158
	36.400000	-1.066681
	36.405000	-1.079574
	36.410000	-1.173052
	36.415000	-1.156935
	36.420000	-1.069904
	36.425000	-1.086021
	36.430000	-1.179499
	36.435000	-1.156935
	36.440000	-1.066681
	36.445000	-1.089245
	36.450000	-1.173052
	36.455000	-1.153712
	36.460000	-1.063458
	36.465000	-1.092468
	36.470000	-1.179499
	36.475000	-1.160158
	36.480000	-1.073128
	36.485000	-1.092468
	36.490000	-1.182722
	36.495000	-1.163382
	36.500000	-1.076351
	36.505000	-1.095691
	36.510000	-1.195615
	36.515000	-1.176275
	36.520000	-1.086021
	36.525000	-1.105361
	36.530000	-1.195615
	36.535000	-1.182722
	36.540000	-1.095691
	36.545000	-1.124702
	36.550000	-1.214956
	36.555000	-1.211732
	36.560000	-1.121478
	36.565000	-1.137595
	36.570000	-1.237519
	36.575000	-1.227849
	36.580000	-1.147265
	36.585000	-1.163382
	36.590000	-1.263306
	36.595000	-1.253636
	36.600000	-1.163382
	36.605000	-1.185945
	36.610000	-1.289093
	36.615000	-1.269753
	36.620000	-1.185945
	36.625000	-1.211732
	36.630000	-1.305210
	36.635000	-1.292316
	36.640000	-1.205285
	36.645000	-1.234296
	36.650000	-1.321326
	36.655000	-1.301986
	36.660000	-1.211732
	36.665000	-1.227849
	36.670000	-1.318103
	36.675000	-1.305210
	36.680000	-1.208509
	36.685000	-1.227849
	36.690000	-1.314880
	36.695000	-1.301986
	36.700000	-1.208509
	36.705000	-1.227849
	36.710000	-1.314880
	36.715000	-1.298763
	36.720000	-1.205285
	36.725000	-1.218179
	36.730000	-1.311656
	36.735000	-1.298763
	36.740000	-1.198839
	36.745000	-1.208509
	36.750000	-1.311656
	36.755000	-1.292316
	36.760000	-1.189169
	36.765000	-1.211732
	36.770000	-1.301986
	36.775000	-1.285869
	36.780000	-1.192392
	36.785000	-1.198839
	36.790000	-1.305210
	36.795000	-1.279423
	36.800000	-1.192392
	36.805000	-1.202062
	36.810000	-1.298763
	36.815000	-1.276199
	36.820000	-1.189169
	36.825000	-1.198839
	36.830000	-1.289093
	36.835000	-1.272976
	36.840000	-1.182722
	36.845000	-1.198839
	36.850000	-1.292316
	36.855000	-1.276199
	36.860000	-1.192392
	36.865000	-1.189169
	36.870000	-1.298763
	36.875000	-1.279423
	36.880000	-1.189169
	36.885000	-1.202062
	36.890000	-1.295540
	36.895000	-1.282646
	36.900000	-1.189169
	36.905000	-1.202062
	36.910000	-1.292316
	36.915000	-1.285869
	36.920000	-1.195615
	36.925000	-1.211732
	36.930000	-1.301986
	36.935000	-1.298763
	36.940000	-1.208509
	36.945000	-1.214956
	36.950000	-1.308433
	36.955000	-1.301986
	36.960000	-1.214956
	36.965000	-1.227849
	36.970000	-1.327773
	36.975000	-1.305210
	36.980000	-1.218179
	36.985000	-1.231072
	36.990000	-1.324550
	36.995000	-1.314880
	37.000000	-1.224626
	37.005000	-1.231072
	37.010000	-1.324550
	37.015000	-1.318103
	37.020000	-1.227849
	37.025000	-1.237519
	37.030000	-1.334220
	37.035000	-1.327773
	37.040000	-1.224626
	37.045000	-1.240742
	37.050000	-1.334220
	37.055000	-1.321326
	37.060000	-1.227849
	37.065000	-1.237519
	37.070000	-1.327773
	37.075000	-1.327773
	37.080000	-1.227849
	37.085000	-1.237519
	37.090000	-1.337443
	37.095000	-1.324550
	37.100000	-1.231072
	37.105000	-1.243966
	37.110000	-1.334220
	37.115000	-1.321326
	37.120000	-1.231072
	37.125000	-1.237519
	37.130000	-1.340667
	37.135000	-1.324550
	37.140000	-1.227849
	37.145000	-1.234296
	37.150000	-1.327773
	37.155000	-1.327773
	37.160000	-1.234296
	37.165000	-1.240742
	37.170000	-1.340667
	37.175000	-1.330996
	37.180000	-1.240742
	37.185000	-1.237519
	37.190000	-1.337443
	37.195000	-1.330996
	37.200000	-1.234296
	37.205000	-1.237519
	37.210000	-1.340667
	37.215000	-1.330996
	37.220000	-1.240742
	37.225000	-1.240742
	37.230000	-1.343890
	37.235000	-1.334220
	37.240000	-1.237519
	37.245000	-1.243966
	37.250000	-1.337443
	37.255000	-1.327773
	37.260000	-1.234296
	37.265000	-1.243966
	37.270000	-1.337443
	37.275000	-1.327773
	37.280000	-1.234296
	37.285000	-1.240742
	37.290000	-1.340667
	37.295000	-1.321326
	37.300000	-1.237519
	37.305000	-1.247189
	37.310000	-1.340667
	37.315000	-1.334220
	37.320000	-1.234296
	37.325000	-1.243966
	37.330000	-1.337443
	37.335000	-1.334220
	37.340000	-1.237519
	37.345000	-1.247189
	37.350000	-1.334220
	37.355000	-1.337443
	37.360000	-1.234296
	37.365000	-1.240742
	37.370000	-1.340667
	37.375000	-1.330996
	37.380000	-1.240742
	37.385000	-1.240742
	37.390000	-1.340667
	37.395000	-1.334220
	37.400000	-1.240742
	37.405000	-1.234296
	37.410000	-1.337443
	37.415000	-1.334220
	37.420000	-1.240742
	37.425000	-1.247189
	37.430000	-1.334220
	37.435000	-1.340667
	37.440000	-1.243966
	37.445000	-1.250413
	37.450000	-1.340667
	37.455000	-1.343890
	37.460000	-1.237519
	37.465000	-1.250413
	37.470000	-1.343890
	37.475000	-1.337443
	37.480000	-1.237519
	37.485000	-1.247189
	37.490000	-1.337443
	37.495000	-1.337443
	37.500000	-1.240742
	37.505000	-1.250413
	37.510000	-1.340667
	37.515000	-1.340667
	37.520000	-1.243966
	37.525000	-1.237519
	37.530000	-1.340667
	37.535000	-1.337443
	37.540000	-1.247189
	37.545000	-1.243966
	37.550000	-1.343890
	37.555000	-1.337443
	37.560000	-1.240742
	37.565000	-1.243966
	37.570000	-1.337443
	37.575000	-1.337443
	37.580000	-1.243966
	37.585000	-1.247189
	37.590000	-1.340667
	37.595000	-1.343890
	37.600000	-1.247189
	37.605000	-1.247189
	37.610000	-1.340667
	37.615000	-1.347113
	37.620000	-1.247189
	37.625000	-1.250413
	37.630000	-1.347113
	37.635000	-1.337443
	37.640000	-1.247189
	37.645000	-1.243966
	37.650000	-1.340667
	37.655000	-1.347113
	37.660000	-1.253636
	37.665000	-1.247189
	37.670000	-1.343890
	37.675000	-1.340667
	37.680000	-1.250413
	37.685000	-1.247189
	37.690000	-1.343890
	37.695000	-1.340667
	37.700000	-1.250413
	37.705000	-1.247189
	37.710000	-1.343890
	37.715000	-1.340667
	37.720000	-1.250413
	37.725000	-1.243966
	37.730000	-1.340667
	37.735000	-1.347113
	37.740000	-1.253636
	37.745000	-1.247189
	37.750000	-1.347113
	37.755000	-1.343890
	37.760000	-1.256859
	37.765000	-1.247189
	37.770000	-1.347113
	37.775000	-1.350337
	37.780000	-1.250413
	37.785000	-1.253636
	37.790000	-1.347113
	37.795000	-1.350337
	37.800000	-1.253636
	37.805000	-1.250413
	37.810000	-1.347113
	37.815000	-1.353560
	37.820000	-1.253636
	37.825000	-1.253636
	37.830000	-1.347113
	37.835000	-1.350337
	37.840000	-1.256859
	37.845000	-1.253636
	37.850000	-1.353560
	37.855000	-1.353560
	37.860000	-1.256859
	37.865000	-1.256859
	37.870000	-1.343890
	37.875000	-1.353560
	37.880000	-1.256859
	37.885000	-1.256859
	37.890000	-1.353560
	37.895000	-1.353560
	37.900000	-1.260083
	37.905000	-1.250413
	37.910000	-1.347113
	37.915000	-1.360007
	37.920000	-1.260083
	37.925000	-1.253636
	37.930000	-1.347113
	37.935000	-1.356783
	37.940000	-1.256859
	37.945000	-1.253636
	37.950000	-1.353560
	37.955000	-1.356783
	37.960000	-1.263306
	37.965000	-1.256859
	37.970000	-1.353560
	37.975000	-1.356783
	37.980000	-1.260083
	37.985000	-1.253636
	37.990000	-1.347113
	37.995000	-1.356783
	38.000000	-1.260083
	38.005000	-1.253636
	38.010000	-1.347113
	38.015000	-1.353560
	38.020000	-1.260083
	38.025000	-1.253636
	38.030000	-1.363230
	38.035000	-1.360007
	38.040000	-1.256859
	38.045000	-1.247189
	38.050000	-1.353560
	38.055000	-1.356783
	38.060000	-1.256859
	38.065000	-1.253636
	38.070000	-1.356783
	38.075000	-1.356783
	38.080000	-1.260083
	38.085000	-1.250413
	38.090000	-1.347113
	38.095000	-1.347113
	38.100000	-1.256859
	38.105000	-1.256859
	38.110000	-1.347113
	38.115000	-1.353560
	38.120000	-1.260083
	38.125000	-1.253636
	38.130000	-1.353560
	38.135000	-1.353560
	38.140000	-1.263306
	38.145000	-1.250413
	38.150000	-1.343890
	38.155000	-1.356783
	38.160000	-1.266529
	38.165000	-1.247189
	38.170000	-1.350337
	38.175000	-1.363230
	38.180000	-1.263306
	38.185000	-1.250413
	38.190000	-1.343890
	38.195000	-1.356783
	38.200000	-1.263306
	38.205000	-1.260083
	38.210000	-1.356783
	38.215000	-1.356783
	38.220000	-1.263306
	38.225000	-1.253636
	38.230000	-1.350337
	38.235000	-1.356783
	38.240000	-1.263306
	38.245000	-1.250413
	38.250000	-1.353560
	38.255000	-1.360007
	38.260000	-1.269753
	38.265000	-1.256859
	38.270000	-1.347113
	38.275000	-1.360007
	38.280000	-1.263306
	38.285000	-1.256859
	38.290000	-1.353560
	38.295000	-1.360007
	38.300000	-1.266529
	38.305000	-1.256859
	38.310000	-1.347113
	38.315000	-1.363230
	38.320000	-1.263306
	38.325000	-1.256859
	38.330000	-1.347113
	38.335000	-1.360007
	38.340000	-1.269753
	38.345000	-1.250413
	38.350000	-1.343890
	38.355000	-1.366453
	38.360000	-1.266529
	38.365000	-1.253636
	38.370000	-1.347113
	38.375000	-1.363230
	38.380000	-1.269753
	38.385000	-1.253636
	38.390000	-1.347113
	38.395000	-1.363230
	38.400000	-1.266529
	38.405000	-1.253636
	38.410000	-1.350337
	38.415000	-1.356783
	38.420000	-1.272976
	38.425000	-1.253636
	38.430000	-1.343890
	38.435000	-1.356783
	38.440000	-1.263306
	38.445000	-1.253636
	38.450000	-1.347113
	38.455000	-1.356783
	38.460000	-1.269753
	38.465000	-1.253636
	38.470000	-1.347113
	38.475000	-1.360007
	38.480000	-1.269753
	38.485000	-1.250413
	38.490000	-1.347113
	38.495000	-1.360007
	38.500000	-1.266529
	38.505000	-1.247189
	38.510000	-1.347113
	38.515000	-1.360007
	38.520000	-1.263306
	38.525000	-1.250413
	38.530000	-1.343890
	38.535000	-1.360007
	38.540000	-1.266529
	38.545000	-1.250413
	38.550000	-1.350337
	38.555000	-1.363230
	38.560000	-1.266529
	38.565000	-1.247189
	38.570000	-1.347113
	38.575000	-1.366453
	38.580000	-1.272976
	38.585000	-1.256859
	38.590000	-1.347113
	38.595000	-1.360007
	38.600000	-1.263306
	38.605000	-1.253636
	38.610000	-1.343890
	38.615000	-1.363230
	38.620000	-1.272976
	38.625000	-1.253636
	38.630000	-1.353560
	38.635000	-1.363230
	38.640000	-1.272976
	38.645000	-1.253636
	38.650000	-1.350337
	38.655000	-1.363230
	38.660000	-1.276199
	38.665000	-1.256859
	38.670000	-1.343890
	38.675000	-1.369677
	38.680000	-1.269753
	38.685000	-1.250413
	38.690000	-1.340667
	38.695000	-1.363230
	38.700000	-1.266529
	38.705000	-1.256859
	38.710000	-1.350337
	38.715000	-1.360007
	38.720000	-1.276199
	38.725000	-1.260083
	38.730000	-1.350337
	38.735000	-1.366453
	38.740000	-1.276199
	38.745000	-1.253636
	38.750000	-1.350337
	38.755000	-1.366453
	38.760000	-1.269753
	38.765000	-1.256859
	38.770000	-1.350337
	38.775000	-1.366453
	38.780000	-1.279423
	38.785000	-1.256859
	38.790000	-1.350337
	38.795000	-1.369677
	38.800000	-1.276199
	38.805000	-1.256859
	38.810000	-1.350337
	38.815000	-1.366453
	38.820000	-1.276199
	38.825000	-1.256859
	38.830000	-1.347113
	38.835000	-1.369677
	38.840000	-1.272976
	38.845000	-1.250413
	38.850000	-1.347113
	38.855000	-1.369677
	38.860000	-1.272976
	38.865000	-1.250413
	38.870000	-1.340667
	38.875000	-1.369677
	38.880000	-1.279423
	38.885000	-1.247189
	38.890000	-1.347113
	38.895000	-1.366453
	38.900000	-1.276199
	38.905000	-1.250413
	38.910000	-1.340667
	38.915000	-1.376124
	38.920000	-1.279423
	38.925000	-1.253636
	38.930000	-1.347113
	38.935000	-1.369677
	38.940000	-1.279423
	38.945000	-1.250413
	38.950000	-1.347113
	38.955000	-1.369677
	38.960000	-1.276199
	38.965000	-1.256859
	38.970000	-1.347113
	38.975000	-1.372900
	38.980000	-1.276199
	38.985000	-1.256859
	38.990000	-1.350337
	38.995000	-1.372900
	39.000000	-1.279423
	39.005000	-1.260083
	39.010000	-1.350337
	39.015000	-1.376124
	39.020000	-1.285869
	39.025000	-1.266529
	39.030000	-1.353560
	39.035000	-1.366453
	39.040000	-1.285869
	39.045000	-1.256859
	39.050000	-1.343890
	39.055000	-1.376124
	39.060000	-1.285869
	39.065000	-1.256859
	39.070000	-1.347113
	39.075000	-1.379347
	39.080000	-1.282646
	39.085000	-1.256859
	39.090000	-1.343890
	39.095000	-1.379347
	39.100000	-1.282646
	39.105000	-1.260083
	39.110000	-1.353560
	39.115000	-1.372900
	39.120000	-1.282646
	39.125000	-1.256859
	39.130000	-1.347113
	39.135000	-1.376124
	39.140000	-1.285869
	39.145000	-1.256859
	39.150000	-1.347113
	39.155000	-1.369677
	39.160000	-1.279423
	39.165000	-1.250413
	39.170000	-1.343890
	39.175000	-1.376124
	39.180000	-1.282646
	39.185000	-1.253636
	39.190000	-1.347113
	39.195000	-1.369677
	39.200000	-1.279423
	39.205000	-1.260083
	39.210000	-1.343890
	39.215000	-1.372900
	39.220000	-1.279423
	39.225000	-1.253636
	39.230000	-1.340667
	39.235000	-1.369677
	39.240000	-1.282646
	39.245000	-1.247189
	39.250000	-1.347113
	39.255000	-1.366453
	39.260000	-1.279423
	39.265000	-1.250413
	39.270000	-1.340667
	39.275000	-1.369677
	39.280000	-1.276199
	39.285000	-1.240742
	39.290000	-1.327773
	39.295000	-1.360007
	39.300000	-1.263306
	39.305000	-1.231072
	39.310000	-1.314880
	39.315000	-1.334220
	39.320000	-1.237519
	39.325000	-1.205285
	39.330000	-1.292316
	39.335000	-1.318103
	39.340000	-1.218179
	39.345000	-1.192392
	39.350000	-1.282646
	39.355000	-1.298763
	39.360000	-1.211732
	39.365000	-1.179499
	39.370000	-1.260083
	39.375000	-1.279423
	39.380000	-1.198839
	39.385000	-1.163382
	39.390000	-1.250413
	39.395000	-1.276199
	39.400000	-1.185945
	39.405000	-1.153712
	39.410000	-1.243966
	39.415000	-1.263306
	39.420000	-1.185945
	39.425000	-1.147265
	39.430000	-1.231072
	39.435000	-1.256859
	39.440000	-1.176275
	39.445000	-1.144042
	39.450000	-1.231072
	39.455000	-1.266529
	39.460000	-1.173052
	39.465000	-1.140818
	39.470000	-1.227849
	39.475000	-1.263306
	39.480000	-1.173052
	39.485000	-1.144042
	39.490000	-1.227849
	39.495000	-1.263306
	39.500000	-1.173052
	39.505000	-1.144042
	39.510000	-1.227849
	39.515000	-1.263306
	39.520000	-1.182722
	39.525000	-1.150488
	39.530000	-1.234296
	39.535000	-1.269753
	39.540000	-1.182722
	39.545000	-1.156935
	39.550000	-1.240742
	39.555000	-1.276199
	39.560000	-1.189169
	39.565000	-1.169829
	39.570000	-1.253636
	39.575000	-1.285869
	39.580000	-1.205285
	39.585000	-1.179499
	39.590000	-1.266529
	39.595000	-1.305210
	39.600000	-1.224626
	39.605000	-1.192392
	39.610000	-1.289093
	39.615000	-1.330996
	39.620000	-1.253636
	39.625000	-1.227849
	39.630000	-1.318103
	39.635000	-1.356783
	39.640000	-1.289093
	39.645000	-1.256859
	39.650000	-1.347113
	39.655000	-1.389017
	39.660000	-1.314880
	39.665000	-1.282646
	39.670000	-1.372900
	39.675000	-1.411580
	39.680000	-1.321326
	39.685000	-1.282646
	39.690000	-1.372900
	39.695000	-1.405134
	39.700000	-1.324550
	39.705000	-1.285869
	39.710000	-1.379347
	39.715000	-1.405134
	39.720000	-1.321326
	39.725000	-1.282646
	39.730000	-1.363230
	39.735000	-1.398687
	39.740000	-1.314880
	39.745000	-1.272976
	39.750000	-1.353560
	39.755000	-1.389017
	39.760000	-1.305210
	39.765000	-1.256859
	39.770000	-1.340667
	39.775000	-1.379347
	39.780000	-1.289093
	39.785000	-1.250413
	39.790000	-1.343890
	39.795000	-1.369677
	39.800000	-1.272976
	39.805000	-1.243966
	39.810000	-1.327773
	39.815000	-1.356783
	39.820000	-1.272976
	39.825000	-1.234296
	39.830000	-1.318103
	39.835000	-1.350337
	39.840000	-1.269753
	39.845000	-1.234296
	39.850000	-1.308433
	39.855000	-1.347113
	39.860000	-1.263306
	39.865000	-1.221402
	39.870000	-1.311656
	39.875000	-1.347113
	39.880000	-1.260083
	39.885000	-1.221402
	39.890000	-1.308433
	39.895000	-1.347113
	39.900000	-1.260083
	39.905000	-1.218179
	39.910000	-1.305210
	39.915000	-1.340667
	39.920000	-1.260083
	39.925000	-1.218179
	39.930000	-1.311656
	39.935000	-1.347113
	39.940000	-1.260083
	39.945000	-1.224626
	39.950000	-1.308433
	39.955000	-1.347113
	39.960000	-1.263306
	39.965000	-1.224626
	39.970000	-1.305210
	39.975000	-1.340667
	39.980000	-1.263306
	39.985000	-1.231072
	39.990000	-1.311656
	39.995000	-1.360007
	40.000000	-1.269753
	40.005000	-1.231072
	40.010000	-1.321326
	40.015000	-1.353560
	40.020000	-1.279423
	40.025000	-1.237519
	40.030000	-1.318103
	40.035000	-1.360007
	40.040000	-1.282646
	40.045000	-1.240742
	40.050000	-1.321326
	40.055000	-1.372900
	40.060000	-1.282646
	40.065000	-1.247189
	40.070000	-1.334220
	40.075000	-1.369677
	40.080000	-1.292316
	40.085000	-1.247189
	40.090000	-1.334220
	40.095000	-1.376124
	40.100000	-1.295540
	40.105000	-1.256859
	40.110000	-1.343890
	40.115000	-1.379347
	40.120000	-1.298763
	40.125000	-1.256859
	40.130000	-1.337443
	40.135000	-1.385794
	40.140000	-1.298763
	40.145000	-1.260083
	40.150000	-1.343890
	40.155000	-1.392240
	40.160000	-1.305210
	40.165000	-1.260083
	40.170000	-1.343890
	40.175000	-1.392240
	40.180000	-1.301986
	40.185000	-1.263306
	40.190000	-1.350337
	40.195000	-1.395464
	40.200000	-1.305210
	40.205000	-1.260083
	40.210000	-1.350337
	40.215000	-1.392240
	40.220000	-1.308433
	40.225000	-1.269753
	40.230000	-1.353560
	40.235000	-1.392240
	40.240000	-1.311656
	40.245000	-1.272976
	40.250000	-1.356783
	40.255000	-1.392240
	40.260000	-1.308433
	40.265000	-1.269753
	40.270000	-1.353560
	40.275000	-1.401910
	40.280000	-1.311656
	40.285000	-1.269753
	40.290000	-1.347113
	40.295000	-1.392240
	40.300000	-1.308433
	40.305000	-1.266529
	40.310000	-1.353560
	40.315000	-1.395464
	40.320000	-1.311656
	40.325000	-1.276199
	40.330000	-1.353560
	40.335000	-1.398687
	40.340000	-1.318103
	40.345000	-1.269753
	40.350000	-1.356783
	40.355000	-1.395464
	40.360000	-1.305210
	40.365000	-1.269753
	40.370000	-1.347113
	40.375000	-1.398687
	40.380000	-1.314880
	40.385000	-1.276199
	40.390000	-1.353560
	40.395000	-1.398687
	40.400000	-1.314880
	40.405000	-1.272976
	40.410000	-1.350337
	40.415000	-1.395464
	40.420000	-1.314880
	40.425000	-1.269753
	40.430000	-1.350337
	40.435000	-1.395464
	40.440000	-1.314880
	40.445000	-1.269753
	40.450000	-1.347113
	40.455000	-1.398687
	40.460000	-1.311656
	40.465000	-1.272976
	40.470000	-1.350337
	40.475000	-1.392240
	40.480000	-1.318103
	40.485000	-1.266529
	40.490000	-1.350337
	40.495000	-1.395464
	40.500000	-1.318103
	40.505000	-1.263306
	40.510000	-1.350337
	40.515000	-1.395464
	40.520000	-1.318103
	40.525000	-1.269753
	40.530000	-1.350337
	40.535000	-1.398687
	40.540000	-1.318103
	40.545000	-1.269753
	40.550000	-1.350337
	40.555000	-1.401910
	40.560000	-1.318103
	40.565000	-1.266529
	40.570000	-1.350337
	40.575000	-1.395464
	40.580000	-1.314880
	40.585000	-1.266529
	40.590000	-1.350337
	40.595000	-1.398687
	40.600000	-1.314880
	40.605000	-1.269753
	40.610000	-1.347113
	40.615000	-1.395464
	40.620000	-1.318103
	40.625000	-1.276199
	40.630000	-1.350337
	40.635000	-1.401910
	40.640000	-1.324550
	40.645000	-1.272976
	40.650000	-1.347113
	40.655000	-1.405134
	40.660000	-1.318103
	40.665000	-1.269753
	40.670000	-1.350337
	40.675000	-1.405134
	40.680000	-1.321326
	40.685000	-1.276199
	40.690000	-1.350337
	40.695000	-1.398687
	40.700000	-1.321326
	40.705000	-1.266529
	40.710000	-1.350337
	40.715000	-1.395464
	40.720000	-1.324550
	40.725000	-1.272976
	40.730000	-1.350337
	40.735000	-1.398687
	40.740000	-1.318103
	40.745000	-1.269753
	40.750000	-1.350337
	40.755000	-1.401910
	40.760000	-1.321326
	40.765000	-1.266529
	40.770000	-1.350337
	40.775000	-1.398687
	40.780000	-1.318103
	40.785000	-1.269753
	40.790000	-1.350337
	40.795000	-1.401910
	40.800000	-1.321326
	40.805000	-1.272976
	40.810000	-1.350337
	40.815000	-1.398687
	40.820000	-1.321326
	40.825000	-1.272976
	40.830000	-1.350337
	40.835000	-1.401910
	40.840000	-1.324550
	40.845000	-1.276199
	40.850000	-1.347113
	40.855000	-1.405134
	40.860000	-1.321326
	40.865000	-1.276199
	40.870000	-1.347113
	40.875000	-1.401910
	40.880000	-1.324550
	40.885000	-1.269753
	40.890000	-1.353560
	40.895000	-1.408357
	40.900000	-1.327773
	40.905000	-1.276199
	40.910000	-1.356783
	40.915000	-1.401910
	40.920000	-1.330996
	40.925000	-1.276199
	40.930000	-1.350337
	40.935000	-1.405134
	40.940000	-1.327773
	40.945000	-1.272976
	40.950000	-1.350337
	40.955000	-1.405134
	40.960000	-1.327773
	40.965000	-1.272976
	40.970000	-1.356783
	40.975000	-1.414804
	40.980000	-1.330996
	40.985000	-1.272976
	40.990000	-1.347113
	40.995000	-1.408357
	41.000000	-1.327773
	41.005000	-1.272976
	41.010000	-1.353560
	41.015000	-1.418027
	41.020000	-1.327773
	41.025000	-1.276199
	41.030000	-1.353560
	41.035000	-1.401910
	41.040000	-1.334220
	41.045000	-1.272976
	41.050000	-1.347113
	41.055000	-1.408357
	41.060000	-1.327773
	41.065000	-1.279423
	41.070000	-1.353560
	41.075000	-1.414804
	41.080000	-1.334220
	41.085000	-1.272976
	41.090000	-1.350337
	41.095000	-1.408357
	41.100000	-1.337443
	41.105000	-1.272976
	41.110000	-1.347113
	41.115000	-1.405134
	41.120000	-1.334220
	41.125000	-1.279423
	41.130000	-1.353560
	41.135000	-1.405134
	41.140000	-1.327773
	41.145000	-1.272976
	41.150000	-1.356783
	41.155000	-1.408357
	41.160000	-1.330996
	41.165000	-1.276199
	41.170000	-1.350337
	41.175000	-1.408357
	41.180000	-1.340667
	41.185000	-1.276199
	41.190000	-1.353560
	41.195000	-1.408357
	41.200000	-1.334220
	41.205000	-1.279423
	41.210000	-1.353560
	41.215000	-1.408357
	41.220000	-1.334220
	41.225000	-1.269753
	41.230000	-1.353560
	41.235000	-1.411580
	41.240000	-1.337443
	41.245000	-1.272976
	41.250000	-1.353560
	41.255000	-1.408357
	41.260000	-1.330996
	41.265000	-1.272976
	41.270000	-1.350337
	41.275000	-1.408357
	41.280000	-1.337443
	41.285000	-1.276199
	41.290000	-1.350337
	41.295000	-1.411580
	41.300000	-1.330996
	41.305000	-1.285869
	41.310000	-1.353560
	41.315000	-1.411580
	41.320000	-1.340667
	41.325000	-1.276199
	41.330000	-1.353560
	41.335000	-1.408357
	41.340000	-1.324550
	41.345000	-1.279423
	41.350000	-1.353560
	41.355000	-1.411580
	41.360000	-1.330996
	41.365000	-1.279423
	41.370000	-1.347113
	41.375000	-1.411580
	41.380000	-1.340667
	41.385000	-1.279423
	41.390000	-1.350337
	41.395000	-1.418027
	41.400000	-1.337443
	41.405000	-1.279423
	41.410000	-1.353560
	41.415000	-1.408357
	41.420000	-1.337443
	41.425000	-1.276199
	41.430000	-1.353560
	41.435000	-1.414804
	41.440000	-1.337443
	41.445000	-1.279423
	41.450000	-1.353560
	41.455000	-1.411580
	41.460000	-1.340667
	41.465000	-1.285869
	41.470000	-1.350337
	41.475000	-1.418027
	41.480000	-1.340667
	41.485000	-1.279423
	41.490000	-1.350337
	41.495000	-1.411580
	41.500000	-1.347113
	41.505000	-1.282646
	41.510000	-1.353560
	41.515000	-1.414804
	41.520000	-1.340667
	41.525000	-1.279423
	41.530000	-1.353560
	41.535000	-1.414804
	41.540000	-1.337443
	41.545000	-1.276199
	41.550000	-1.356783
	41.555000	-1.411580
	41.560000	-1.340667
	41.565000	-1.279423
	41.570000	-1.356783
	41.575000	-1.411580
	41.580000	-1.343890
	41.585000	-1.282646
	41.590000	-1.343890
	41.595000	-1.411580
	41.600000	-1.343890
	41.605000	-1.279423
	41.610000	-1.353560
	41.615000	-1.408357
	41.620000	-1.337443
	41.625000	-1.276199
	41.630000	-1.353560
	41.635000	-1.411580
	41.640000	-1.343890
	41.645000	-1.276199
	41.650000	-1.353560
	41.655000	-1.411580
	41.660000	-1.340667
	41.665000	-1.276199
	41.670000	-1.353560
	41.675000	-1.411580
	41.680000	-1.340667
	41.685000	-1.279423
	41.690000	-1.347113
	41.695000	-1.418027
	41.700000	-1.340667
	41.705000	-1.282646
	41.710000	-1.356783
	41.715000	-1.414804
	41.720000	-1.343890
	41.725000	-1.282646
	41.730000	-1.356783
	41.735000	-1.414804
	41.740000	-1.337443
	41.745000	-1.285869
	41.750000	-1.347113
	41.755000	-1.411580
	41.760000	-1.347113
	41.765000	-1.279423
	41.770000	-1.347113
	41.775000	-1.414804
	41.780000	-1.350337
	41.785000	-1.282646
	41.790000	-1.353560
	41.795000	-1.414804
	41.800000	-1.347113
	41.805000	-1.282646
	41.810000	-1.353560
	41.815000	-1.418027
	41.820000	-1.350337
	41.825000	-1.282646
	41.830000	-1.350337
	41.835000	-1.418027
	41.840000	-1.350337
	41.845000	-1.282646
	41.850000	-1.347113
	41.855000	-1.411580
	41.860000	-1.347113
	41.865000	-1.282646
	41.870000	-1.353560
	41.875000	-1.414804
	41.880000	-1.347113
	41.885000	-1.279423
	41.890000	-1.347113
	41.895000	-1.418027
	41.900000	-1.347113
	41.905000	-1.279423
	41.910000	-1.347113
	41.915000	-1.414804
	41.920000	-1.343890
	41.925000	-1.279423
	41.930000	-1.350337
	41.935000	-1.418027
	41.940000	-1.347113
	41.945000	-1.279423
	41.950000	-1.350337
	41.955000	-1.414804
	41.960000	-1.347113
	41.965000	-1.282646
	41.970000	-1.343890
	41.975000	-1.414804
	41.980000	-1.343890
	41.985000	-1.279423
	41.990000	-1.340667
	41.995000	-1.411580
	42.000000	-1.347113
	42.005000	-1.282646
	42.010000	-1.350337
	42.015000	-1.411580
	42.020000	-1.347113
	42.025000	-1.279423
	42.030000	-1.340667
	42.035000	-1.411580
	42.040000	-1.347113
	42.045000	-1.276199
	42.050000	-1.347113
	42.055000	-1.414804
	42.060000	-1.347113
	42.065000	-1.282646
	42.070000	-1.347113
	42.075000	-1.408357
	42.080000	-1.343890
	42.085000	-1.282646
	42.090000	-1.350337
	42.095000	-1.414804
	42.100000	-1.343890
	42.105000	-1.279423
	42.110000	-1.334220
	42.115000	-1.405134
	42.120000	-1.340667
	42.125000	-1.279423
	42.130000	-1.340667
	42.135000	-1.405134
	42.140000	-1.347113
	42.145000	-1.272976
	42.150000	-1.334220
	42.155000	-1.395464
	42.160000	-1.327773
	42.165000	-1.266529
	42.170000	-1.330996
	42.175000	-1.392240
	42.180000	-1.321326
	42.185000	-1.256859
	42.190000	-1.311656
	42.195000	-1.385794
	42.200000	-1.314880
	42.205000	-1.247189
	42.210000	-1.298763
	42.215000	-1.369677
	42.220000	-1.298763
	42.225000	-1.234296
	42.230000	-1.292316
	42.235000	-1.356783
	42.240000	-1.289093
	42.245000	-1.218179
	42.250000	-1.279423
	42.255000	-1.350337
	42.260000	-1.272976
	42.265000	-1.205285
	42.270000	-1.263306
	42.275000	-1.334220
	42.280000	-1.266529
	42.285000	-1.195615
	42.290000	-1.250413
	42.295000	-1.318103
	42.300000	-1.250413
	42.305000	-1.176275
	42.310000	-1.237519
	42.315000	-1.305210
	42.320000	-1.240742
	42.325000	-1.176275
	42.330000	-1.227849
	42.335000	-1.298763
	42.340000	-1.234296
	42.345000	-1.166605
	42.350000	-1.224626
	42.355000	-1.292316
	42.360000	-1.231072
	42.365000	-1.160158
	42.370000	-1.218179
	42.375000	-1.289093
	42.380000	-1.227849
	42.385000	-1.156935
	42.390000	-1.218179
	42.395000	-1.289093
	42.400000	-1.231072
	42.405000	-1.166605
	42.410000	-1.224626
	42.415000	-1.295540
	42.420000	-1.237519
	42.425000	-1.169829
	42.430000	-1.231072
	42.435000	-1.295540
	42.440000	-1.237519
	42.445000	-1.176275
	42.450000	-1.237519
	42.455000	-1.305210
	42.460000	-1.250413
	42.465000	-1.185945
	42.470000	-1.240742
	42.475000	-1.311656
	42.480000	-1.260083
	42.485000	-1.192392
	42.490000	-1.256859
	42.495000	-1.330996
	42.500000	-1.282646
	42.505000	-1.208509
	42.510000	-1.276199
	42.515000	-1.353560
	42.520000	-1.301986
	42.525000	-1.234296
	42.530000	-1.298763
	42.535000	-1.382570
	42.540000	-1.324550
	42.545000	-1.263306
	42.550000	-1.324550
	42.555000	-1.398687
	42.560000	-1.353560
	42.565000	-1.282646
	42.570000	-1.337443
	42.575000	-1.414804
	42.580000	-1.360007
	42.585000	-1.289093
	42.590000	-1.350337
	42.595000	-1.424474
	42.600000	-1.366453
	42.605000	-1.292316
	42.610000	-1.356783
	42.615000	-1.418027
	42.620000	-1.363230
	42.625000	-1.295540
	42.630000	-1.353560
	42.635000	-1.421251
	42.640000	-1.360007
	42.645000	-1.289093
	42.650000	-1.353560
	42.655000	-1.418027
	42.660000	-1.366453
	42.665000	-1.289093
	42.670000	-1.343890
	42.675000	-1.424474
	42.680000	-1.360007
	42.685000	-1.292316
	42.690000	-1.343890
	42.695000	-1.414804
	42.700000	-1.353560
	42.705000	-1.285869
	42.710000	-1.340667
	42.715000	-1.411580
	42.720000	-1.350337
	42.725000	-1.276199
	42.730000	-1.340667
	42.735000	-1.414804
	42.740000	-1.350337
	42.745000	-1.276199
	42.750000	-1.334220
	42.755000	-1.401910
	42.760000	-1.343890
	42.765000	-1.269753
	42.770000	-1.321326
	42.775000	-1.401910
	42.780000	-1.347113
	42.785000	-1.266529
	42.790000	-1.321326
	42.795000	-1.398687
	42.800000	-1.347113
	42.805000	-1.269753
	42.810000	-1.318103
	42.815000	-1.395464
	42.820000	-1.334220
	42.825000	-1.263306
	42.830000	-1.321326
	42.835000	-1.398687
	42.840000	-1.340667
	42.845000	-1.269753
	42.850000	-1.324550
	42.855000	-1.398687
	42.860000	-1.350337
	42.865000	-1.272976
	42.870000	-1.321326
	42.875000	-1.401910
	42.880000	-1.353560
	42.885000	-1.263306
	42.890000	-1.330996
	42.895000	-1.398687
	42.900000	-1.347113
	42.905000	-1.279423
	42.910000	-1.327773
	42.915000	-1.408357
	42.920000	-1.356783
	42.925000	-1.282646
	42.930000	-1.327773
	42.935000	-1.405134
	42.940000	-1.350337
	42.945000	-1.282646
	42.950000	-1.334220
	42.955000	-1.418027
	42.960000	-1.353560
	42.965000	-1.279423
	42.970000	-1.340667
	42.975000	-1.408357
	42.980000	-1.360007
	42.985000	-1.279423
	42.990000	-1.330996
	42.995000	-1.414804
	43.000000	-1.353560
	43.005000	-1.282646
	43.010000	-1.340667
	43.015000	-1.414804
	43.020000	-1.366453
	43.025000	-1.289093
	43.030000	-1.343890
	43.035000	-1.414804
	43.040000	-1.363230
	43.045000	-1.289093
	43.050000	-1.340667
	43.055000	-1.427697
	43.060000	-1.369677
	43.065000	-1.292316
	43.070000	-1.343890
	43.075000	-1.424474
	43.080000	-1.379347
	43.085000	-1.292316
	43.090000	-1.347113
	43.095000	-1.434144
	43.100000	-1.379347
	43.105000	-1.298763
	43.110000	-1.350337
	43.115000	-1.427697
	43.120000	-1.372900
	43.125000	-1.298763
	43.130000	-1.350337
	43.135000	-1.434144
	43.140000	-1.382570
	43.145000	-1.301986
	43.150000	-1.353560
	43.155000	-1.430921
	43.160000	-1.379347
	43.165000	-1.305210
	43.170000	-1.353560
	43.175000	-1.430921
	43.180000	-1.379347
	43.185000	-1.298763
	43.190000	-1.350337
	43.195000	-1.434144
	43.200000	-1.382570
	43.205000	-1.308433
	43.210000	-1.360007
	43.215000	-1.437367
	43.220000	-1.382570
	43.225000	-1.308433
	43.230000	-1.353560
	43.235000	-1.434144
	43.240000	-1.385794
	43.245000	-1.298763
	43.250000	-1.360007
	43.255000	-1.434144
	43.260000	-1.382570
	43.265000	-1.298763
	43.270000	-1.353560
	43.275000	-1.430921
	43.280000	-1.372900
	43.285000	-1.305210
	43.290000	-1.350337
	43.295000	-1.430921
	43.300000	-1.382570
	43.305000	-1.298763
	43.310000	-1.350337
	43.315000	-1.427697
	43.320000	-1.382570
	43.325000	-1.298763
	43.330000	-1.350337
	43.335000	-1.427697
	43.340000	-1.382570
	43.345000	-1.305210
	43.350000	-1.347113
	43.355000	-1.430921
	43.360000	-1.382570
	43.365000	-1.298763
	43.370000	-1.350337
	43.375000	-1.430921
	43.380000	-1.379347
	43.385000	-1.295540
	43.390000	-1.347113
	43.395000	-1.427697
	43.400000	-1.379347
	43.405000	-1.305210
	43.410000	-1.350337
	43.415000	-1.427697
	43.420000	-1.382570
	43.425000	-1.305210
	43.430000	-1.343890
	43.435000	-1.427697
	43.440000	-1.382570
	43.445000	-1.301986
	43.450000	-1.347113
	43.455000	-1.434144
	43.460000	-1.379347
	43.465000	-1.298763
	43.470000	-1.347113
	43.475000	-1.424474
	43.480000	-1.376124
	43.485000	-1.295540
	43.490000	-1.340667
	43.495000	-1.424474
	43.500000	-1.382570
	43.505000	-1.298763
	43.510000	-1.343890
	43.515000	-1.424474
	43.520000	-1.376124
	43.525000	-1.295540
	43.530000	-1.337443
	43.535000	-1.424474
	43.540000	-1.369677
	43.545000	-1.295540
	43.550000	-1.340667
	43.555000	-1.424474
	43.560000	-1.376124
	43.565000	-1.292316
	43.570000	-1.337443
	43.575000	-1.418027
	43.580000	-1.369677
	43.585000	-1.289093
	43.590000	-1.337443
	43.595000	-1.421251
	43.600000	-1.376124
	43.605000	-1.289093
	43.610000	-1.337443
	43.615000	-1.418027
	43.620000	-1.376124
	43.625000	-1.285869
	43.630000	-1.340667
	43.635000	-1.418027
	43.640000	-1.379347
	43.645000	-1.295540
	43.650000	-1.347113
	43.655000	-1.427697
	43.660000	-1.379347
	43.665000	-1.295540
	43.670000	-1.343890
	43.675000	-1.427697
	43.680000	-1.382570
	43.685000	-1.305210
	43.690000	-1.353560
	43.695000	-1.430921
	43.700000	-1.392240
	43.705000	-1.308433
	43.710000	-1.353560
	43.715000	-1.434144
	43.720000	-1.385794
	43.725000	-1.308433
	43.730000	-1.347113
	43.735000	-1.434144
	43.740000	-1.389017
	43.745000	-1.308433
	43.750000	-1.347113
	43.755000	-1.427697
	43.760000	-1.395464
	43.765000	-1.311656
	43.770000	-1.350337
	43.775000	-1.437367
	43.780000	-1.392240
	43.785000	-1.305210
	43.790000	-1.353560
	43.795000	-1.427697
	43.800000	-1.389017
	43.805000	-1.308433
	43.810000	-1.350337
	43.815000	-1.430921
	43.820000	-1.389017
	43.825000	-1.311656
	43.830000	-1.350337
	43.835000	-1.440591
	43.840000	-1.389017
	43.845000	-1.311656
	43.850000	-1.347113
	43.855000	-1.434144
	43.860000	-1.392240
	43.865000	-1.305210
	43.870000	-1.347113
	43.875000	-1.427697
	43.880000	-1.392240
	43.885000	-1.305210
	43.890000	-1.340667
	43.895000	-1.430921
	43.900000	-1.392240
	43.905000	-1.308433
	43.910000	-1.347113
	43.915000	-1.430921
	43.920000	-1.392240
	43.925000	-1.305210
	43.930000	-1.340667
	43.935000	-1.437367
	43.940000	-1.392240
	43.945000	-1.305210
	43.950000	-1.347113
	43.955000	-1.430921
	43.960000	-1.392240
	43.965000	-1.305210
	43.970000	-1.343890
	43.975000	-1.424474
	43.980000	-1.392240
	43.985000	-1.305210
	43.990000	-1.343890
	43.995000	-1.427697
	44.000000	-1.389017
	44.005000	-1.308433
	44.010000	-1.340667
	44.015000	-1.430921
	44.020000	-1.385794
	44.025000	-1.301986
	44.030000	-1.347113
	44.035000	-1.437367
	44.040000	-1.389017
	44.045000	-1.305210
	44.050000	-1.343890
	44.055000	-1.424474
	44.060000	-1.389017
	44.065000	-1.305210
	44.070000	-1.347113
	44.075000	-1.427697
	44.080000	-1.389017
	44.085000	-1.308433
	44.090000	-1.347113
	44.095000	-1.424474
	44.100000	-1.395464
	44.105000	-1.305210
	44.110000	-1.350337
	44.115000	-1.437367
	44.120000	-1.408357
	44.125000	-1.324550
	44.130000	-1.360007
	44.135000	-1.450261
	44.140000	-1.418027
	44.145000	-1.337443
	44.150000	-1.366453
	44.155000	-1.453484
	44.160000	-1.421251
	44.165000	-1.334220
	44.170000	-1.379347
	44.175000	-1.456707
	44.180000	-1.424474
	44.185000	-1.340667
	44.190000	-1.379347
	44.195000	-1.472824
	44.200000	-1.430921
	44.205000	-1.347113
	44.210000	-1.382570
	44.215000	-1.469601
	44.220000	-1.440591
	44.225000	-1.343890
	44.230000	-1.385794
	44.235000	-1.479271
	44.240000	-1.430921
	44.245000	-1.347113
	44.250000	-1.389017
	44.255000	-1.466378
	44.260000	-1.430921
	44.265000	-1.353560
	44.270000	-1.392240
	44.275000	-1.469601
	44.280000	-1.440591
	44.285000	-1.350337
	44.290000	-1.385794
	44.295000	-1.476048
	44.300000	-1.437367
	44.305000	-1.350337
	44.310000	-1.389017
	44.315000	-1.472824
	44.320000	-1.434144
	44.325000	-1.353560
	44.330000	-1.385794
	44.335000	-1.472824
	44.340000	-1.437367
	44.345000	-1.353560
	44.350000	-1.389017
	44.355000	-1.472824
	44.360000	-1.434144
	44.365000	-1.350337
	44.370000	-1.389017
	44.375000	-1.469601
	44.380000	-1.440591
	44.385000	-1.350337
	44.390000	-1.382570
	44.395000	-1.469601
	44.400000	-1.437367
	44.405000	-1.343890
	44.410000	-1.379347
	44.415000	-1.466378
	44.420000	-1.437367
	44.425000	-1.350337
	44.430000	-1.376124
	44.435000	-1.472824
	44.440000	-1.430921
	44.445000	-1.347113
	44.450000	-1.385794
	44.455000	-1.466378
	44.460000	-1.443814
	44.465000	-1.347113
	44.470000	-1.385794
	44.475000	-1.469601
	44.480000	-1.434144
	44.485000	-1.347113
	44.490000	-1.385794
	44.495000	-1.469601
	44.500000	-1.434144
	44.505000	-1.350337
	44.510000	-1.382570
	44.515000	-1.476048
	44.520000	-1.434144
	44.525000	-1.353560
	44.530000	-1.385794
	44.535000	-1.463154
	44.540000	-1.443814
	44.545000	-1.347113
	44.550000	-1.389017
	44.555000	-1.469601
	44.560000	-1.437367
	44.565000	-1.353560
	44.570000	-1.385794
	44.575000	-1.476048
	44.580000	-1.440591
	44.585000	-1.347113
	44.590000	-1.385794
	44.595000	-1.472824
	44.600000	-1.447037
	44.605000	-1.350337
	44.610000	-1.382570
	44.615000	-1.472824
	44.620000	-1.440591
	44.625000	-1.356783
	44.630000	-1.385794
	44.635000	-1.469601
	44.640000	-1.440591
	44.645000	-1.356783
	44.650000	-1.382570
	44.655000	-1.472824
	44.660000	-1.447037
	44.665000	-1.356783
	44.670000	-1.385794
	44.675000	-1.469601
	44.680000	-1.443814
	44.685000	-1.356783
	44.690000	-1.379347
	44.695000	-1.469601
	44.700000	-1.447037
	44.705000	-1.363230
	44.710000	-1.385794
	44.715000	-1.469601
	44.720000	-1.443814
	44.725000	-1.356783
	44.730000	-1.382570
	44.735000	-1.472824
	44.740000	-1.447037
	44.745000	-1.356783
	44.750000	-1.382570
	44.755000	-1.479271
	44.760000	-1.447037
	44.765000	-1.353560
	44.770000	-1.385794
	44.775000	-1.476048
	44.780000	-1.440591
	44.785000	-1.356783
	44.790000	-1.382570
	44.795000	-1.472824
	44.800000	-1.447037
	44.805000	-1.353560
	44.810000	-1.379347
	44.815000	-1.472824
	44.820000	-1.443814
	44.825000	-1.350337
	44.830000	-1.376124
	44.835000	-1.472824
	44.840000	-1.447037
	44.845000	-1.356783
	44.850000	-1.379347
	44.855000	-1.466378
	44.860000	-1.440591
	44.865000	-1.350337
	44.870000	-1.376124
	44.875000	-1.469601
	44.880000	-1.447037
	44.885000	-1.356783
	44.890000	-1.389017
	44.895000	-1.466378
	44.900000	-1.440591
	44.905000	-1.347113
	44.910000	-1.372900
	44.915000	-1.459931
	44.920000	-1.440591
	44.925000	-1.350337
	44.930000	-1.372900
	44.935000	-1.453484
	44.940000	-1.427697
	44.945000	-1.340667
	44.950000	-1.353560
	44.955000	-1.440591
	44.960000	-1.411580
	44.965000	-1.314880
	44.970000	-1.337443
	44.975000	-1.424474
	44.980000	-1.392240
	44.985000	-1.301986
	44.990000	-1.314880
	44.995000	-1.401910
	45.000000	-1.379347
	45.005000	-1.285869
	45.010000	-1.308433
	45.015000	-1.392240
	45.020000	-1.363230
	45.025000	-1.272976
	45.030000	-1.295540
	45.035000	-1.379347
	45.040000	-1.356783
	45.045000	-1.266529
	45.050000	-1.289093
	45.055000	-1.372900
	45.060000	-1.353560
	45.065000	-1.263306
	45.070000	-1.279423
	45.075000	-1.372900
	45.080000	-1.347113
	45.085000	-1.260083
	45.090000	-1.272976
	45.095000	-1.363230
	45.100000	-1.340667
	45.105000	-1.253636
	45.110000	-1.272976
	45.115000	-1.360007
	45.120000	-1.340667
	45.125000	-1.253636
	45.130000	-1.272976
	45.135000	-1.360007
	45.140000	-1.343890
	45.145000	-1.253636
	45.150000	-1.276199
	45.155000	-1.363230
	45.160000	-1.340667
	45.165000	-1.263306
	45.170000	-1.282646
	45.175000	-1.376124
	45.180000	-1.350337
	45.185000	-1.260083
	45.190000	-1.282646
	45.195000	-1.376124
	45.200000	-1.363230
	45.205000	-1.269753
	45.210000	-1.295540
	45.215000	-1.382570
	45.220000	-1.363230
	45.225000	-1.279423
	45.230000	-1.301986
	45.235000	-1.392240
	45.240000	-1.379347
	45.245000	-1.289093
	45.250000	-1.308433
	45.255000	-1.408357
	45.260000	-1.392240
	45.265000	-1.308433
	45.270000	-1.330996
	45.275000	-1.424474
	45.280000	-1.405134
	45.285000	-1.324550
	45.290000	-1.350337
	45.295000	-1.443814
	45.300000	-1.430921
	45.305000	-1.350337
	45.310000	-1.376124
	45.315000	-1.466378
	45.320000	-1.453484
	45.325000	-1.379347
	45.330000	-1.389017
	45.335000	-1.479271
	45.340000	-1.469601
	45.345000	-1.379347
	45.350000	-1.398687
	45.355000	-1.492164
	45.360000	-1.472824
	45.365000	-1.385794
	45.370000	-1.398687
	45.375000	-1.492164
	45.380000	-1.482494
	45.385000	-1.385794
	45.390000	-1.398687
	45.395000	-1.495388
	45.400000	-1.472824
	45.405000	-1.385794
	45.410000	-1.401910
	45.415000	-1.495388
	45.420000	-1.469601
	45.425000	-1.379347
	45.430000	-1.389017
	45.435000	-1.482494
	45.440000	-1.463154
	45.445000	-1.369677
	45.450000	-1.379347
	45.455000	-1.472824
	45.460000	-1.453484
	45.465000	-1.366453
	45.470000	-1.369677
	45.475000	-1.466378
	45.480000	-1.443814
	45.485000	-1.353560
	45.490000	-1.366453
	45.495000	-1.453484
	45.500000	-1.437367
	45.505000	-1.343890
	45.510000	-1.350337
	45.515000	-1.443814
	45.520000	-1.430921
	45.525000	-1.337443
	45.530000	-1.347113
	45.535000	-1.437367
	45.540000	-1.421251
	45.545000	-1.334220
	45.550000	-1.343890
	45.555000	-1.440591
	45.560000	-1.418027
	45.565000	-1.327773
	45.570000	-1.337443
	45.575000	-1.430921
	45.580000	-1.418027
	45.585000	-1.327773
	45.590000	-1.347113
	45.595000	-1.430921
	45.600000	-1.427697
	45.605000	-1.327773
	45.610000	-1.340667
	45.615000	-1.440591
	45.620000	-1.427697
	45.625000	-1.337443
	45.630000	-1.347113
	45.635000	-1.437367
	45.640000	-1.437367
	45.645000	-1.347113
	45.650000	-1.363230
	45.655000	-1.447037
	45.660000	-1.440591
	45.665000	-1.350337
	45.670000	-1.363230
	45.675000	-1.456707
	45.680000	-1.450261
	45.685000	-1.366453
	45.690000	-1.372900
	45.695000	-1.469601
	45.700000	-1.459931
	45.705000	-1.366453
	45.710000	-1.376124
	45.715000	-1.479271
	45.720000	-1.466378
	45.725000	-1.372900
	45.730000	-1.385794
	45.735000	-1.479271
	45.740000	-1.469601
	45.745000	-1.372900
	45.750000	-1.385794
	45.755000	-1.479271
	45.760000	-1.469601
	45.765000	-1.385794
	45.770000	-1.389017
	45.775000	-1.485718
	45.780000	-1.479271
	45.785000	-1.382570
	45.790000	-1.392240
	45.795000	-1.492164
	45.800000	-1.476048
	45.805000	-1.389017
	45.810000	-1.395464
	45.815000	-1.492164
	45.820000	-1.472824
	45.825000	-1.392240
	45.830000	-1.395464
	45.835000	-1.488941
	45.840000	-1.482494
	45.845000	-1.389017
	45.850000	-1.395464
	45.855000	-1.492164
	45.860000	-1.482494
	45.865000	-1.389017
	45.870000	-1.392240
	45.875000	-1.485718
	45.880000	-1.482494
	45.885000	-1.392240
	45.890000	-1.398687
	45.895000	-1.495388
	45.900000	-1.482494
	45.905000	-1.389017
	45.910000	-1.395464
	45.915000	-1.492164
	45.920000	-1.476048
	45.925000	-1.389017
	45.930000	-1.398687
	45.935000	-1.488941
	45.940000	-1.472824
	45.945000	-1.389017
	45.950000	-1.392240
	45.955000	-1.488941
	45.960000	-1.482494
	45.965000	-1.392240
	45.970000	-1.385794
	45.975000	-1.492164
	45.980000	-1.479271
	45.985000	-1.392240
	45.990000	-1.395464
	45.995000	-1.492164
	46.000000	-1.479271
	46.005000	-1.392240
	46.010000	-1.392240
	46.015000	-1.485718
	46.020000	-1.476048
	46.025000	-1.389017
	46.030000	-1.389017
	46.035000	-1.488941
	46.040000	-1.485718
	46.045000	-1.389017
	46.050000	-1.395464
	46.055000	-1.492164
	46.060000	-1.482494
	46.065000	-1.385794
	46.070000	-1.389017
	46.075000	-1.485718
	46.080000	-1.485718
	46.085000	-1.385794
	46.090000	-1.389017
	46.095000	-1.488941
	46.100000	-1.485718
	46.105000	-1.382570
	46.110000	-1.382570
	46.115000	-1.482494
	46.120000	-1.482494
	46.125000	-1.392240
	46.130000	-1.382570
	46.135000	-1.488941
	46.140000	-1.479271
	46.145000	-1.385794
	46.150000	-1.392240
	46.155000	-1.479271
	46.160000	-1.479271
	46.165000	-1.389017
	46.170000	-1.389017
	46.175000	-1.482494
	46.180000	-1.482494
	46.185000	-1.385794
	46.190000	-1.389017
	46.195000	-1.482494
	46.200000	-1.485718
	46.205000	-1.389017
	46.210000	-1.379347
	46.215000	-1.479271
	46.220000	-1.485718
	46.225000	-1.385794
	46.230000	-1.385794
	46.235000	-1.482494
	46.240000	-1.479271
	46.245000	-1.392240
	46.250000	-1.392240
	46.255000	-1.485718
	46.260000	-1.482494
	46.265000	-1.389017
	46.270000	-1.392240
	46.275000	-1.485718
	46.280000	-1.485718
	46.285000	-1.382570
	46.290000	-1.389017
	46.295000	-1.482494
	46.300000	-1.482494
	46.305000	-1.389017
	46.310000	-1.385794
	46.315000	-1.482494
	46.320000	-1.482494
	46.325000	-1.382570
	46.330000	-1.379347
	46.335000	-1.479271
	46.340000	-1.482494
	46.345000	-1.382570
	46.350000	-1.389017
	46.355000	-1.485718
	46.360000	-1.476048
	46.365000	-1.385794
	46.370000	-1.382570
	46.375000	-1.476048
	46.380000	-1.479271
	46.385000	-1.385794
	46.390000	-1.385794
	46.395000	-1.479271
	46.400000	-1.482494
	46.405000	-1.392240
	46.410000	-1.385794
	46.415000	-1.479271
	46.420000	-1.476048
	46.425000	-1.389017
	46.430000	-1.389017
	46.435000	-1.485718
	46.440000	-1.479271
	46.445000	-1.395464
	46.450000	-1.389017
	46.455000	-1.485718
	46.460000	-1.488941
	46.465000	-1.392240
	46.470000	-1.389017
	46.475000	-1.488941
	46.480000	-1.479271
	46.485000	-1.392240
	46.490000	-1.389017
	46.495000	-1.479271
	46.500000	-1.482494
	46.505000	-1.389017
	46.510000	-1.389017
	46.515000	-1.485718
	46.520000	-1.485718
	46.525000	-1.385794
	46.530000	-1.382570
	46.535000	-1.479271
	46.540000	-1.482494
	46.545000	-1.392240
	46.550000	-1.385794
	46.555000	-1.476048
	46.560000	-1.482494
	46.565000	-1.392240
	46.570000	-1.382570
	46.575000	-1.482494
	46.580000	-1.482494
	46.585000	-1.385794
	46.590000	-1.385794
	46.595000	-1.479271
	46.600000	-1.482494
	46.605000	-1.385794
	46.610000	-1.379347
	46.615000	-1.479271
	46.620000	-1.485718
	46.625000	-1.389017
	46.630000	-1.379347
	46.635000	-1.476048
	46.640000	-1.479271
	46.645000	-1.392240
	46.650000	-1.379347
	46.655000	-1.479271
	46.660000	-1.476048
	46.665000	-1.385794
	46.670000	-1.382570
	46.675000	-1.479271
	46.680000	-1.482494
	46.685000	-1.379347
	46.690000	-1.379347
	46.695000	-1.482494
	46.700000	-1.479271
	46.705000	-1.395464
	46.710000	-1.382570
	46.715000	-1.476048
	46.720000	-1.476048
	46.725000	-1.385794
	46.730000	-1.379347
	46.735000	-1.482494
	46.740000	-1.479271
	46.745000	-1.385794
	46.750000	-1.376124
	46.755000	-1.476048
	46.760000	-1.479271
	46.765000	-1.389017
	46.770000	-1.382570
	46.775000	-1.472824
	46.780000	-1.479271
	46.785000	-1.389017
	46.790000	-1.382570
	46.795000	-1.472824
	46.800000	-1.482494
	46.805000	-1.385794
	46.810000	-1.379347
	46.815000	-1.469601
	46.820000	-1.482494
	46.825000	-1.382570
	46.830000	-1.379347
	46.835000	-1.469601
	46.840000	-1.482494
	46.845000	-1.389017
	46.850000	-1.379347
	46.855000	-1.469601
	46.860000	-1.482494
	46.865000	-1.389017
	46.870000	-1.379347
	46.875000	-1.472824
	46.880000	-1.482494
	46.885000	-1.385794
	46.890000	-1.382570
	46.895000	-1.472824
	46.900000	-1.476048
	46.905000	-1.392240
	46.910000	-1.385794
	46.915000	-1.479271
	46.920000	-1.482494
	46.925000	-1.389017
	46.930000	-1.379347
	46.935000	-1.472824
	46.940000	-1.476048
	46.945000	-1.392240
	46.950000	-1.382570
	46.955000	-1.479271
	46.960000	-1.482494
	46.965000	-1.392240
	46.970000	-1.379347
	46.975000	-1.479271
	46.980000	-1.488941
	46.985000	-1.392240
	46.990000	-1.379347
	46.995000	-1.472824
	47.000000	-1.485718
	47.005000	-1.389017
	47.010000	-1.379347
	47.015000	-1.469601
	47.020000	-1.485718
	47.025000	-1.389017
	47.030000	-1.385794
	47.035000	-1.479271
	47.040000	-1.479271
	47.045000	-1.389017
	47.050000	-1.382570
	47.055000	-1.476048
	47.060000	-1.485718
	47.065000	-1.398687
	47.070000	-1.379347
	47.075000	-1.469601
	47.080000	-1.479271
	47.085000	-1.392240
	47.090000	-1.379347
	47.095000	-1.472824
	47.100000	-1.482494
	47.105000	-1.392240
	47.110000	-1.376124
	47.115000	-1.472824
	47.120000	-1.482494
	47.125000	-1.392240
	47.130000	-1.376124
	47.135000	-1.469601
	47.140000	-1.482494
	47.145000	-1.392240
	47.150000	-1.379347
	47.155000	-1.472824
	47.160000	-1.482494
	47.165000	-1.382570
	47.170000	-1.379347
	47.175000	-1.469601
	47.180000	-1.482494
	47.185000	-1.389017
	47.190000	-1.376124
	47.195000	-1.476048
	47.200000	-1.485718
	47.205000	-1.389017
	47.210000	-1.379347
	47.215000	-1.466378
	47.220000	-1.482494
	47.225000	-1.392240
	47.230000	-1.379347
	47.235000	-1.466378
	47.240000	-1.492164
	47.245000	-1.392240
	47.250000	-1.379347
	47.255000	-1.463154
	47.260000	-1.485718
	47.265000	-1.389017
	47.270000	-1.379347
	47.275000	-1.469601
	47.280000	-1.485718
	47.285000	-1.395464
	47.290000	-1.379347
	47.295000	-1.472824
	47.300000	-1.488941
	47.305000	-1.392240
	47.310000	-1.379347
	47.315000	-1.472824
	47.320000	-1.488941
	47.325000	-1.398687
	47.330000	-1.379347
	47.335000	-1.472824
	47.340000	-1.492164
	47.345000	-1.389017
	47.350000	-1.379347
	47.355000	-1.469601
	47.360000	-1.488941
	47.365000	-1.395464
	47.370000	-1.376124
	47.375000	-1.469601
	47.380000	-1.485718
	47.385000	-1.395464
	47.390000	-1.376124
	47.395000	-1.466378
	47.400000	-1.488941
	47.405000	-1.398687
	47.410000	-1.379347
	47.415000	-1.469601
	47.420000	-1.492164
	47.425000	-1.392240
	47.430000	-1.376124
	47.435000	-1.472824
	47.440000	-1.485718
	47.445000	-1.398687
	47.450000	-1.379347
	47.455000	-1.463154
	47.460000	-1.488941
	47.465000	-1.398687
	47.470000	-1.372900
	47.475000	-1.469601
	47.480000	-1.485718
	47.485000	-1.392240
	47.490000	-1.376124
	47.495000	-1.466378
	47.500000	-1.485718
	47.505000	-1.398687
	47.510000	-1.382570
	47.515000	-1.466378
	47.520000	-1.485718
	47.525000	-1.395464
	47.530000	-1.376124
	47.535000	-1.463154
	47.540000	-1.485718
	47.545000	-1.395464
	47.550000	-1.376124
	47.555000	-1.466378
	47.560000	-1.488941
	47.565000	-1.392240
	47.570000	-1.379347
	47.575000	-1.466378
	47.580000	-1.492164
	47.585000	-1.395464
	47.590000	-1.369677
	47.595000	-1.466378
	47.600000	-1.488941
	47.605000	-1.398687
	47.610000	-1.369677
	47.615000	-1.463154
	47.620000	-1.485718
	47.625000	-1.392240
	47.630000	-1.369677
	47.635000	-1.466378
	47.640000	-1.488941
	47.645000	-1.398687
	47.650000	-1.372900
	47.655000	-1.463154
	47.660000	-1.492164
	47.665000	-1.395464
	47.670000	-1.366453
	47.675000	-1.463154
	47.680000	-1.488941
	47.685000	-1.392240
	47.690000	-1.379347
	47.695000	-1.466378
	47.700000	-1.488941
	47.705000	-1.398687
	47.710000	-1.372900
	47.715000	-1.466378
	47.720000	-1.488941
	47.725000	-1.398687
	47.730000	-1.372900
	47.735000	-1.459931
	47.740000	-1.482494
	47.745000	-1.392240
	47.750000	-1.366453
	47.755000	-1.466378
	47.760000	-1.495388
	47.765000	-1.401910
	47.770000	-1.372900
	47.775000	-1.466378
	47.780000	-1.488941
	47.785000	-1.398687
	47.790000	-1.376124
	47.795000	-1.469601
	47.800000	-1.482494
	47.805000	-1.395464
	47.810000	-1.372900
	47.815000	-1.459931
	47.820000	-1.485718
	47.825000	-1.392240
	47.830000	-1.369677
	47.835000	-1.459931
	47.840000	-1.482494
	47.845000	-1.395464
	47.850000	-1.369677
	47.855000	-1.459931
	47.860000	-1.482494
	47.865000	-1.392240
	47.870000	-1.363230
	47.875000	-1.453484
	47.880000	-1.476048
	47.885000	-1.392240
	47.890000	-1.366453
	47.895000	-1.450261
	47.900000	-1.482494
	47.905000	-1.385794
	47.910000	-1.356783
	47.915000	-1.443814
	47.920000	-1.472824
	47.925000	-1.382570
	47.930000	-1.356783
	47.935000	-1.447037
	47.940000	-1.472824
	47.945000	-1.379347
	47.950000	-1.356783
	47.955000	-1.443814
	47.960000	-1.466378
	47.965000	-1.382570
	47.970000	-1.356783
	47.975000	-1.437367
	47.980000	-1.459931
	47.985000	-1.376124
	47.990000	-1.347113
	47.995000	-1.430921
	48.000000	-1.450261
	48.005000	-1.369677
	48.010000	-1.334220
