2024/7/11 	 15:59:19 
 This file comes from Vt only measurement 	 1.000000E-1 
 Voltage Sensitivity 	 0.000000E+0 
 Sampling rate 	 200 
 Number of samples per channel 	 -1 
 No filter from Labview 	 	 	 
 	 
 ***End_of_Header*** 
 	 Time 	  Voltage 	 Filtered Voltage 	 
	0.000000	-0.918407
	0.005000	-1.028001
	0.010000	-1.011884
	0.015000	-0.905513
	0.020000	-0.915183
	0.025000	-1.028001
	0.030000	-1.008661
	0.035000	-0.899066
	0.040000	-0.915183
	0.045000	-1.024777
	0.050000	-1.002214
	0.055000	-0.886173
	0.060000	-0.908736
	0.065000	-1.021554
	0.070000	-0.992544
	0.075000	-0.879726
	0.080000	-0.908736
	0.085000	-1.011884
	0.090000	-0.992544
	0.095000	-0.879726
	0.100000	-0.895843
	0.105000	-1.015107
	0.110000	-0.992544
	0.115000	-0.879726
	0.120000	-0.895843
	0.125000	-1.005437
	0.130000	-0.982874
	0.135000	-0.873280
	0.140000	-0.892620
	0.145000	-0.998991
	0.150000	-0.976427
	0.155000	-0.866833
	0.160000	-0.889396
	0.165000	-0.998991
	0.170000	-0.973204
	0.175000	-0.873280
	0.180000	-0.889396
	0.185000	-0.998991
	0.190000	-0.973204
	0.195000	-0.863609
	0.200000	-0.882950
	0.205000	-0.998991
	0.210000	-0.976427
	0.215000	-0.860386
	0.220000	-0.886173
	0.225000	-0.992544
	0.230000	-0.979650
	0.235000	-0.863609
	0.240000	-0.876503
	0.245000	-0.992544
	0.250000	-0.973204
	0.255000	-0.857163
	0.260000	-0.879726
	0.265000	-0.995767
	0.270000	-0.966757
	0.275000	-0.863609
	0.280000	-0.876503
	0.285000	-0.989320
	0.290000	-0.973204
	0.295000	-0.857163
	0.300000	-0.876503
	0.305000	-0.992544
	0.310000	-0.966757
	0.315000	-0.857163
	0.320000	-0.876503
	0.325000	-0.986097
	0.330000	-0.966757
	0.335000	-0.857163
	0.340000	-0.876503
	0.345000	-0.982874
	0.350000	-0.969980
	0.355000	-0.860386
	0.360000	-0.879726
	0.365000	-0.989320
	0.370000	-0.969980
	0.375000	-0.853939
	0.380000	-0.886173
	0.385000	-0.989320
	0.390000	-0.963534
	0.395000	-0.860386
	0.400000	-0.870056
	0.405000	-0.982874
	0.410000	-0.969980
	0.415000	-0.863609
	0.420000	-0.876503
	0.425000	-0.979650
	0.430000	-0.966757
	0.435000	-0.853939
	0.440000	-0.876503
	0.445000	-0.982874
	0.450000	-0.963534
	0.455000	-0.857163
	0.460000	-0.876503
	0.465000	-0.986097
	0.470000	-0.966757
	0.475000	-0.853939
	0.480000	-0.870056
	0.485000	-0.986097
	0.490000	-0.963534
	0.495000	-0.853939
	0.500000	-0.873280
	0.505000	-0.982874
	0.510000	-0.963534
	0.515000	-0.844269
	0.520000	-0.870056
	0.525000	-0.976427
	0.530000	-0.963534
	0.535000	-0.844269
	0.540000	-0.873280
	0.545000	-0.979650
	0.550000	-0.960310
	0.555000	-0.850716
	0.560000	-0.876503
	0.565000	-0.979650
	0.570000	-0.963534
	0.575000	-0.853939
	0.580000	-0.866833
	0.585000	-0.982874
	0.590000	-0.957087
	0.595000	-0.850716
	0.600000	-0.870056
	0.605000	-0.979650
	0.610000	-0.963534
	0.615000	-0.847493
	0.620000	-0.870056
	0.625000	-0.982874
	0.630000	-0.953863
	0.635000	-0.850716
	0.640000	-0.860386
	0.645000	-0.979650
	0.650000	-0.960310
	0.655000	-0.850716
	0.660000	-0.866833
	0.665000	-0.973204
	0.670000	-0.950640
	0.675000	-0.844269
	0.680000	-0.866833
	0.685000	-0.976427
	0.690000	-0.957087
	0.695000	-0.841046
	0.700000	-0.860386
	0.705000	-0.969980
	0.710000	-0.950640
	0.715000	-0.837823
	0.720000	-0.863609
	0.725000	-0.973204
	0.730000	-0.944193
	0.735000	-0.837823
	0.740000	-0.853939
	0.745000	-0.973204
	0.750000	-0.950640
	0.755000	-0.837823
	0.760000	-0.857163
	0.765000	-0.969980
	0.770000	-0.944193
	0.775000	-0.841046
	0.780000	-0.857163
	0.785000	-0.966757
	0.790000	-0.944193
	0.795000	-0.831376
	0.800000	-0.850716
	0.805000	-0.960310
	0.810000	-0.944193
	0.815000	-0.834599
	0.820000	-0.853939
	0.825000	-0.960310
	0.830000	-0.937747
	0.835000	-0.828152
	0.840000	-0.841046
	0.845000	-0.960310
	0.850000	-0.931300
	0.855000	-0.824929
	0.860000	-0.844269
	0.865000	-0.953863
	0.870000	-0.931300
	0.875000	-0.818482
	0.880000	-0.844269
	0.885000	-0.950640
	0.890000	-0.931300
	0.895000	-0.812036
	0.900000	-0.844269
	0.905000	-0.947417
	0.910000	-0.928077
	0.915000	-0.818482
	0.920000	-0.834599
	0.925000	-0.947417
	0.930000	-0.924853
	0.935000	-0.815259
	0.940000	-0.834599
	0.945000	-0.947417
	0.950000	-0.921630
	0.955000	-0.821706
	0.960000	-0.831376
	0.965000	-0.944193
	0.970000	-0.924853
	0.975000	-0.818482
	0.980000	-0.834599
	0.985000	-0.940970
	0.990000	-0.918407
	0.995000	-0.812036
	1.000000	-0.828152
	1.005000	-0.947417
	1.010000	-0.915183
	1.015000	-0.808812
	1.020000	-0.834599
	1.025000	-0.940970
	1.030000	-0.918407
	1.035000	-0.802366
	1.040000	-0.828152
	1.045000	-0.940970
	1.050000	-0.915183
	1.055000	-0.808812
	1.060000	-0.821706
	1.065000	-0.934523
	1.070000	-0.915183
	1.075000	-0.802366
	1.080000	-0.828152
	1.085000	-0.940970
	1.090000	-0.911960
	1.095000	-0.802366
	1.100000	-0.821706
	1.105000	-0.934523
	1.110000	-0.915183
	1.115000	-0.795919
	1.120000	-0.828152
	1.125000	-0.937747
	1.130000	-0.908736
	1.135000	-0.799142
	1.140000	-0.824929
	1.145000	-0.934523
	1.150000	-0.915183
	1.155000	-0.802366
	1.160000	-0.821706
	1.165000	-0.928077
	1.170000	-0.915183
	1.175000	-0.805589
	1.180000	-0.812036
	1.185000	-0.931300
	1.190000	-0.908736
	1.195000	-0.805589
	1.200000	-0.821706
	1.205000	-0.931300
	1.210000	-0.911960
	1.215000	-0.799142
	1.220000	-0.818482
	1.225000	-0.931300
	1.230000	-0.905513
	1.235000	-0.792696
	1.240000	-0.818482
	1.245000	-0.924853
	1.250000	-0.905513
	1.255000	-0.795919
	1.260000	-0.818482
	1.265000	-0.921630
	1.270000	-0.902290
	1.275000	-0.795919
	1.280000	-0.808812
	1.285000	-0.928077
	1.290000	-0.902290
	1.295000	-0.792696
	1.300000	-0.812036
	1.305000	-0.918407
	1.310000	-0.895843
	1.315000	-0.786249
	1.320000	-0.815259
	1.325000	-0.915183
	1.330000	-0.895843
	1.335000	-0.783025
	1.340000	-0.805589
	1.345000	-0.915183
	1.350000	-0.899066
	1.355000	-0.783025
	1.360000	-0.812036
	1.365000	-0.924853
	1.370000	-0.892620
	1.375000	-0.783025
	1.380000	-0.805589
	1.385000	-0.915183
	1.390000	-0.886173
	1.395000	-0.779802
	1.400000	-0.802366
	1.405000	-0.918407
	1.410000	-0.889396
	1.415000	-0.776579
	1.420000	-0.802366
	1.425000	-0.902290
	1.430000	-0.889396
	1.435000	-0.776579
	1.440000	-0.792696
	1.445000	-0.908736
	1.450000	-0.882950
	1.455000	-0.773355
	1.460000	-0.792696
	1.465000	-0.905513
	1.470000	-0.879726
	1.475000	-0.766909
	1.480000	-0.783025
	1.485000	-0.889396
	1.490000	-0.870056
	1.495000	-0.747569
	1.500000	-0.760462
	1.505000	-0.866833
	1.510000	-0.834599
	1.515000	-0.715335
	1.520000	-0.718558
	1.525000	-0.812036
	1.530000	-0.779802
	1.535000	-0.654091
	1.540000	-0.657314
	1.545000	-0.750792
	1.550000	-0.712112
	1.555000	-0.579954
	1.560000	-0.573507
	1.565000	-0.654091
	1.570000	-0.612187
	1.575000	-0.476806
	1.580000	-0.473583
	1.585000	-0.560614
	1.590000	-0.509040
	1.595000	-0.376882
	1.600000	-0.380106
	1.605000	-0.460690
	1.610000	-0.425233
	1.615000	-0.305968
	1.620000	-0.309192
	1.625000	-0.396222
	1.630000	-0.360765
	1.635000	-0.247948
	1.640000	-0.260841
	1.645000	-0.351095
	1.650000	-0.318862
	1.655000	-0.206044
	1.660000	-0.218938
	1.665000	-0.309192
	1.670000	-0.280181
	1.675000	-0.170587
	1.680000	-0.186704
	1.685000	-0.273735
	1.690000	-0.251171
	1.695000	-0.141577
	1.700000	-0.160917
	1.705000	-0.254395
	1.710000	-0.231831
	1.715000	-0.128684
	1.720000	-0.144800
	1.725000	-0.241501
	1.730000	-0.215714
	1.735000	-0.115790
	1.740000	-0.128684
	1.745000	-0.231831
	1.750000	-0.212491
	1.755000	-0.099673
	1.760000	-0.125460
	1.765000	-0.225384
	1.770000	-0.206044
	1.775000	-0.109343
	1.780000	-0.125460
	1.785000	-0.235054
	1.790000	-0.212491
	1.795000	-0.122237
	1.800000	-0.131907
	1.805000	-0.247948
	1.810000	-0.228608
	1.815000	-0.122237
	1.820000	-0.151247
	1.825000	-0.254395
	1.830000	-0.235054
	1.835000	-0.141577
	1.840000	-0.164141
	1.845000	-0.267288
	1.850000	-0.257618
	1.855000	-0.154470
	1.860000	-0.183481
	1.865000	-0.283405
	1.870000	-0.267288
	1.875000	-0.167364
	1.880000	-0.193151
	1.885000	-0.299522
	1.890000	-0.283405
	1.895000	-0.186704
	1.900000	-0.206044
	1.905000	-0.318862
	1.910000	-0.293075
	1.915000	-0.193151
	1.920000	-0.215714
	1.925000	-0.318862
	1.930000	-0.302745
	1.935000	-0.206044
	1.940000	-0.225384
	1.945000	-0.334979
	1.950000	-0.315638
	1.955000	-0.209268
	1.960000	-0.231831
	1.965000	-0.338202
	1.970000	-0.322085
	1.975000	-0.222161
	1.980000	-0.238278
	1.985000	-0.347872
	1.990000	-0.325308
	1.995000	-0.228608
	2.000000	-0.251171
	2.005000	-0.347872
	2.010000	-0.325308
	2.015000	-0.225384
	2.020000	-0.244725
	2.025000	-0.354319
	2.030000	-0.328532
	2.035000	-0.225384
	2.040000	-0.251171
	2.045000	-0.360765
	2.050000	-0.338202
	2.055000	-0.241501
	2.060000	-0.264065
	2.065000	-0.363989
	2.070000	-0.341425
	2.075000	-0.241501
	2.080000	-0.254395
	2.085000	-0.370436
	2.090000	-0.344649
	2.095000	-0.244725
	2.100000	-0.264065
	2.105000	-0.363989
	2.110000	-0.341425
	2.115000	-0.241501
	2.120000	-0.260841
	2.125000	-0.351095
	2.130000	-0.334979
	2.135000	-0.241501
	2.140000	-0.264065
	2.145000	-0.360765
	2.150000	-0.344649
	2.155000	-0.251171
	2.160000	-0.270511
	2.165000	-0.376882
	2.170000	-0.354319
	2.175000	-0.254395
	2.180000	-0.286628
	2.185000	-0.383329
	2.190000	-0.367212
	2.195000	-0.280181
	2.200000	-0.305968
	2.205000	-0.412339
	2.210000	-0.392999
	2.215000	-0.302745
	2.220000	-0.328532
	2.225000	-0.434903
	2.230000	-0.422009
	2.235000	-0.338202
	2.240000	-0.363989
	2.245000	-0.476806
	2.250000	-0.463913
	2.255000	-0.370436
	2.260000	-0.405892
	2.265000	-0.509040
	2.270000	-0.499370
	2.275000	-0.405892
	2.280000	-0.434903
	2.285000	-0.547720
	2.290000	-0.541274
	2.295000	-0.447796
	2.300000	-0.476806
	2.305000	-0.583177
	2.310000	-0.579954
	2.315000	-0.489700
	2.320000	-0.518710
	2.325000	-0.637974
	2.330000	-0.625081
	2.335000	-0.541274
	2.340000	-0.563837
	2.345000	-0.689548
	2.350000	-0.676655
	2.355000	-0.583177
	2.360000	-0.608964
	2.365000	-0.721782
	2.370000	-0.705665
	2.375000	-0.612187
	2.380000	-0.650868
	2.385000	-0.754015
	2.390000	-0.737898
	2.395000	-0.647644
	2.400000	-0.676655
	2.405000	-0.779802
	2.410000	-0.757239
	2.415000	-0.654091
	2.420000	-0.683101
	2.425000	-0.786249
	2.430000	-0.773355
	2.435000	-0.673431
	2.440000	-0.702441
	2.445000	-0.805589
	2.450000	-0.779802
	2.455000	-0.676655
	2.460000	-0.705665
	2.465000	-0.815259
	2.470000	-0.786249
	2.475000	-0.695995
	2.480000	-0.721782
	2.485000	-0.828152
	2.490000	-0.805589
	2.495000	-0.705665
	2.500000	-0.731452
	2.505000	-0.844269
	2.510000	-0.821706
	2.515000	-0.728228
	2.520000	-0.754015
	2.525000	-0.860386
	2.530000	-0.844269
	2.535000	-0.741122
	2.540000	-0.776579
	2.545000	-0.879726
	2.550000	-0.857163
	2.555000	-0.757239
	2.560000	-0.783025
	2.565000	-0.892620
	2.570000	-0.876503
	2.575000	-0.770132
	2.580000	-0.795919
	2.585000	-0.902290
	2.590000	-0.882950
	2.595000	-0.776579
	2.600000	-0.799142
	2.605000	-0.911960
	2.610000	-0.889396
	2.615000	-0.783025
	2.620000	-0.805589
	2.625000	-0.924853
	2.630000	-0.895843
	2.635000	-0.792696
	2.640000	-0.812036
	2.645000	-0.928077
	2.650000	-0.895843
	2.655000	-0.795919
	2.660000	-0.818482
	2.665000	-0.934523
	2.670000	-0.899066
	2.675000	-0.799142
	2.680000	-0.824929
	2.685000	-0.937747
	2.690000	-0.908736
	2.695000	-0.802366
	2.700000	-0.828152
	2.705000	-0.937747
	2.710000	-0.915183
	2.715000	-0.812036
	2.720000	-0.831376
	2.725000	-0.940970
	2.730000	-0.915183
	2.735000	-0.812036
	2.740000	-0.837823
	2.745000	-0.947417
	2.750000	-0.924853
	2.755000	-0.812036
	2.760000	-0.841046
	2.765000	-0.950640
	2.770000	-0.921630
	2.775000	-0.812036
	2.780000	-0.837823
	2.785000	-0.950640
	2.790000	-0.921630
	2.795000	-0.815259
	2.800000	-0.841046
	2.805000	-0.950640
	2.810000	-0.921630
	2.815000	-0.808812
	2.820000	-0.831376
	2.825000	-0.953863
	2.830000	-0.924853
	2.835000	-0.805589
	2.840000	-0.847493
	2.845000	-0.944193
	2.850000	-0.915183
	2.855000	-0.805589
	2.860000	-0.841046
	2.865000	-0.944193
	2.870000	-0.911960
	2.875000	-0.805589
	2.880000	-0.834599
	2.885000	-0.940970
	2.890000	-0.905513
	2.895000	-0.799142
	2.900000	-0.824929
	2.905000	-0.937747
	2.910000	-0.905513
	2.915000	-0.792696
	2.920000	-0.821706
	2.925000	-0.934523
	2.930000	-0.908736
	2.935000	-0.786249
	2.940000	-0.821706
	2.945000	-0.931300
	2.950000	-0.899066
	2.955000	-0.789472
	2.960000	-0.821706
	2.965000	-0.928077
	2.970000	-0.902290
	2.975000	-0.789472
	2.980000	-0.812036
	2.985000	-0.921630
	2.990000	-0.889396
	2.995000	-0.776579
	3.000000	-0.805589
	3.005000	-0.915183
	3.010000	-0.886173
	3.015000	-0.773355
	3.020000	-0.799142
	3.025000	-0.908736
	3.030000	-0.879726
	3.035000	-0.776579
	3.040000	-0.795919
	3.045000	-0.911960
	3.050000	-0.873280
	3.055000	-0.760462
	3.060000	-0.789472
	3.065000	-0.902290
	3.070000	-0.863609
	3.075000	-0.760462
	3.080000	-0.786249
	3.085000	-0.892620
	3.090000	-0.866833
	3.095000	-0.754015
	3.100000	-0.779802
	3.105000	-0.892620
	3.110000	-0.857163
	3.115000	-0.750792
	3.120000	-0.783025
	3.125000	-0.882950
	3.130000	-0.857163
	3.135000	-0.744345
	3.140000	-0.776579
	3.145000	-0.879726
	3.150000	-0.853939
	3.155000	-0.741122
	3.160000	-0.770132
	3.165000	-0.879726
	3.170000	-0.850716
	3.175000	-0.737898
	3.180000	-0.770132
	3.185000	-0.879726
	3.190000	-0.841046
	3.195000	-0.737898
	3.200000	-0.763685
	3.205000	-0.873280
	3.210000	-0.844269
	3.215000	-0.737898
	3.220000	-0.760462
	3.225000	-0.870056
	3.230000	-0.841046
	3.235000	-0.728228
	3.240000	-0.760462
	3.245000	-0.873280
	3.250000	-0.834599
	3.255000	-0.728228
	3.260000	-0.757239
	3.265000	-0.866833
	3.270000	-0.828152
	3.275000	-0.721782
	3.280000	-0.744345
	3.285000	-0.863609
	3.290000	-0.834599
	3.295000	-0.718558
	3.300000	-0.754015
	3.305000	-0.860386
	3.310000	-0.824929
	3.315000	-0.715335
	3.320000	-0.744345
	3.325000	-0.857163
	3.330000	-0.821706
	3.335000	-0.718558
	3.340000	-0.744345
	3.345000	-0.853939
	3.350000	-0.821706
	3.355000	-0.715335
	3.360000	-0.741122
	3.365000	-0.853939
	3.370000	-0.815259
	3.375000	-0.708888
	3.380000	-0.737898
	3.385000	-0.844269
	3.390000	-0.815259
	3.395000	-0.708888
	3.400000	-0.728228
	3.405000	-0.844269
	3.410000	-0.805589
	3.415000	-0.699218
	3.420000	-0.731452
	3.425000	-0.837823
	3.430000	-0.808812
	3.435000	-0.702441
	3.440000	-0.725005
	3.445000	-0.837823
	3.450000	-0.802366
	3.455000	-0.689548
	3.460000	-0.721782
	3.465000	-0.828152
	3.470000	-0.802366
	3.475000	-0.686325
	3.480000	-0.721782
	3.485000	-0.831376
	3.490000	-0.792696
	3.495000	-0.689548
	3.500000	-0.718558
	3.505000	-0.824929
	3.510000	-0.792696
	3.515000	-0.679878
	3.520000	-0.708888
	3.525000	-0.818482
	3.530000	-0.789472
	3.535000	-0.676655
	3.540000	-0.712112
	3.545000	-0.815259
	3.550000	-0.783025
	3.555000	-0.666985
	3.560000	-0.699218
	3.565000	-0.815259
	3.570000	-0.779802
	3.575000	-0.676655
	3.580000	-0.695995
	3.585000	-0.805589
	3.590000	-0.776579
	3.595000	-0.666985
	3.600000	-0.699218
	3.605000	-0.808812
	3.610000	-0.773355
	3.615000	-0.663761
	3.620000	-0.692771
	3.625000	-0.802366
	3.630000	-0.773355
	3.635000	-0.666985
	3.640000	-0.692771
	3.645000	-0.805589
	3.650000	-0.766909
	3.655000	-0.663761
	3.660000	-0.692771
	3.665000	-0.795919
	3.670000	-0.763685
	3.675000	-0.650868
	3.680000	-0.689548
	3.685000	-0.802366
	3.690000	-0.766909
	3.695000	-0.660538
	3.700000	-0.676655
	3.705000	-0.792696
	3.710000	-0.766909
	3.715000	-0.650868
	3.720000	-0.689548
	3.725000	-0.792696
	3.730000	-0.766909
	3.735000	-0.654091
	3.740000	-0.686325
	3.745000	-0.795919
	3.750000	-0.766909
	3.755000	-0.660538
	3.760000	-0.689548
	3.765000	-0.805589
	3.770000	-0.770132
	3.775000	-0.663761
	3.780000	-0.699218
	3.785000	-0.808812
	3.790000	-0.779802
	3.795000	-0.666985
	3.800000	-0.702441
	3.805000	-0.805589
	3.810000	-0.773355
	3.815000	-0.666985
	3.820000	-0.689548
	3.825000	-0.802366
	3.830000	-0.766909
	3.835000	-0.654091
	3.840000	-0.676655
	3.845000	-0.779802
	3.850000	-0.750792
	3.855000	-0.625081
	3.860000	-0.641198
	3.865000	-0.741122
	3.870000	-0.692771
	3.875000	-0.560614
	3.880000	-0.579954
	3.885000	-0.657314
	3.890000	-0.599294
	3.895000	-0.463913
	3.900000	-0.470360
	3.905000	-0.554167
	3.910000	-0.496147
	3.915000	-0.367212
	3.920000	-0.380106
	3.925000	-0.463913
	3.930000	-0.412339
	3.935000	-0.286628
	3.940000	-0.299522
	3.945000	-0.383329
	3.950000	-0.334979
	3.955000	-0.218938
	3.960000	-0.238278
	3.965000	-0.328532
	3.970000	-0.276958
	3.975000	-0.160917
	3.980000	-0.173811
	3.985000	-0.267288
	3.990000	-0.218938
	3.995000	-0.106120
	4.000000	-0.119014
	4.005000	-0.218938
	4.010000	-0.173811
	4.015000	-0.057770
	4.020000	-0.080333
	4.025000	-0.180257
	4.030000	-0.135130
	4.035000	-0.031983
	4.040000	-0.051323
	4.045000	-0.148024
	4.050000	-0.106120
	4.055000	-0.015866
	4.060000	-0.035206
	4.065000	-0.138354
	4.070000	-0.109343
	4.075000	0.000251
	4.080000	-0.038430
	4.085000	-0.138354
	4.090000	-0.112567
	4.095000	-0.006196
	4.100000	-0.031983
	4.105000	-0.135130
	4.110000	-0.109343
	4.115000	-0.006196
	4.120000	-0.031983
	4.125000	-0.138354
	4.130000	-0.109343
	4.135000	-0.009419
	4.140000	-0.048100
	4.145000	-0.148024
	4.150000	-0.119014
	4.155000	-0.022313
	4.160000	-0.057770
	4.165000	-0.157694
	4.170000	-0.125460
	4.175000	-0.038430
	4.180000	-0.070663
	4.185000	-0.167364
	4.190000	-0.141577
	4.195000	-0.044876
	4.200000	-0.080333
	4.205000	-0.180257
	4.210000	-0.160917
	4.215000	-0.064216
	4.220000	-0.099673
	4.225000	-0.202821
	4.230000	-0.177034
	4.235000	-0.080333
	4.240000	-0.102897
	4.245000	-0.212491
	4.250000	-0.183481
	4.255000	-0.086780
	4.260000	-0.122237
	4.265000	-0.222161
	4.270000	-0.196374
	4.275000	-0.093227
	4.280000	-0.122237
	4.285000	-0.228608
	4.290000	-0.202821
	4.295000	-0.102897
	4.300000	-0.138354
	4.305000	-0.235054
	4.310000	-0.212491
	4.315000	-0.106120
	4.320000	-0.141577
	4.325000	-0.244725
	4.330000	-0.218938
	4.335000	-0.119014
	4.340000	-0.144800
	4.345000	-0.251171
	4.350000	-0.218938
	4.355000	-0.115790
	4.360000	-0.154470
	4.365000	-0.254395
	4.370000	-0.222161
	4.375000	-0.125460
	4.380000	-0.157694
	4.385000	-0.257618
	4.390000	-0.225384
	4.395000	-0.125460
	4.400000	-0.154470
	4.405000	-0.257618
	4.410000	-0.228608
	4.415000	-0.128684
	4.420000	-0.160917
	4.425000	-0.264065
	4.430000	-0.231831
	4.435000	-0.131907
	4.440000	-0.160917
	4.445000	-0.260841
	4.450000	-0.228608
	4.455000	-0.131907
	4.460000	-0.167364
	4.465000	-0.260841
	4.470000	-0.231831
	4.475000	-0.135130
	4.480000	-0.164141
	4.485000	-0.257618
	4.490000	-0.225384
	4.495000	-0.128684
	4.500000	-0.160917
	4.505000	-0.251171
	4.510000	-0.218938
	4.515000	-0.125460
	4.520000	-0.157694
	4.525000	-0.251171
	4.530000	-0.215714
	4.535000	-0.125460
	4.540000	-0.144800
	4.545000	-0.241501
	4.550000	-0.212491
	4.555000	-0.106120
	4.560000	-0.135130
	4.565000	-0.231831
	4.570000	-0.189927
	4.575000	-0.096450
	4.580000	-0.122237
	4.585000	-0.212491
	4.590000	-0.177034
	4.595000	-0.080333
	4.600000	-0.099673
	4.605000	-0.206044
	4.610000	-0.177034
	4.615000	-0.077110
	4.620000	-0.109343
	4.625000	-0.209268
	4.630000	-0.183481
	4.635000	-0.090003
	4.640000	-0.122237
	4.645000	-0.225384
	4.650000	-0.202821
	4.655000	-0.115790
	4.660000	-0.151247
	4.665000	-0.264065
	4.670000	-0.238278
	4.675000	-0.151247
	4.680000	-0.199597
	4.685000	-0.302745
	4.690000	-0.286628
	4.695000	-0.196374
	4.700000	-0.238278
	4.705000	-0.344649
	4.710000	-0.322085
	4.715000	-0.241501
	4.720000	-0.283405
	4.725000	-0.383329
	4.730000	-0.363989
	4.735000	-0.276958
	4.740000	-0.325308
	4.745000	-0.418786
	4.750000	-0.396222
	4.755000	-0.322085
	4.760000	-0.357542
	4.765000	-0.463913
	4.770000	-0.438126
	4.775000	-0.351095
	4.780000	-0.389776
	4.785000	-0.499370
	4.790000	-0.476806
	4.795000	-0.392999
	4.800000	-0.434903
	4.805000	-0.538050
	4.810000	-0.512263
	4.815000	-0.434903
	4.820000	-0.463913
	4.825000	-0.586401
	4.830000	-0.554167
	4.835000	-0.463913
	4.840000	-0.509040
	4.845000	-0.612187
	4.850000	-0.583177
	4.855000	-0.499370
	4.860000	-0.538050
	4.865000	-0.644421
	4.870000	-0.615411
	4.875000	-0.521933
	4.880000	-0.560614
	4.885000	-0.663761
	4.890000	-0.634751
	4.895000	-0.541274
	4.900000	-0.576730
	4.905000	-0.686325
	4.910000	-0.654091
	4.915000	-0.560614
	4.920000	-0.589624
	4.925000	-0.699218
	4.930000	-0.666985
	4.935000	-0.576730
	4.940000	-0.608964
	4.945000	-0.712112
	4.950000	-0.679878
	4.955000	-0.583177
	4.960000	-0.621858
	4.965000	-0.725005
	4.970000	-0.692771
	4.975000	-0.592847
	4.980000	-0.637974
	4.985000	-0.734675
	4.990000	-0.705665
	4.995000	-0.608964
	5.000000	-0.644421
	5.005000	-0.747569
	5.010000	-0.715335
	5.015000	-0.612187
	5.020000	-0.647644
	5.025000	-0.754015
	5.030000	-0.725005
	5.035000	-0.625081
	5.040000	-0.660538
	5.045000	-0.763685
	5.050000	-0.734675
	5.055000	-0.625081
	5.060000	-0.670208
	5.065000	-0.773355
	5.070000	-0.747569
	5.075000	-0.637974
	5.080000	-0.673431
	5.085000	-0.783025
	5.090000	-0.741122
	5.095000	-0.644421
	5.100000	-0.683101
	5.105000	-0.786249
	5.110000	-0.750792
	5.115000	-0.650868
	5.120000	-0.686325
	5.125000	-0.786249
	5.130000	-0.757239
	5.135000	-0.657314
	5.140000	-0.686325
	5.145000	-0.799142
	5.150000	-0.763685
	5.155000	-0.654091
	5.160000	-0.689548
	5.165000	-0.792696
	5.170000	-0.760462
	5.175000	-0.663761
	5.180000	-0.689548
	5.185000	-0.795919
	5.190000	-0.757239
	5.195000	-0.660538
	5.200000	-0.689548
	5.205000	-0.799142
	5.210000	-0.757239
	5.215000	-0.654091
	5.220000	-0.692771
	5.225000	-0.799142
	5.230000	-0.757239
	5.235000	-0.654091
	5.240000	-0.686325
	5.245000	-0.795919
	5.250000	-0.757239
	5.255000	-0.650868
	5.260000	-0.683101
	5.265000	-0.783025
	5.270000	-0.744345
	5.275000	-0.647644
	5.280000	-0.686325
	5.285000	-0.786249
	5.290000	-0.747569
	5.295000	-0.644421
	5.300000	-0.679878
	5.305000	-0.783025
	5.310000	-0.747569
	5.315000	-0.637974
	5.320000	-0.676655
	5.325000	-0.776579
	5.330000	-0.737898
	5.335000	-0.634751
	5.340000	-0.673431
	5.345000	-0.779802
	5.350000	-0.731452
	5.355000	-0.631528
	5.360000	-0.673431
	5.365000	-0.779802
	5.370000	-0.737898
	5.375000	-0.634751
	5.380000	-0.670208
	5.385000	-0.776579
	5.390000	-0.731452
	5.395000	-0.628304
	5.400000	-0.673431
	5.405000	-0.770132
	5.410000	-0.731452
	5.415000	-0.631528
	5.420000	-0.663761
	5.425000	-0.773355
	5.430000	-0.728228
	5.435000	-0.628304
	5.440000	-0.670208
	5.445000	-0.770132
	5.450000	-0.731452
	5.455000	-0.621858
	5.460000	-0.660538
	5.465000	-0.766909
	5.470000	-0.725005
	5.475000	-0.621858
	5.480000	-0.670208
	5.485000	-0.766909
	5.490000	-0.721782
	5.495000	-0.618634
	5.500000	-0.660538
	5.505000	-0.770132
	5.510000	-0.725005
	5.515000	-0.621858
	5.520000	-0.660538
	5.525000	-0.760462
	5.530000	-0.721782
	5.535000	-0.618634
	5.540000	-0.660538
	5.545000	-0.763685
	5.550000	-0.718558
	5.555000	-0.615411
	5.560000	-0.663761
	5.565000	-0.766909
	5.570000	-0.718558
	5.575000	-0.618634
	5.580000	-0.663761
	5.585000	-0.766909
	5.590000	-0.725005
	5.595000	-0.618634
	5.600000	-0.660538
	5.605000	-0.763685
	5.610000	-0.721782
	5.615000	-0.621858
	5.620000	-0.663761
	5.625000	-0.760462
	5.630000	-0.728228
	5.635000	-0.615411
	5.640000	-0.657314
	5.645000	-0.757239
	5.650000	-0.718558
	5.655000	-0.618634
	5.660000	-0.666985
	5.665000	-0.763685
	5.670000	-0.731452
	5.675000	-0.625081
	5.680000	-0.657314
	5.685000	-0.770132
	5.690000	-0.721782
	5.695000	-0.628304
	5.700000	-0.666985
	5.705000	-0.770132
	5.710000	-0.728228
	5.715000	-0.628304
	5.720000	-0.660538
	5.725000	-0.776579
	5.730000	-0.728228
	5.735000	-0.628304
	5.740000	-0.663761
	5.745000	-0.770132
	5.750000	-0.731452
	5.755000	-0.621858
	5.760000	-0.663761
	5.765000	-0.773355
	5.770000	-0.731452
	5.775000	-0.621858
	5.780000	-0.666985
	5.785000	-0.776579
	5.790000	-0.725005
	5.795000	-0.621858
	5.800000	-0.654091
	5.805000	-0.770132
	5.810000	-0.725005
	5.815000	-0.628304
	5.820000	-0.663761
	5.825000	-0.770132
	5.830000	-0.721782
	5.835000	-0.615411
	5.840000	-0.663761
	5.845000	-0.770132
	5.850000	-0.718558
	5.855000	-0.618634
	5.860000	-0.660538
	5.865000	-0.760462
	5.870000	-0.725005
	5.875000	-0.612187
	5.880000	-0.657314
	5.885000	-0.760462
	5.890000	-0.718558
	5.895000	-0.618634
	5.900000	-0.657314
	5.905000	-0.763685
	5.910000	-0.715335
	5.915000	-0.615411
	5.920000	-0.657314
	5.925000	-0.760462
	5.930000	-0.725005
	5.935000	-0.608964
	5.940000	-0.657314
	5.945000	-0.763685
	5.950000	-0.721782
	5.955000	-0.615411
	5.960000	-0.657314
	5.965000	-0.760462
	5.970000	-0.725005
	5.975000	-0.615411
	5.980000	-0.654091
	5.985000	-0.763685
	5.990000	-0.715335
	5.995000	-0.615411
	6.000000	-0.654091
	6.005000	-0.763685
	6.010000	-0.708888
	6.015000	-0.602517
	6.020000	-0.654091
	6.025000	-0.754015
	6.030000	-0.715335
	6.035000	-0.608964
	6.040000	-0.650868
	6.045000	-0.757239
	6.050000	-0.708888
	6.055000	-0.605741
	6.060000	-0.650868
	6.065000	-0.757239
	6.070000	-0.705665
	6.075000	-0.599294
	6.080000	-0.650868
	6.085000	-0.747569
	6.090000	-0.705665
	6.095000	-0.596071
	6.100000	-0.650868
	6.105000	-0.747569
	6.110000	-0.708888
	6.115000	-0.596071
	6.120000	-0.644421
	6.125000	-0.741122
	6.130000	-0.699218
	6.135000	-0.596071
	6.140000	-0.634751
	6.145000	-0.741122
	6.150000	-0.695995
	6.155000	-0.589624
	6.160000	-0.634751
	6.165000	-0.741122
	6.170000	-0.689548
	6.175000	-0.583177
	6.180000	-0.634751
	6.185000	-0.734675
	6.190000	-0.692771
	6.195000	-0.579954
	6.200000	-0.631528
	6.205000	-0.731452
	6.210000	-0.686325
	6.215000	-0.586401
	6.220000	-0.625081
	6.225000	-0.728228
	6.230000	-0.692771
	6.235000	-0.579954
	6.240000	-0.621858
	6.245000	-0.721782
	6.250000	-0.683101
	6.255000	-0.573507
	6.260000	-0.625081
	6.265000	-0.731452
	6.270000	-0.686325
	6.275000	-0.573507
	6.280000	-0.621858
	6.285000	-0.725005
	6.290000	-0.679878
	6.295000	-0.576730
	6.300000	-0.625081
	6.305000	-0.721782
	6.310000	-0.676655
	6.315000	-0.570284
	6.320000	-0.615411
	6.325000	-0.721782
	6.330000	-0.670208
	6.335000	-0.563837
	6.340000	-0.618634
	6.345000	-0.721782
	6.350000	-0.673431
	6.355000	-0.567060
	6.360000	-0.618634
	6.365000	-0.721782
	6.370000	-0.670208
	6.375000	-0.570284
	6.380000	-0.618634
	6.385000	-0.718558
	6.390000	-0.666985
	6.395000	-0.573507
	6.400000	-0.618634
	6.405000	-0.721782
	6.410000	-0.676655
	6.415000	-0.570284
	6.420000	-0.612187
	6.425000	-0.721782
	6.430000	-0.670208
	6.435000	-0.579954
	6.440000	-0.615411
	6.445000	-0.721782
	6.450000	-0.676655
	6.455000	-0.570284
	6.460000	-0.618634
	6.465000	-0.718558
	6.470000	-0.670208
	6.475000	-0.560614
	6.480000	-0.605741
	6.485000	-0.699218
	6.490000	-0.650868
	6.495000	-0.525157
	6.500000	-0.557390
	6.505000	-0.657314
	6.510000	-0.586401
	6.515000	-0.470360
	6.520000	-0.505817
	6.525000	-0.589624
	6.530000	-0.521933
	6.535000	-0.405892
	6.540000	-0.434903
	6.545000	-0.515487
	6.550000	-0.451019
	6.555000	-0.334979
	6.560000	-0.357542
	6.565000	-0.441349
	6.570000	-0.367212
	6.575000	-0.257618
	6.580000	-0.276958
	6.585000	-0.360765
	6.590000	-0.296298
	6.595000	-0.180257
	6.600000	-0.196374
	6.605000	-0.283405
	6.610000	-0.215714
	6.615000	-0.106120
	6.620000	-0.131907
	6.625000	-0.212491
	6.630000	-0.151247
	6.635000	-0.031983
	6.640000	-0.060993
	6.645000	-0.138354
	6.650000	-0.086780
	6.655000	0.026038
	6.660000	-0.012643
	6.665000	-0.090003
	6.670000	-0.035206
	6.675000	0.064718
	6.680000	0.029261
	6.685000	-0.051323
	6.690000	-0.009419
	6.695000	0.090505
	6.700000	0.051825
	6.705000	-0.038430
	6.710000	0.009921
	6.715000	0.109845
	6.720000	0.061495
	6.725000	-0.028759
	6.730000	0.016368
	6.735000	0.106622
	6.740000	0.061495
	6.745000	-0.022313
	6.750000	0.009921
	6.755000	0.103398
	6.760000	0.061495
	6.765000	-0.035206
	6.770000	0.013144
	6.775000	0.100175
	6.780000	0.055048
	6.785000	-0.044876
	6.790000	-0.002973
	6.795000	0.077611
	6.800000	0.032484
	6.805000	-0.057770
	6.810000	-0.015866
	6.815000	0.071165
	6.820000	0.016368
	6.825000	-0.077110
	6.830000	-0.031983
	6.835000	0.058271
	6.840000	0.006697
	6.845000	-0.083557
	6.850000	-0.041653
	6.855000	0.045378
	6.860000	-0.002973
	6.865000	-0.096450
	6.870000	-0.057770
	6.875000	0.032484
	6.880000	-0.019089
	6.885000	-0.109343
	6.890000	-0.070663
	6.895000	0.019591
	6.900000	-0.022313
	6.905000	-0.125460
	6.910000	-0.080333
	6.915000	0.009921
	6.920000	-0.044876
	6.925000	-0.131907
	6.930000	-0.086780
	6.935000	-0.002973
	6.940000	-0.038430
	6.945000	-0.141577
	6.950000	-0.090003
	6.955000	-0.006196
	6.960000	-0.044876
	6.965000	-0.144800
	6.970000	-0.090003
	6.975000	-0.002973
	6.980000	-0.051323
	6.985000	-0.138354
	6.990000	-0.096450
	6.995000	0.000251
	7.000000	-0.051323
	7.005000	-0.144800
	7.010000	-0.093227
	7.015000	-0.002973
	7.020000	-0.048100
	7.025000	-0.138354
	7.030000	-0.090003
	7.035000	-0.006196
	7.040000	-0.044876
	7.045000	-0.135130
	7.050000	-0.093227
	7.055000	0.000251
	7.060000	-0.048100
	7.065000	-0.135130
	7.070000	-0.086780
	7.075000	-0.002973
	7.080000	-0.044876
	7.085000	-0.135130
	7.090000	-0.093227
	7.095000	-0.009419
	7.100000	-0.057770
	7.105000	-0.154470
	7.110000	-0.109343
	7.115000	-0.022313
	7.120000	-0.070663
	7.125000	-0.160917
	7.130000	-0.122237
	7.135000	-0.044876
	7.140000	-0.093227
	7.145000	-0.183481
	7.150000	-0.148024
	7.155000	-0.067440
	7.160000	-0.115790
	7.165000	-0.215714
	7.170000	-0.177034
	7.175000	-0.090003
	7.180000	-0.141577
	7.185000	-0.244725
	7.190000	-0.206044
	7.195000	-0.115790
	7.200000	-0.170587
	7.205000	-0.276958
	7.210000	-0.238278
	7.215000	-0.157694
	7.220000	-0.212491
	7.225000	-0.315638
	7.230000	-0.273735
	7.235000	-0.189927
	7.240000	-0.251171
	7.245000	-0.344649
	7.250000	-0.315638
	7.255000	-0.238278
	7.260000	-0.293075
	7.265000	-0.392999
	7.270000	-0.351095
	7.275000	-0.267288
	7.280000	-0.331755
	7.285000	-0.422009
	7.290000	-0.380106
	7.295000	-0.299522
	7.300000	-0.347872
	7.305000	-0.447796
	7.310000	-0.412339
	7.315000	-0.334979
	7.320000	-0.380106
	7.325000	-0.483253
	7.330000	-0.431679
	7.335000	-0.351095
	7.340000	-0.402669
	7.345000	-0.499370
	7.350000	-0.457466
	7.355000	-0.367212
	7.360000	-0.418786
	7.365000	-0.512263
	7.370000	-0.473583
	7.375000	-0.386552
	7.380000	-0.434903
	7.385000	-0.531603
	7.390000	-0.489700
	7.395000	-0.402669
	7.400000	-0.454243
	7.405000	-0.541274
	7.410000	-0.499370
	7.415000	-0.409116
	7.420000	-0.457466
	7.425000	-0.554167
	7.430000	-0.499370
	7.435000	-0.412339
	7.440000	-0.467136
	7.445000	-0.547720
	7.450000	-0.499370
	7.455000	-0.412339
	7.460000	-0.454243
	7.465000	-0.541274
	7.470000	-0.499370
	7.475000	-0.409116
	7.480000	-0.454243
	7.485000	-0.541274
	7.490000	-0.496147
	7.495000	-0.409116
	7.500000	-0.460690
	7.505000	-0.554167
	7.510000	-0.502593
	7.515000	-0.412339
	7.520000	-0.460690
	7.525000	-0.563837
	7.530000	-0.509040
	7.535000	-0.428456
	7.540000	-0.476806
	7.545000	-0.576730
	7.550000	-0.525157
	7.555000	-0.438126
	7.560000	-0.492923
	7.565000	-0.586401
	7.570000	-0.531603
	7.575000	-0.454243
	7.580000	-0.509040
	7.585000	-0.602517
	7.590000	-0.554167
	7.595000	-0.467136
	7.600000	-0.521933
	7.605000	-0.621858
	7.610000	-0.570284
	7.615000	-0.480030
	7.620000	-0.528380
	7.625000	-0.625081
	7.630000	-0.576730
	7.635000	-0.486476
	7.640000	-0.541274
	7.645000	-0.644421
	7.650000	-0.589624
	7.655000	-0.505817
	7.660000	-0.563837
	7.665000	-0.654091
	7.670000	-0.605741
	7.675000	-0.518710
	7.680000	-0.570284
	7.685000	-0.663761
	7.690000	-0.615411
	7.695000	-0.528380
	7.700000	-0.579954
	7.705000	-0.676655
	7.710000	-0.634751
	7.715000	-0.544497
	7.720000	-0.599294
	7.725000	-0.695995
	7.730000	-0.641198
	7.735000	-0.554167
	7.740000	-0.612187
	7.745000	-0.702441
	7.750000	-0.654091
	7.755000	-0.560614
	7.760000	-0.618634
	7.765000	-0.715335
	7.770000	-0.654091
	7.775000	-0.567060
	7.780000	-0.621858
	7.785000	-0.721782
	7.790000	-0.666985
	7.795000	-0.579954
	7.800000	-0.631528
	7.805000	-0.734675
	7.810000	-0.676655
	7.815000	-0.589624
	7.820000	-0.644421
	7.825000	-0.747569
	7.830000	-0.689548
	7.835000	-0.599294
	7.840000	-0.657314
	7.845000	-0.750792
	7.850000	-0.699218
	7.855000	-0.602517
	7.860000	-0.666985
	7.865000	-0.757239
	7.870000	-0.702441
	7.875000	-0.608964
	7.880000	-0.666985
	7.885000	-0.760462
	7.890000	-0.708888
	7.895000	-0.612187
	7.900000	-0.670208
	7.905000	-0.766909
	7.910000	-0.708888
	7.915000	-0.608964
	7.920000	-0.673431
	7.925000	-0.770132
	7.930000	-0.712112
	7.935000	-0.615411
	7.940000	-0.670208
	7.945000	-0.773355
	7.950000	-0.715335
	7.955000	-0.618634
	7.960000	-0.676655
	7.965000	-0.773355
	7.970000	-0.712112
	7.975000	-0.618634
	7.980000	-0.673431
	7.985000	-0.770132
	7.990000	-0.712112
	7.995000	-0.618634
	8.000000	-0.676655
	8.005000	-0.776579
	8.010000	-0.712112
	8.015000	-0.612187
	8.020000	-0.676655
	8.025000	-0.763685
	8.030000	-0.708888
	8.035000	-0.612187
	8.040000	-0.666985
	8.045000	-0.763685
	8.050000	-0.702441
	8.055000	-0.608964
	8.060000	-0.657314
	8.065000	-0.757239
	8.070000	-0.699218
	8.075000	-0.605741
	8.080000	-0.660538
	8.085000	-0.750792
	8.090000	-0.699218
	8.095000	-0.602517
	8.100000	-0.660538
	8.105000	-0.760462
	8.110000	-0.695995
	8.115000	-0.602517
	8.120000	-0.660538
	8.125000	-0.754015
	8.130000	-0.689548
	8.135000	-0.596071
	8.140000	-0.657314
	8.145000	-0.750792
	8.150000	-0.692771
	8.155000	-0.596071
	8.160000	-0.660538
	8.165000	-0.750792
	8.170000	-0.692771
	8.175000	-0.589624
	8.180000	-0.650868
	8.185000	-0.744345
	8.190000	-0.686325
	8.195000	-0.589624
	8.200000	-0.650868
	8.205000	-0.747569
	8.210000	-0.683101
	8.215000	-0.589624
	8.220000	-0.644421
	8.225000	-0.744345
	8.230000	-0.676655
	8.235000	-0.583177
	8.240000	-0.647644
	8.245000	-0.741122
	8.250000	-0.679878
	8.255000	-0.579954
	8.260000	-0.644421
	8.265000	-0.737898
	8.270000	-0.676655
	8.275000	-0.583177
	8.280000	-0.644421
	8.285000	-0.734675
	8.290000	-0.673431
	8.295000	-0.583177
	8.300000	-0.641198
	8.305000	-0.734675
	8.310000	-0.673431
	8.315000	-0.576730
	8.320000	-0.634751
	8.325000	-0.731452
	8.330000	-0.666985
	8.335000	-0.570284
	8.340000	-0.631528
	8.345000	-0.731452
	8.350000	-0.670208
	8.355000	-0.570284
	8.360000	-0.628304
	8.365000	-0.734675
	8.370000	-0.666985
	8.375000	-0.573507
	8.380000	-0.637974
	8.385000	-0.728228
	8.390000	-0.673431
	8.395000	-0.573507
	8.400000	-0.637974
	8.405000	-0.728228
	8.410000	-0.657314
	8.415000	-0.567060
	8.420000	-0.634751
	8.425000	-0.725005
	8.430000	-0.663761
	8.435000	-0.563837
	8.440000	-0.628304
	8.445000	-0.728228
	8.450000	-0.657314
	8.455000	-0.567060
	8.460000	-0.631528
	8.465000	-0.728228
	8.470000	-0.657314
	8.475000	-0.567060
	8.480000	-0.631528
	8.485000	-0.725005
	8.490000	-0.660538
	8.495000	-0.570284
	8.500000	-0.628304
	8.505000	-0.718558
	8.510000	-0.657314
	8.515000	-0.563837
	8.520000	-0.625081
	8.525000	-0.725005
	8.530000	-0.650868
	8.535000	-0.563837
	8.540000	-0.625081
	8.545000	-0.721782
	8.550000	-0.657314
	8.555000	-0.560614
	8.560000	-0.621858
	8.565000	-0.721782
	8.570000	-0.654091
	8.575000	-0.560614
	8.580000	-0.621858
	8.585000	-0.721782
	8.590000	-0.660538
	8.595000	-0.557390
	8.600000	-0.618634
	8.605000	-0.715335
	8.610000	-0.650868
	8.615000	-0.557390
	8.620000	-0.621858
	8.625000	-0.715335
	8.630000	-0.654091
	8.635000	-0.554167
	8.640000	-0.618634
	8.645000	-0.715335
	8.650000	-0.650868
	8.655000	-0.557390
	8.660000	-0.615411
	8.665000	-0.715335
	8.670000	-0.647644
	8.675000	-0.557390
	8.680000	-0.618634
	8.685000	-0.705665
	8.690000	-0.647644
	8.695000	-0.550944
	8.700000	-0.621858
	8.705000	-0.708888
	8.710000	-0.644421
	8.715000	-0.554167
	8.720000	-0.615411
	8.725000	-0.705665
	8.730000	-0.644421
	8.735000	-0.554167
	8.740000	-0.618634
	8.745000	-0.708888
	8.750000	-0.641198
	8.755000	-0.554167
	8.760000	-0.615411
	8.765000	-0.702441
	8.770000	-0.644421
	8.775000	-0.550944
	8.780000	-0.612187
	8.785000	-0.705665
	8.790000	-0.637974
	8.795000	-0.547720
	8.800000	-0.608964
	8.805000	-0.702441
	8.810000	-0.637974
	8.815000	-0.544497
	8.820000	-0.605741
	8.825000	-0.702441
	8.830000	-0.641198
	8.835000	-0.550944
	8.840000	-0.605741
	8.845000	-0.705665
	8.850000	-0.637974
	8.855000	-0.544497
	8.860000	-0.612187
	8.865000	-0.699218
	8.870000	-0.634751
	8.875000	-0.541274
	8.880000	-0.605741
	8.885000	-0.695995
	8.890000	-0.631528
	8.895000	-0.541274
	8.900000	-0.602517
	8.905000	-0.702441
	8.910000	-0.637974
	8.915000	-0.547720
	8.920000	-0.608964
	8.925000	-0.705665
	8.930000	-0.631528
	8.935000	-0.541274
	8.940000	-0.608964
	8.945000	-0.702441
	8.950000	-0.637974
	8.955000	-0.547720
	8.960000	-0.608964
	8.965000	-0.702441
	8.970000	-0.628304
	8.975000	-0.547720
	8.980000	-0.605741
	8.985000	-0.695995
	8.990000	-0.631528
	8.995000	-0.541274
	9.000000	-0.602517
	9.005000	-0.695995
	9.010000	-0.631528
	9.015000	-0.538050
	9.020000	-0.602517
	9.025000	-0.695995
	9.030000	-0.628304
	9.035000	-0.538050
	9.040000	-0.605741
	9.045000	-0.699218
	9.050000	-0.634751
	9.055000	-0.538050
	9.060000	-0.599294
	9.065000	-0.702441
	9.070000	-0.625081
	9.075000	-0.534827
	9.080000	-0.608964
	9.085000	-0.695995
	9.090000	-0.621858
	9.095000	-0.534827
	9.100000	-0.602517
	9.105000	-0.695995
	9.110000	-0.625081
	9.115000	-0.531603
	9.120000	-0.602517
	9.125000	-0.689548
	9.130000	-0.621858
	9.135000	-0.534827
	9.140000	-0.602517
	9.145000	-0.689548
	9.150000	-0.621858
	9.155000	-0.528380
	9.160000	-0.592847
	9.165000	-0.686325
	9.170000	-0.618634
	9.175000	-0.528380
	9.180000	-0.589624
	9.185000	-0.679878
	9.190000	-0.615411
	9.195000	-0.531603
	9.200000	-0.592847
	9.205000	-0.686325
	9.210000	-0.615411
	9.215000	-0.531603
	9.220000	-0.592847
	9.225000	-0.683101
	9.230000	-0.615411
	9.235000	-0.518710
	9.240000	-0.589624
	9.245000	-0.683101
	9.250000	-0.615411
	9.255000	-0.521933
	9.260000	-0.589624
	9.265000	-0.673431
	9.270000	-0.602517
	9.275000	-0.512263
	9.280000	-0.579954
	9.285000	-0.660538
	9.290000	-0.589624
	9.295000	-0.486476
	9.300000	-0.544497
	9.305000	-0.618634
	9.310000	-0.547720
	9.315000	-0.444573
	9.320000	-0.512263
	9.325000	-0.589624
	9.330000	-0.505817
	9.335000	-0.405892
	9.340000	-0.473583
	9.345000	-0.538050
	9.350000	-0.457466
	9.355000	-0.354319
	9.360000	-0.409116
	9.365000	-0.480030
	9.370000	-0.392999
	9.375000	-0.289852
	9.380000	-0.325308
	9.385000	-0.392999
	9.390000	-0.309192
	9.395000	-0.199597
	9.400000	-0.244725
	9.405000	-0.302745
	9.410000	-0.209268
	9.415000	-0.093227
	9.420000	-0.141577
	9.425000	-0.199597
	9.430000	-0.109343
	9.435000	-0.009419
	9.440000	-0.051323
	9.445000	-0.115790
	9.450000	-0.028759
	9.455000	0.067941
	9.460000	0.022814
	9.465000	-0.048100
	9.470000	0.038931
	9.475000	0.132408
	9.480000	0.077611
	9.485000	0.009921
	9.490000	0.087281
	9.495000	0.164642
	9.500000	0.106622
	9.505000	0.038931
	9.510000	0.100175
	9.515000	0.183982
	9.520000	0.119515
	9.525000	0.042154
	9.530000	0.100175
	9.535000	0.180759
	9.540000	0.116292
	9.545000	0.042154
	9.550000	0.103398
	9.555000	0.177536
	9.560000	0.113068
	9.565000	0.029261
	9.570000	0.084058
	9.575000	0.164642
	9.580000	0.096952
	9.585000	0.006697
	9.590000	0.074388
	9.595000	0.142079
	9.600000	0.077611
	9.605000	-0.006196
	9.610000	0.055048
	9.615000	0.125962
	9.620000	0.058271
	9.625000	-0.022313
	9.630000	0.032484
	9.635000	0.103398
	9.640000	0.038931
	9.645000	-0.038430
	9.650000	0.016368
	9.655000	0.090505
	9.660000	0.019591
	9.665000	-0.060993
	9.670000	0.006697
	9.675000	0.071165
	9.680000	0.003474
	9.685000	-0.077110
	9.690000	-0.015866
	9.695000	0.058271
	9.700000	-0.006196
	9.705000	-0.093227
	9.710000	-0.035206
	9.715000	0.042154
	9.720000	-0.025536
	9.725000	-0.109343
	9.730000	-0.044876
	9.735000	0.032484
	9.740000	-0.041653
	9.745000	-0.119014
	9.750000	-0.057770
	9.755000	0.009921
	9.760000	-0.051323
	9.765000	-0.128684
	9.770000	-0.073886
	9.775000	0.003474
	9.780000	-0.057770
	9.785000	-0.141577
	9.790000	-0.077110
	9.795000	-0.006196
	9.800000	-0.070663
	9.805000	-0.151247
	9.810000	-0.086780
	9.815000	-0.009419
	9.820000	-0.080333
	9.825000	-0.151247
	9.830000	-0.093227
	9.835000	-0.012643
	9.840000	-0.083557
	9.845000	-0.157694
	9.850000	-0.093227
	9.855000	-0.019089
	9.860000	-0.090003
	9.865000	-0.164141
	9.870000	-0.099673
	9.875000	-0.022313
	9.880000	-0.093227
	9.885000	-0.167364
	9.890000	-0.102897
	9.895000	-0.028759
	9.900000	-0.096450
	9.905000	-0.173811
	9.910000	-0.106120
	9.915000	-0.031983
	9.920000	-0.096450
	9.925000	-0.170587
	9.930000	-0.109343
	9.935000	-0.035206
	9.940000	-0.086780
	9.945000	-0.173811
	9.950000	-0.109343
	9.955000	-0.025536
	9.960000	-0.102897
	9.965000	-0.173811
	9.970000	-0.109343
	9.975000	-0.038430
	9.980000	-0.096450
	9.985000	-0.173811
	9.990000	-0.106120
	9.995000	-0.035206
	10.000000	-0.102897
	10.005000	-0.173811
	10.010000	-0.102897
	10.015000	-0.028759
	10.020000	-0.093227
	10.025000	-0.170587
	10.030000	-0.106120
	10.035000	-0.028759
	10.040000	-0.096450
	10.045000	-0.167364
	10.050000	-0.102897
	10.055000	-0.025536
	10.060000	-0.093227
	10.065000	-0.167364
	10.070000	-0.106120
	10.075000	-0.038430
	10.080000	-0.102897
	10.085000	-0.180257
	10.090000	-0.125460
	10.095000	-0.048100
	10.100000	-0.122237
	10.105000	-0.202821
	10.110000	-0.141577
	10.115000	-0.070663
	10.120000	-0.151247
	10.125000	-0.228608
	10.130000	-0.167364
	10.135000	-0.102897
	10.140000	-0.173811
	10.145000	-0.260841
	10.150000	-0.193151
	10.155000	-0.135130
	10.160000	-0.212491
	10.165000	-0.289852
	10.170000	-0.225384
	10.175000	-0.160917
	10.180000	-0.244725
	10.185000	-0.322085
	10.190000	-0.260841
	10.195000	-0.196374
	10.200000	-0.270511
	10.205000	-0.354319
	10.210000	-0.286628
	10.215000	-0.228608
	10.220000	-0.296298
	10.225000	-0.386552
	10.230000	-0.328532
	10.235000	-0.251171
	10.240000	-0.325308
	10.245000	-0.405892
	10.250000	-0.351095
	10.255000	-0.280181
	10.260000	-0.351095
	10.265000	-0.428456
	10.270000	-0.363989
	10.275000	-0.299522
	10.280000	-0.376882
	10.285000	-0.451019
	10.290000	-0.389776
	10.295000	-0.322085
	10.300000	-0.396222
	10.305000	-0.483253
	10.310000	-0.409116
	10.315000	-0.344649
	10.320000	-0.418786
	10.325000	-0.499370
	10.330000	-0.441349
	10.335000	-0.363989
	10.340000	-0.438126
	10.345000	-0.515487
	10.350000	-0.457466
	10.355000	-0.389776
	10.360000	-0.460690
	10.365000	-0.544497
	10.370000	-0.476806
	10.375000	-0.405892
	10.380000	-0.483253
	10.385000	-0.563837
	10.390000	-0.496147
	10.395000	-0.428456
	10.400000	-0.502593
	10.405000	-0.583177
	10.410000	-0.518710
	10.415000	-0.447796
	10.420000	-0.528380
	10.425000	-0.599294
	10.430000	-0.544497
	10.435000	-0.476806
	10.440000	-0.550944
	10.445000	-0.631528
	10.450000	-0.557390
	10.455000	-0.489700
	10.460000	-0.567060
	10.465000	-0.647644
	10.470000	-0.573507
	10.475000	-0.509040
	10.480000	-0.589624
	10.485000	-0.660538
	10.490000	-0.596071
	10.495000	-0.531603
	10.500000	-0.602517
	10.505000	-0.679878
	10.510000	-0.608964
	10.515000	-0.538050
	10.520000	-0.618634
	10.525000	-0.695995
	10.530000	-0.621858
	10.535000	-0.547720
	10.540000	-0.625081
	10.545000	-0.705665
	10.550000	-0.634751
	10.555000	-0.563837
	10.560000	-0.641198
	10.565000	-0.721782
	10.570000	-0.644421
	10.575000	-0.570284
	10.580000	-0.650868
	10.585000	-0.728228
	10.590000	-0.657314
	10.595000	-0.589624
	10.600000	-0.657314
	10.605000	-0.737898
	10.610000	-0.666985
	10.615000	-0.589624
	10.620000	-0.670208
	10.625000	-0.757239
	10.630000	-0.679878
	10.635000	-0.602517
	10.640000	-0.686325
	10.645000	-0.760462
	10.650000	-0.683101
	10.655000	-0.615411
	10.660000	-0.692771
	10.665000	-0.763685
	10.670000	-0.689548
	10.675000	-0.625081
	10.680000	-0.695995
	10.685000	-0.776579
	10.690000	-0.699218
	10.695000	-0.631528
	10.700000	-0.708888
	10.705000	-0.786249
	10.710000	-0.702441
	10.715000	-0.628304
	10.720000	-0.715335
	10.725000	-0.789472
	10.730000	-0.705665
	10.735000	-0.637974
	10.740000	-0.715335
	10.745000	-0.792696
	10.750000	-0.712112
	10.755000	-0.634751
	10.760000	-0.708888
	10.765000	-0.792696
	10.770000	-0.718558
	10.775000	-0.637974
	10.780000	-0.715335
	10.785000	-0.792696
	10.790000	-0.708888
	10.795000	-0.631528
	10.800000	-0.712112
	10.805000	-0.786249
	10.810000	-0.712112
	10.815000	-0.628304
	10.820000	-0.705665
	10.825000	-0.789472
	10.830000	-0.705665
	10.835000	-0.628304
	10.840000	-0.712112
	10.845000	-0.786249
	10.850000	-0.702441
	10.855000	-0.625081
	10.860000	-0.708888
	10.865000	-0.783025
	10.870000	-0.695995
	10.875000	-0.625081
	10.880000	-0.708888
	10.885000	-0.779802
	10.890000	-0.695995
	10.895000	-0.618634
	10.900000	-0.702441
	10.905000	-0.776579
	10.910000	-0.695995
	10.915000	-0.618634
	10.920000	-0.695995
	10.925000	-0.773355
	10.930000	-0.692771
	10.935000	-0.612187
	10.940000	-0.689548
	10.945000	-0.770132
	10.950000	-0.686325
	10.955000	-0.608964
	10.960000	-0.689548
	10.965000	-0.766909
	10.970000	-0.683101
	10.975000	-0.608964
	10.980000	-0.689548
	10.985000	-0.760462
	10.990000	-0.679878
	10.995000	-0.605741
	11.000000	-0.686325
	11.005000	-0.757239
	11.010000	-0.673431
	11.015000	-0.596071
	11.020000	-0.679878
	11.025000	-0.757239
	11.030000	-0.670208
	11.035000	-0.599294
	11.040000	-0.686325
	11.045000	-0.757239
	11.050000	-0.673431
	11.055000	-0.592847
	11.060000	-0.679878
	11.065000	-0.744345
	11.070000	-0.663761
	11.075000	-0.589624
	11.080000	-0.673431
	11.085000	-0.741122
	11.090000	-0.660538
	11.095000	-0.583177
	11.100000	-0.670208
	11.105000	-0.741122
	11.110000	-0.660538
	11.115000	-0.579954
	11.120000	-0.666985
	11.125000	-0.741122
	11.130000	-0.657314
	11.135000	-0.579954
	11.140000	-0.663761
	11.145000	-0.734675
	11.150000	-0.654091
	11.155000	-0.576730
	11.160000	-0.663761
	11.165000	-0.737898
	11.170000	-0.647644
	11.175000	-0.573507
	11.180000	-0.660538
	11.185000	-0.734675
	11.190000	-0.644421
	11.195000	-0.567060
	11.200000	-0.657314
	11.205000	-0.731452
	11.210000	-0.644421
	11.215000	-0.567060
	11.220000	-0.660538
	11.225000	-0.731452
	11.230000	-0.644421
	11.235000	-0.570284
	11.240000	-0.647644
	11.245000	-0.728228
	11.250000	-0.637974
	11.255000	-0.563837
	11.260000	-0.650868
	11.265000	-0.728228
	11.270000	-0.637974
	11.275000	-0.567060
	11.280000	-0.650868
	11.285000	-0.721782
	11.290000	-0.641198
	11.295000	-0.567060
	11.300000	-0.650868
	11.305000	-0.718558
	11.310000	-0.631528
	11.315000	-0.563837
	11.320000	-0.650868
	11.325000	-0.718558
	11.330000	-0.634751
	11.335000	-0.567060
	11.340000	-0.647644
	11.345000	-0.715335
	11.350000	-0.631528
	11.355000	-0.560614
	11.360000	-0.650868
	11.365000	-0.718558
	11.370000	-0.634751
	11.375000	-0.560614
	11.380000	-0.644421
	11.385000	-0.718558
	11.390000	-0.628304
	11.395000	-0.557390
	11.400000	-0.641198
	11.405000	-0.715335
	11.410000	-0.628304
	11.415000	-0.557390
	11.420000	-0.637974
	11.425000	-0.712112
	11.430000	-0.631528
	11.435000	-0.554167
	11.440000	-0.634751
	11.445000	-0.715335
	11.450000	-0.618634
	11.455000	-0.554167
	11.460000	-0.641198
	11.465000	-0.702441
	11.470000	-0.618634
	11.475000	-0.550944
	11.480000	-0.637974
	11.485000	-0.708888
	11.490000	-0.618634
	11.495000	-0.547720
	11.500000	-0.637974
	11.505000	-0.708888
	11.510000	-0.615411
	11.515000	-0.550944
	11.520000	-0.641198
	11.525000	-0.708888
	11.530000	-0.615411
	11.535000	-0.534827
	11.540000	-0.634751
	11.545000	-0.695995
	11.550000	-0.618634
	11.555000	-0.538050
	11.560000	-0.637974
	11.565000	-0.702441
	11.570000	-0.608964
	11.575000	-0.544497
	11.580000	-0.631528
	11.585000	-0.699218
	11.590000	-0.615411
	11.595000	-0.544497
	11.600000	-0.628304
	11.605000	-0.699218
	11.610000	-0.608964
	11.615000	-0.538050
	11.620000	-0.634751
	11.625000	-0.699218
	11.630000	-0.605741
	11.635000	-0.534827
	11.640000	-0.628304
	11.645000	-0.699218
	11.650000	-0.602517
	11.655000	-0.534827
	11.660000	-0.625081
	11.665000	-0.692771
	11.670000	-0.599294
	11.675000	-0.531603
	11.680000	-0.625081
	11.685000	-0.689548
	11.690000	-0.599294
	11.695000	-0.534827
	11.700000	-0.621858
	11.705000	-0.689548
	11.710000	-0.602517
	11.715000	-0.534827
	11.720000	-0.621858
	11.725000	-0.695995
	11.730000	-0.596071
	11.735000	-0.531603
	11.740000	-0.618634
	11.745000	-0.686325
	11.750000	-0.592847
	11.755000	-0.525157
	11.760000	-0.615411
	11.765000	-0.686325
	11.770000	-0.596071
	11.775000	-0.528380
	11.780000	-0.612187
	11.785000	-0.676655
	11.790000	-0.592847
	11.795000	-0.521933
	11.800000	-0.615411
	11.805000	-0.686325
	11.810000	-0.592847
	11.815000	-0.528380
	11.820000	-0.615411
	11.825000	-0.686325
	11.830000	-0.592847
	11.835000	-0.521933
	11.840000	-0.618634
	11.845000	-0.686325
	11.850000	-0.592847
	11.855000	-0.521933
	11.860000	-0.615411
	11.865000	-0.683101
	11.870000	-0.589624
	11.875000	-0.509040
	11.880000	-0.608964
	11.885000	-0.673431
	11.890000	-0.583177
	11.895000	-0.505817
	11.900000	-0.596071
	11.905000	-0.660538
	11.910000	-0.557390
	11.915000	-0.492923
	11.920000	-0.573507
	11.925000	-0.634751
	11.930000	-0.534827
	11.935000	-0.457466
	11.940000	-0.538050
	11.945000	-0.596071
	11.950000	-0.489700
	11.955000	-0.415563
	11.960000	-0.492923
	11.965000	-0.544497
	11.970000	-0.438126
	11.975000	-0.360765
	11.980000	-0.431679
	11.985000	-0.476806
	11.990000	-0.370436
	11.995000	-0.296298
	12.000000	-0.363989
	12.005000	-0.405892
	12.010000	-0.302745
	12.015000	-0.225384
	12.020000	-0.286628
	12.025000	-0.338202
	12.030000	-0.228608
	12.035000	-0.144800
	12.040000	-0.225384
	12.045000	-0.264065
	12.050000	-0.160917
	12.055000	-0.083557
	12.060000	-0.154470
	12.065000	-0.202821
	12.070000	-0.106120
	12.075000	-0.031983
	12.080000	-0.106120
	12.085000	-0.157694
	12.090000	-0.064216
	12.095000	0.003474
	12.100000	-0.070663
	12.105000	-0.122237
	12.110000	-0.031983
	12.115000	0.032484
	12.120000	-0.041653
	12.125000	-0.099673
	12.130000	-0.006196
	12.135000	0.055048
	12.140000	-0.022313
	12.145000	-0.080333
	12.150000	0.013144
	12.155000	0.071165
	12.160000	-0.006196
	12.165000	-0.054546
	12.170000	0.029261
	12.175000	0.096952
	12.180000	0.013144
	12.185000	-0.044876
	12.190000	0.048601
	12.195000	0.109845
	12.200000	0.032484
	12.205000	-0.028759
	12.210000	0.061495
	12.215000	0.119515
	12.220000	0.032484
	12.225000	-0.022313
	12.230000	0.055048
	12.235000	0.103398
	12.240000	0.026038
	12.245000	-0.035206
	12.250000	0.045378
	12.255000	0.096952
	12.260000	0.009921
	12.265000	-0.044876
	12.270000	0.032484
	12.275000	0.077611
	12.280000	-0.002973
	12.285000	-0.060993
	12.290000	0.019591
	12.295000	0.061495
	12.300000	-0.015866
	12.305000	-0.080333
	12.310000	0.009921
	12.315000	0.055048
	12.320000	-0.022313
	12.325000	-0.090003
	12.330000	-0.002973
	12.335000	0.038931
	12.340000	-0.038430
	12.345000	-0.099673
	12.350000	-0.015866
	12.355000	0.035708
	12.360000	-0.048100
	12.365000	-0.109343
	12.370000	-0.022313
	12.375000	0.026038
	12.380000	-0.057770
	12.385000	-0.115790
	12.390000	-0.035206
	12.395000	0.019591
	12.400000	-0.064216
	12.405000	-0.125460
	12.410000	-0.044876
	12.415000	0.009921
	12.420000	-0.070663
	12.425000	-0.131907
	12.430000	-0.044876
	12.435000	0.003474
	12.440000	-0.080333
	12.445000	-0.138354
	12.450000	-0.054546
	12.455000	0.000251
	12.460000	-0.093227
	12.465000	-0.138354
	12.470000	-0.054546
	12.475000	-0.006196
	12.480000	-0.093227
	12.485000	-0.151247
	12.490000	-0.067440
	12.495000	-0.012643
	12.500000	-0.093227
	12.505000	-0.148024
	12.510000	-0.060993
	12.515000	-0.012643
	12.520000	-0.096450
	12.525000	-0.154470
	12.530000	-0.067440
	12.535000	-0.015866
	12.540000	-0.106120
	12.545000	-0.157694
	12.550000	-0.083557
	12.555000	-0.031983
	12.560000	-0.122237
	12.565000	-0.180257
	12.570000	-0.096450
	12.575000	-0.054546
	12.580000	-0.138354
	12.585000	-0.202821
	12.590000	-0.122237
	12.595000	-0.080333
	12.600000	-0.164141
	12.605000	-0.235054
	12.610000	-0.148024
	12.615000	-0.109343
	12.620000	-0.209268
	12.625000	-0.257618
	12.630000	-0.186704
	12.635000	-0.144800
	12.640000	-0.241501
	12.645000	-0.302745
	12.650000	-0.231831
	12.655000	-0.193151
	12.660000	-0.296298
	12.665000	-0.354319
	12.670000	-0.283405
	12.675000	-0.251171
	12.680000	-0.354319
	12.685000	-0.422009
	12.690000	-0.351095
	12.695000	-0.318862
	12.700000	-0.422009
	12.705000	-0.483253
	12.710000	-0.409116
	12.715000	-0.380106
	12.720000	-0.476806
	12.725000	-0.541274
	12.730000	-0.470360
	12.735000	-0.434903
	12.740000	-0.528380
	12.745000	-0.596071
	12.750000	-0.512263
	12.755000	-0.470360
	12.760000	-0.563837
	12.765000	-0.628304
	12.770000	-0.544497
	12.775000	-0.496147
	12.780000	-0.596071
	12.785000	-0.647644
	12.790000	-0.563837
	12.795000	-0.515487
	12.800000	-0.608964
	12.805000	-0.657314
	12.810000	-0.567060
	12.815000	-0.518710
	12.820000	-0.615411
	12.825000	-0.660538
	12.830000	-0.579954
	12.835000	-0.528380
	12.840000	-0.625081
	12.845000	-0.676655
	12.850000	-0.576730
	12.855000	-0.531603
	12.860000	-0.628304
	12.865000	-0.679878
	12.870000	-0.586401
	12.875000	-0.531603
	12.880000	-0.628304
	12.885000	-0.683101
	12.890000	-0.586401
	12.895000	-0.544497
	12.900000	-0.631528
	12.905000	-0.683101
	12.910000	-0.589624
	12.915000	-0.538050
	12.920000	-0.631528
	12.925000	-0.686325
	12.930000	-0.599294
	12.935000	-0.554167
	12.940000	-0.641198
	12.945000	-0.699218
	12.950000	-0.605741
	12.955000	-0.557390
	12.960000	-0.641198
	12.965000	-0.695995
	12.970000	-0.615411
	12.975000	-0.560614
	12.980000	-0.657314
	12.985000	-0.699218
	12.990000	-0.615411
	12.995000	-0.563837
	13.000000	-0.660538
	13.005000	-0.712112
	13.010000	-0.615411
	13.015000	-0.573507
	13.020000	-0.666985
	13.025000	-0.718558
	13.030000	-0.625081
	13.035000	-0.576730
	13.040000	-0.679878
	13.045000	-0.728228
	13.050000	-0.634751
	13.055000	-0.579954
	13.060000	-0.679878
	13.065000	-0.731452
	13.070000	-0.637974
	13.075000	-0.596071
	13.080000	-0.689548
	13.085000	-0.741122
	13.090000	-0.647644
	13.095000	-0.599294
	13.100000	-0.699218
	13.105000	-0.741122
	13.110000	-0.647644
	13.115000	-0.605741
	13.120000	-0.699218
	13.125000	-0.750792
	13.130000	-0.650868
	13.135000	-0.602517
	13.140000	-0.699218
	13.145000	-0.754015
	13.150000	-0.657314
	13.155000	-0.612187
	13.160000	-0.708888
	13.165000	-0.757239
	13.170000	-0.660538
	13.175000	-0.615411
	13.180000	-0.715335
	13.185000	-0.763685
	13.190000	-0.666985
	13.195000	-0.615411
	13.200000	-0.708888
	13.205000	-0.770132
	13.210000	-0.660538
	13.215000	-0.612187
	13.220000	-0.715335
	13.225000	-0.766909
	13.230000	-0.663761
	13.235000	-0.615411
	13.240000	-0.718558
	13.245000	-0.766909
	13.250000	-0.663761
	13.255000	-0.618634
	13.260000	-0.718558
	13.265000	-0.766909
	13.270000	-0.660538
	13.275000	-0.615411
	13.280000	-0.712112
	13.285000	-0.770132
	13.290000	-0.666985
	13.295000	-0.612187
	13.300000	-0.712112
	13.305000	-0.760462
	13.310000	-0.670208
	13.315000	-0.615411
	13.320000	-0.715335
	13.325000	-0.763685
	13.330000	-0.657314
	13.335000	-0.612187
	13.340000	-0.712112
	13.345000	-0.763685
	13.350000	-0.666985
	13.355000	-0.615411
	13.360000	-0.715335
	13.365000	-0.757239
	13.370000	-0.654091
	13.375000	-0.615411
	13.380000	-0.712112
	13.385000	-0.750792
	13.390000	-0.657314
	13.395000	-0.608964
	13.400000	-0.712112
	13.405000	-0.757239
	13.410000	-0.654091
	13.415000	-0.602517
	13.420000	-0.702441
	13.425000	-0.747569
	13.430000	-0.657314
	13.435000	-0.605741
	13.440000	-0.702441
	13.445000	-0.747569
	13.450000	-0.644421
	13.455000	-0.608964
	13.460000	-0.705665
	13.465000	-0.750792
	13.470000	-0.650868
	13.475000	-0.596071
	13.480000	-0.705665
	13.485000	-0.747569
	13.490000	-0.637974
	13.495000	-0.602517
	13.500000	-0.702441
	13.505000	-0.741122
	13.510000	-0.644421
	13.515000	-0.592847
	13.520000	-0.695995
	13.525000	-0.741122
	13.530000	-0.644421
	13.535000	-0.592847
	13.540000	-0.692771
	13.545000	-0.741122
	13.550000	-0.631528
	13.555000	-0.586401
	13.560000	-0.692771
	13.565000	-0.734675
	13.570000	-0.628304
	13.575000	-0.583177
	13.580000	-0.689548
	13.585000	-0.731452
	13.590000	-0.631528
	13.595000	-0.579954
	13.600000	-0.686325
	13.605000	-0.734675
	13.610000	-0.621858
	13.615000	-0.579954
	13.620000	-0.689548
	13.625000	-0.728228
	13.630000	-0.625081
	13.635000	-0.576730
	13.640000	-0.689548
	13.645000	-0.728228
	13.650000	-0.615411
	13.655000	-0.570284
	13.660000	-0.676655
	13.665000	-0.721782
	13.670000	-0.615411
	13.675000	-0.573507
	13.680000	-0.679878
	13.685000	-0.715335
	13.690000	-0.618634
	13.695000	-0.579954
	13.700000	-0.683101
	13.705000	-0.721782
	13.710000	-0.618634
	13.715000	-0.579954
	13.720000	-0.676655
	13.725000	-0.721782
	13.730000	-0.618634
	13.735000	-0.570284
	13.740000	-0.679878
	13.745000	-0.721782
	13.750000	-0.621858
	13.755000	-0.567060
	13.760000	-0.676655
	13.765000	-0.718558
	13.770000	-0.612187
	13.775000	-0.570284
	13.780000	-0.679878
	13.785000	-0.718558
	13.790000	-0.612187
	13.795000	-0.570284
	13.800000	-0.673431
	13.805000	-0.715335
	13.810000	-0.608964
	13.815000	-0.567060
	13.820000	-0.673431
	13.825000	-0.712112
	13.830000	-0.608964
	13.835000	-0.573507
	13.840000	-0.676655
	13.845000	-0.718558
	13.850000	-0.612187
	13.855000	-0.563837
	13.860000	-0.679878
	13.865000	-0.715335
	13.870000	-0.612187
	13.875000	-0.567060
	13.880000	-0.666985
	13.885000	-0.705665
	13.890000	-0.608964
	13.895000	-0.567060
	13.900000	-0.676655
	13.905000	-0.712112
	13.910000	-0.602517
	13.915000	-0.557390
	13.920000	-0.666985
	13.925000	-0.712112
	13.930000	-0.599294
	13.935000	-0.560614
	13.940000	-0.670208
	13.945000	-0.702441
	13.950000	-0.599294
	13.955000	-0.557390
	13.960000	-0.660538
	13.965000	-0.699218
	13.970000	-0.592847
	13.975000	-0.560614
	13.980000	-0.660538
	13.985000	-0.702441
	13.990000	-0.592847
	13.995000	-0.557390
	14.000000	-0.666985
	14.005000	-0.702441
	14.010000	-0.592847
	14.015000	-0.560614
	14.020000	-0.657314
	14.025000	-0.692771
	14.030000	-0.596071
	14.035000	-0.554167
	14.040000	-0.657314
	14.045000	-0.695995
	14.050000	-0.596071
	14.055000	-0.550944
	14.060000	-0.660538
	14.065000	-0.695995
	14.070000	-0.589624
	14.075000	-0.550944
	14.080000	-0.654091
	14.085000	-0.692771
	14.090000	-0.586401
	14.095000	-0.550944
	14.100000	-0.657314
	14.105000	-0.692771
	14.110000	-0.586401
	14.115000	-0.547720
	14.120000	-0.654091
	14.125000	-0.695995
	14.130000	-0.589624
	14.135000	-0.547720
	14.140000	-0.657314
	14.145000	-0.689548
	14.150000	-0.579954
	14.155000	-0.544497
	14.160000	-0.657314
	14.165000	-0.695995
	14.170000	-0.583177
	14.175000	-0.547720
	14.180000	-0.654091
	14.185000	-0.695995
	14.190000	-0.579954
	14.195000	-0.554167
	14.200000	-0.660538
	14.205000	-0.692771
	14.210000	-0.589624
	14.215000	-0.554167
	14.220000	-0.660538
	14.225000	-0.699218
	14.230000	-0.576730
	14.235000	-0.544497
	14.240000	-0.654091
	14.245000	-0.683101
	14.250000	-0.573507
	14.255000	-0.531603
	14.260000	-0.621858
	14.265000	-0.654091
	14.270000	-0.534827
	14.275000	-0.489700
	14.280000	-0.579954
	14.285000	-0.605741
	14.290000	-0.483253
	14.295000	-0.434903
	14.300000	-0.525157
	14.305000	-0.538050
	14.310000	-0.418786
	14.315000	-0.367212
	14.320000	-0.451019
	14.325000	-0.467136
	14.330000	-0.341425
	14.335000	-0.296298
	14.340000	-0.373659
	14.345000	-0.389776
	14.350000	-0.270511
	14.355000	-0.212491
	14.360000	-0.289852
	14.365000	-0.305968
	14.370000	-0.186704
	14.375000	-0.135130
	14.380000	-0.222161
	14.385000	-0.241501
	14.390000	-0.125460
	14.395000	-0.070663
	14.400000	-0.157694
	14.405000	-0.173811
	14.410000	-0.067440
	14.415000	-0.028759
	14.420000	-0.106120
	14.425000	-0.125460
	14.430000	-0.019089
	14.435000	0.019591
	14.440000	-0.067440
	14.445000	-0.090003
	14.450000	0.019591
	14.455000	0.055048
	14.460000	-0.038430
	14.465000	-0.064216
	14.470000	0.038931
	14.475000	0.067941
	14.480000	-0.019089
	14.485000	-0.048100
	14.490000	0.051825
	14.495000	0.074388
	14.500000	-0.015866
	14.505000	-0.041653
	14.510000	0.051825
	14.515000	0.084058
	14.520000	-0.012643
	14.525000	-0.038430
	14.530000	0.061495
	14.535000	0.087281
	14.540000	-0.006196
	14.545000	-0.044876
	14.550000	0.058271
	14.555000	0.074388
	14.560000	-0.015866
	14.565000	-0.041653
	14.570000	0.048601
	14.575000	0.077611
	14.580000	-0.019089
	14.585000	-0.051323
	14.590000	0.042154
	14.595000	0.064718
	14.600000	-0.035206
	14.605000	-0.057770
	14.610000	0.045378
	14.615000	0.058271
	14.620000	-0.038430
	14.625000	-0.067440
	14.630000	0.026038
	14.635000	0.048601
	14.640000	-0.048100
	14.645000	-0.080333
	14.650000	0.009921
	14.655000	0.032484
	14.660000	-0.064216
	14.665000	-0.096450
	14.670000	-0.006196
	14.675000	0.013144
	14.680000	-0.090003
	14.685000	-0.122237
	14.690000	-0.028759
	14.695000	-0.006196
	14.700000	-0.106120
	14.705000	-0.141577
	14.710000	-0.054546
	14.715000	-0.038430
	14.720000	-0.148024
	14.725000	-0.186704
	14.730000	-0.106120
	14.735000	-0.093227
	14.740000	-0.215714
	14.745000	-0.251171
	14.750000	-0.177034
	14.755000	-0.167364
	14.760000	-0.283405
	14.765000	-0.331755
	14.770000	-0.241501
	14.775000	-0.231831
	14.780000	-0.347872
	14.785000	-0.376882
	14.790000	-0.293075
	14.795000	-0.280181
	14.800000	-0.386552
	14.805000	-0.418786
	14.810000	-0.334979
	14.815000	-0.315638
	14.820000	-0.428456
	14.825000	-0.457466
	14.830000	-0.360765
	14.835000	-0.344649
	14.840000	-0.454243
	14.845000	-0.486476
	14.850000	-0.396222
	14.855000	-0.373659
	14.860000	-0.496147
	14.865000	-0.521933
	14.870000	-0.422009
	14.875000	-0.405892
	14.880000	-0.518710
	14.885000	-0.550944
	14.890000	-0.454243
	14.895000	-0.441349
	14.900000	-0.550944
	14.905000	-0.576730
	14.910000	-0.486476
	14.915000	-0.467136
	14.920000	-0.573507
	14.925000	-0.605741
	14.930000	-0.509040
	14.935000	-0.492923
	14.940000	-0.596071
	14.945000	-0.628304
	14.950000	-0.528380
	14.955000	-0.512263
	14.960000	-0.621858
	14.965000	-0.647644
	14.970000	-0.557390
	14.975000	-0.534827
	14.980000	-0.641198
	14.985000	-0.673431
	14.990000	-0.570284
	14.995000	-0.554167
	15.000000	-0.660538
	15.005000	-0.686325
	15.010000	-0.589624
	15.015000	-0.563837
	15.020000	-0.673431
	15.025000	-0.699218
	15.030000	-0.602517
	15.035000	-0.579954
	15.040000	-0.686325
	15.045000	-0.712112
	15.050000	-0.618634
	15.055000	-0.596071
	15.060000	-0.702441
	15.065000	-0.721782
	15.070000	-0.618634
	15.075000	-0.599294
	15.080000	-0.708888
	15.085000	-0.725005
	15.090000	-0.621858
	15.095000	-0.602517
	15.100000	-0.708888
	15.105000	-0.731452
	15.110000	-0.628304
	15.115000	-0.605741
	15.120000	-0.708888
	15.125000	-0.734675
	15.130000	-0.631528
	15.135000	-0.608964
	15.140000	-0.718558
	15.145000	-0.734675
	15.150000	-0.637974
	15.155000	-0.612187
	15.160000	-0.718558
	15.165000	-0.741122
	15.170000	-0.634751
	15.175000	-0.618634
	15.180000	-0.718558
	15.185000	-0.744345
	15.190000	-0.637974
	15.195000	-0.612187
	15.200000	-0.725005
	15.205000	-0.747569
	15.210000	-0.637974
	15.215000	-0.621858
	15.220000	-0.731452
	15.225000	-0.750792
	15.230000	-0.637974
	15.235000	-0.625081
	15.240000	-0.731452
	15.245000	-0.750792
	15.250000	-0.647644
	15.255000	-0.628304
	15.260000	-0.741122
	15.265000	-0.754015
	15.270000	-0.647644
	15.275000	-0.625081
	15.280000	-0.737898
	15.285000	-0.760462
	15.290000	-0.641198
	15.295000	-0.631528
	15.300000	-0.737898
	15.305000	-0.754015
	15.310000	-0.641198
	15.315000	-0.621858
	15.320000	-0.734675
	15.325000	-0.757239
	15.330000	-0.644421
	15.335000	-0.628304
	15.340000	-0.734675
	15.345000	-0.747569
	15.350000	-0.644421
	15.355000	-0.621858
	15.360000	-0.728228
	15.365000	-0.754015
	15.370000	-0.644421
	15.375000	-0.625081
	15.380000	-0.734675
	15.385000	-0.760462
	15.390000	-0.641198
	15.395000	-0.618634
	15.400000	-0.737898
	15.405000	-0.747569
	15.410000	-0.644421
	15.415000	-0.625081
	15.420000	-0.731452
	15.425000	-0.747569
	15.430000	-0.644421
	15.435000	-0.621858
	15.440000	-0.737898
	15.445000	-0.747569
	15.450000	-0.641198
	15.455000	-0.621858
	15.460000	-0.731452
	15.465000	-0.741122
	15.470000	-0.631528
	15.475000	-0.615411
	15.480000	-0.725005
	15.485000	-0.741122
	15.490000	-0.628304
	15.495000	-0.608964
	15.500000	-0.734675
	15.505000	-0.741122
	15.510000	-0.628304
	15.515000	-0.612187
	15.520000	-0.721782
	15.525000	-0.737898
	15.530000	-0.618634
	15.535000	-0.612187
	15.540000	-0.725005
	15.545000	-0.731452
	15.550000	-0.621858
	15.555000	-0.608964
	15.560000	-0.725005
	15.565000	-0.737898
	15.570000	-0.618634
	15.575000	-0.602517
	15.580000	-0.715335
	15.585000	-0.725005
	15.590000	-0.615411
	15.595000	-0.596071
	15.600000	-0.718558
	15.605000	-0.718558
	15.610000	-0.615411
	15.615000	-0.596071
	15.620000	-0.708888
	15.625000	-0.718558
	15.630000	-0.608964
	15.635000	-0.589624
	15.640000	-0.708888
	15.645000	-0.721782
	15.650000	-0.612187
	15.655000	-0.596071
	15.660000	-0.708888
	15.665000	-0.715335
	15.670000	-0.599294
	15.675000	-0.596071
	15.680000	-0.705665
	15.685000	-0.715335
	15.690000	-0.605741
	15.695000	-0.592847
	15.700000	-0.702441
	15.705000	-0.718558
	15.710000	-0.599294
	15.715000	-0.583177
	15.720000	-0.702441
	15.725000	-0.712112
	15.730000	-0.602517
	15.735000	-0.579954
	15.740000	-0.695995
	15.745000	-0.702441
	15.750000	-0.592847
	15.755000	-0.583177
	15.760000	-0.699218
	15.765000	-0.695995
	15.770000	-0.586401
	15.775000	-0.579954
	15.780000	-0.699218
	15.785000	-0.702441
	15.790000	-0.586401
	15.795000	-0.583177
	15.800000	-0.695995
	15.805000	-0.702441
	15.810000	-0.596071
	15.815000	-0.586401
	15.820000	-0.695995
	15.825000	-0.708888
	15.830000	-0.592847
	15.835000	-0.583177
	15.840000	-0.695995
	15.845000	-0.702441
	15.850000	-0.589624
	15.855000	-0.586401
	15.860000	-0.702441
	15.865000	-0.702441
	15.870000	-0.586401
	15.875000	-0.586401
	15.880000	-0.692771
	15.885000	-0.699218
	15.890000	-0.589624
	15.895000	-0.583177
	15.900000	-0.692771
	15.905000	-0.695995
	15.910000	-0.589624
	15.915000	-0.579954
	15.920000	-0.689548
	15.925000	-0.692771
	15.930000	-0.579954
	15.935000	-0.576730
	15.940000	-0.689548
	15.945000	-0.695995
	15.950000	-0.576730
	15.955000	-0.579954
	15.960000	-0.692771
	15.965000	-0.695995
	15.970000	-0.583177
	15.975000	-0.570284
	15.980000	-0.686325
	15.985000	-0.702441
	15.990000	-0.579954
	15.995000	-0.576730
	16.000000	-0.689548
	16.005000	-0.699218
	16.010000	-0.576730
	16.015000	-0.576730
	16.020000	-0.689548
	16.025000	-0.689548
	16.030000	-0.576730
	16.035000	-0.573507
	16.040000	-0.689548
	16.045000	-0.689548
	16.050000	-0.576730
	16.055000	-0.570284
	16.060000	-0.683101
	16.065000	-0.689548
	16.070000	-0.576730
	16.075000	-0.570284
	16.080000	-0.686325
	16.085000	-0.689548
	16.090000	-0.579954
	16.095000	-0.573507
	16.100000	-0.686325
	16.105000	-0.686325
	16.110000	-0.576730
	16.115000	-0.570284
	16.120000	-0.686325
	16.125000	-0.689548
	16.130000	-0.573507
	16.135000	-0.573507
	16.140000	-0.683101
	16.145000	-0.689548
	16.150000	-0.570284
	16.155000	-0.573507
	16.160000	-0.683101
	16.165000	-0.686325
	16.170000	-0.576730
	16.175000	-0.567060
	16.180000	-0.683101
	16.185000	-0.683101
	16.190000	-0.573507
	16.195000	-0.563837
	16.200000	-0.689548
	16.205000	-0.686325
	16.210000	-0.567060
	16.215000	-0.567060
	16.220000	-0.683101
	16.225000	-0.683101
	16.230000	-0.573507
	16.235000	-0.567060
	16.240000	-0.679878
	16.245000	-0.679878
	16.250000	-0.567060
	16.255000	-0.563837
	16.260000	-0.683101
	16.265000	-0.683101
	16.270000	-0.567060
	16.275000	-0.567060
	16.280000	-0.679878
	16.285000	-0.683101
	16.290000	-0.573507
	16.295000	-0.567060
	16.300000	-0.686325
	16.305000	-0.676655
	16.310000	-0.573507
	16.315000	-0.567060
	16.320000	-0.683101
	16.325000	-0.683101
	16.330000	-0.570284
	16.335000	-0.563837
	16.340000	-0.679878
	16.345000	-0.679878
	16.350000	-0.567060
	16.355000	-0.570284
	16.360000	-0.683101
	16.365000	-0.676655
	16.370000	-0.567060
	16.375000	-0.570284
	16.380000	-0.673431
	16.385000	-0.676655
	16.390000	-0.563837
	16.395000	-0.567060
	16.400000	-0.679878
	16.405000	-0.676655
	16.410000	-0.570284
	16.415000	-0.567060
	16.420000	-0.683101
	16.425000	-0.679878
	16.430000	-0.567060
	16.435000	-0.573507
	16.440000	-0.683101
	16.445000	-0.679878
	16.450000	-0.570284
	16.455000	-0.576730
	16.460000	-0.692771
	16.465000	-0.686325
	16.470000	-0.570284
	16.475000	-0.576730
	16.480000	-0.699218
	16.485000	-0.695995
	16.490000	-0.583177
	16.495000	-0.586401
	16.500000	-0.695995
	16.505000	-0.695995
	16.510000	-0.583177
	16.515000	-0.583177
	16.520000	-0.705665
	16.525000	-0.695995
	16.530000	-0.592847
	16.535000	-0.596071
	16.540000	-0.708888
	16.545000	-0.699218
	16.550000	-0.589624
	16.555000	-0.579954
	16.560000	-0.699218
	16.565000	-0.692771
	16.570000	-0.570284
	16.575000	-0.570284
	16.580000	-0.683101
	16.585000	-0.679878
	16.590000	-0.554167
	16.595000	-0.557390
	16.600000	-0.666985
	16.605000	-0.650868
	16.610000	-0.541274
	16.615000	-0.525157
	16.620000	-0.644421
	16.625000	-0.631528
	16.630000	-0.512263
	16.635000	-0.505817
	16.640000	-0.621858
	16.645000	-0.605741
	16.650000	-0.489700
	16.655000	-0.489700
	16.660000	-0.592847
	16.665000	-0.576730
	16.670000	-0.460690
	16.675000	-0.457466
	16.680000	-0.554167
	16.685000	-0.538050
	16.690000	-0.412339
	16.695000	-0.399446
	16.700000	-0.496147
	16.705000	-0.476806
	16.710000	-0.351095
	16.715000	-0.334979
	16.720000	-0.422009
	16.725000	-0.392999
	16.730000	-0.264065
	16.735000	-0.244725
	16.740000	-0.338202
	16.745000	-0.302745
	16.750000	-0.173811
	16.755000	-0.160917
	16.760000	-0.254395
	16.765000	-0.228608
	16.770000	-0.109343
	16.775000	-0.096450
	16.780000	-0.193151
	16.785000	-0.180257
	16.790000	-0.060993
	16.795000	-0.060993
	16.800000	-0.148024
	16.805000	-0.135130
	16.810000	-0.028759
	16.815000	-0.028759
	16.820000	-0.119014
	16.825000	-0.109343
	16.830000	0.000251
	16.835000	-0.009419
	16.840000	-0.102897
	16.845000	-0.093227
	16.850000	0.009921
	16.855000	0.003474
	16.860000	-0.093227
	16.865000	-0.083557
	16.870000	0.013144
	16.875000	0.006697
	16.880000	-0.102897
	16.885000	-0.090003
	16.890000	0.009921
	16.895000	-0.002973
	16.900000	-0.109343
	16.905000	-0.102897
	16.910000	0.000251
	16.915000	-0.012643
	16.920000	-0.109343
	16.925000	-0.115790
	16.930000	-0.015866
	16.935000	-0.025536
	16.940000	-0.125460
	16.945000	-0.119014
	16.950000	-0.019089
	16.955000	-0.028759
	16.960000	-0.131907
	16.965000	-0.122237
	16.970000	-0.025536
	16.975000	-0.035206
	16.980000	-0.135130
	16.985000	-0.131907
	16.990000	-0.035206
	16.995000	-0.044876
	17.000000	-0.148024
	17.005000	-0.141577
	17.010000	-0.038430
	17.015000	-0.064216
	17.020000	-0.160917
	17.025000	-0.157694
	17.030000	-0.051323
	17.035000	-0.073886
	17.040000	-0.180257
	17.045000	-0.170587
	17.050000	-0.077110
	17.055000	-0.093227
	17.060000	-0.189927
	17.065000	-0.189927
	17.070000	-0.093227
	17.075000	-0.106120
	17.080000	-0.206044
	17.085000	-0.202821
	17.090000	-0.109343
	17.095000	-0.119014
	17.100000	-0.218938
	17.105000	-0.206044
	17.110000	-0.119014
	17.115000	-0.128684
	17.120000	-0.235054
	17.125000	-0.225384
	17.130000	-0.128684
	17.135000	-0.138354
	17.140000	-0.241501
	17.145000	-0.231831
	17.150000	-0.135130
	17.155000	-0.151247
	17.160000	-0.260841
	17.165000	-0.244725
	17.170000	-0.148024
	17.175000	-0.167364
	17.180000	-0.270511
	17.185000	-0.260841
	17.190000	-0.160917
	17.195000	-0.180257
	17.200000	-0.286628
	17.205000	-0.276958
	17.210000	-0.177034
	17.215000	-0.199597
	17.220000	-0.302745
	17.225000	-0.296298
	17.230000	-0.202821
	17.235000	-0.225384
	17.240000	-0.325308
	17.245000	-0.318862
	17.250000	-0.222161
	17.255000	-0.241501
	17.260000	-0.344649
	17.265000	-0.334979
	17.270000	-0.241501
	17.275000	-0.264065
	17.280000	-0.367212
	17.285000	-0.370436
	17.290000	-0.270511
	17.295000	-0.289852
	17.300000	-0.402669
	17.305000	-0.396222
	17.310000	-0.309192
	17.315000	-0.331755
	17.320000	-0.444573
	17.325000	-0.431679
	17.330000	-0.354319
	17.335000	-0.386552
	17.340000	-0.492923
	17.345000	-0.489700
	17.350000	-0.399446
	17.355000	-0.425233
	17.360000	-0.541274
	17.365000	-0.541274
	17.370000	-0.447796
	17.375000	-0.473583
	17.380000	-0.583177
	17.385000	-0.583177
	17.390000	-0.492923
	17.395000	-0.518710
	17.400000	-0.625081
	17.405000	-0.621858
	17.410000	-0.534827
	17.415000	-0.554167
	17.420000	-0.660538
	17.425000	-0.644421
	17.430000	-0.544497
	17.435000	-0.567060
	17.440000	-0.670208
	17.445000	-0.660538
	17.450000	-0.563837
	17.455000	-0.583177
	17.460000	-0.689548
	17.465000	-0.683101
	17.470000	-0.586401
	17.475000	-0.596071
	17.480000	-0.702441
	17.485000	-0.689548
	17.490000	-0.586401
	17.495000	-0.612187
	17.500000	-0.715335
	17.505000	-0.695995
	17.510000	-0.602517
	17.515000	-0.625081
	17.520000	-0.734675
	17.525000	-0.712112
	17.530000	-0.612187
	17.535000	-0.637974
	17.540000	-0.750792
	17.545000	-0.728228
	17.550000	-0.621858
	17.555000	-0.644421
	17.560000	-0.757239
	17.565000	-0.734675
	17.570000	-0.634751
	17.575000	-0.657314
	17.580000	-0.766909
	17.585000	-0.750792
	17.590000	-0.644421
	17.595000	-0.670208
	17.600000	-0.779802
	17.605000	-0.760462
	17.610000	-0.654091
	17.615000	-0.676655
	17.620000	-0.786249
	17.625000	-0.760462
	17.630000	-0.660538
	17.635000	-0.683101
	17.640000	-0.792696
	17.645000	-0.773355
	17.650000	-0.670208
	17.655000	-0.686325
	17.660000	-0.799142
	17.665000	-0.776579
	17.670000	-0.670208
	17.675000	-0.699218
	17.680000	-0.802366
	17.685000	-0.779802
	17.690000	-0.676655
	17.695000	-0.705665
	17.700000	-0.808812
	17.705000	-0.786249
	17.710000	-0.683101
	17.715000	-0.705665
	17.720000	-0.815259
	17.725000	-0.792696
	17.730000	-0.686325
	17.735000	-0.708888
	17.740000	-0.815259
	17.745000	-0.792696
	17.750000	-0.683101
	17.755000	-0.708888
	17.760000	-0.818482
	17.765000	-0.795919
	17.770000	-0.686325
	17.775000	-0.712112
	17.780000	-0.818482
	17.785000	-0.795919
	17.790000	-0.683101
	17.795000	-0.708888
	17.800000	-0.808812
	17.805000	-0.792696
	17.810000	-0.686325
	17.815000	-0.712112
	17.820000	-0.815259
	17.825000	-0.786249
	17.830000	-0.686325
	17.835000	-0.705665
	17.840000	-0.815259
	17.845000	-0.786249
	17.850000	-0.679878
	17.855000	-0.712112
	17.860000	-0.812036
	17.865000	-0.779802
	17.870000	-0.673431
	17.875000	-0.708888
	17.880000	-0.815259
	17.885000	-0.783025
	17.890000	-0.676655
	17.895000	-0.705665
	17.900000	-0.808812
	17.905000	-0.786249
	17.910000	-0.683101
	17.915000	-0.702441
	17.920000	-0.812036
	17.925000	-0.779802
	17.930000	-0.676655
	17.935000	-0.708888
	17.940000	-0.815259
	17.945000	-0.779802
	17.950000	-0.676655
	17.955000	-0.702441
	17.960000	-0.812036
	17.965000	-0.779802
	17.970000	-0.673431
	17.975000	-0.702441
	17.980000	-0.808812
	17.985000	-0.776579
	17.990000	-0.670208
	17.995000	-0.705665
	18.000000	-0.805589
	18.005000	-0.773355
	18.010000	-0.673431
	18.015000	-0.692771
	18.020000	-0.805589
	18.025000	-0.773355
	18.030000	-0.663761
	18.035000	-0.695995
	18.040000	-0.802366
	18.045000	-0.773355
	18.050000	-0.666985
	18.055000	-0.695995
	18.060000	-0.802366
	18.065000	-0.766909
	18.070000	-0.663761
	18.075000	-0.692771
	18.080000	-0.792696
	18.085000	-0.763685
	18.090000	-0.657314
	18.095000	-0.695995
	18.100000	-0.802366
	18.105000	-0.766909
	18.110000	-0.654091
	18.115000	-0.686325
	18.120000	-0.802366
	18.125000	-0.763685
	18.130000	-0.650868
	18.135000	-0.686325
	18.140000	-0.795919
	18.145000	-0.763685
	18.150000	-0.650868
	18.155000	-0.692771
	18.160000	-0.792696
	18.165000	-0.763685
	18.170000	-0.647644
	18.175000	-0.686325
	18.180000	-0.789472
	18.185000	-0.763685
	18.190000	-0.650868
	18.195000	-0.676655
	18.200000	-0.789472
	18.205000	-0.760462
	18.210000	-0.647644
	18.215000	-0.683101
	18.220000	-0.789472
	18.225000	-0.754015
	18.230000	-0.654091
	18.235000	-0.679878
	18.240000	-0.786249
	18.245000	-0.747569
	18.250000	-0.641198
	18.255000	-0.683101
	18.260000	-0.779802
	18.265000	-0.754015
	18.270000	-0.647644
	18.275000	-0.683101
	18.280000	-0.786249
	18.285000	-0.750792
	18.290000	-0.641198
	18.295000	-0.673431
	18.300000	-0.783025
	18.305000	-0.754015
	18.310000	-0.641198
	18.315000	-0.676655
	18.320000	-0.776579
	18.325000	-0.741122
	18.330000	-0.634751
	18.335000	-0.676655
	18.340000	-0.786249
	18.345000	-0.744345
	18.350000	-0.637974
	18.355000	-0.673431
	18.360000	-0.776579
	18.365000	-0.741122
	18.370000	-0.634751
	18.375000	-0.673431
	18.380000	-0.779802
	18.385000	-0.741122
	18.390000	-0.634751
	18.395000	-0.666985
	18.400000	-0.776579
	18.405000	-0.741122
	18.410000	-0.628304
	18.415000	-0.670208
	18.420000	-0.779802
	18.425000	-0.741122
	18.430000	-0.631528
	18.435000	-0.673431
	18.440000	-0.766909
	18.445000	-0.737898
	18.450000	-0.631528
	18.455000	-0.666985
	18.460000	-0.773355
	18.465000	-0.737898
	18.470000	-0.631528
	18.475000	-0.670208
	18.480000	-0.766909
	18.485000	-0.725005
	18.490000	-0.628304
	18.495000	-0.660538
	18.500000	-0.773355
	18.505000	-0.728228
	18.510000	-0.618634
	18.515000	-0.663761
	18.520000	-0.776579
	18.525000	-0.728228
	18.530000	-0.625081
	18.535000	-0.660538
	18.540000	-0.760462
	18.545000	-0.725005
	18.550000	-0.615411
	18.555000	-0.657314
	18.560000	-0.770132
	18.565000	-0.725005
	18.570000	-0.621858
	18.575000	-0.663761
	18.580000	-0.757239
	18.585000	-0.721782
	18.590000	-0.612187
	18.595000	-0.660538
	18.600000	-0.763685
	18.605000	-0.718558
	18.610000	-0.618634
	18.615000	-0.660538
	18.620000	-0.763685
	18.625000	-0.715335
	18.630000	-0.615411
	18.635000	-0.657314
	18.640000	-0.757239
	18.645000	-0.721782
	18.650000	-0.615411
	18.655000	-0.657314
	18.660000	-0.760462
	18.665000	-0.718558
	18.670000	-0.621858
	18.675000	-0.657314
	18.680000	-0.754015
	18.685000	-0.718558
	18.690000	-0.612187
	18.695000	-0.650868
	18.700000	-0.766909
	18.705000	-0.721782
	18.710000	-0.612187
	18.715000	-0.657314
	18.720000	-0.760462
	18.725000	-0.715335
	18.730000	-0.612187
	18.735000	-0.657314
	18.740000	-0.766909
	18.745000	-0.708888
	18.750000	-0.608964
	18.755000	-0.657314
	18.760000	-0.766909
	18.765000	-0.718558
	18.770000	-0.605741
	18.775000	-0.654091
	18.780000	-0.757239
	18.785000	-0.712112
	18.790000	-0.605741
	18.795000	-0.654091
	18.800000	-0.763685
	18.805000	-0.715335
	18.810000	-0.612187
	18.815000	-0.657314
	18.820000	-0.757239
	18.825000	-0.712112
	18.830000	-0.608964
	18.835000	-0.660538
	18.840000	-0.763685
	18.845000	-0.712112
	18.850000	-0.612187
	18.855000	-0.660538
	18.860000	-0.754015
	18.865000	-0.705665
	18.870000	-0.605741
	18.875000	-0.654091
	18.880000	-0.760462
	18.885000	-0.712112
	18.890000	-0.608964
	18.895000	-0.654091
	18.900000	-0.754015
	18.905000	-0.708888
	18.910000	-0.608964
	18.915000	-0.650868
	18.920000	-0.757239
	18.925000	-0.708888
	18.930000	-0.602517
	18.935000	-0.654091
	18.940000	-0.754015
	18.945000	-0.705665
	18.950000	-0.608964
	18.955000	-0.654091
	18.960000	-0.760462
	18.965000	-0.705665
	18.970000	-0.602517
	18.975000	-0.657314
	18.980000	-0.757239
	18.985000	-0.702441
	18.990000	-0.605741
	18.995000	-0.654091
	19.000000	-0.754015
	19.005000	-0.702441
	19.010000	-0.599294
	19.015000	-0.650868
	19.020000	-0.757239
	19.025000	-0.695995
	19.030000	-0.599294
	19.035000	-0.650868
	19.040000	-0.757239
	19.045000	-0.705665
	19.050000	-0.605741
	19.055000	-0.654091
	19.060000	-0.747569
	19.065000	-0.702441
	19.070000	-0.596071
	19.075000	-0.657314
	19.080000	-0.757239
	19.085000	-0.699218
	19.090000	-0.605741
	19.095000	-0.654091
	19.100000	-0.750792
	19.105000	-0.699218
	19.110000	-0.605741
	19.115000	-0.654091
	19.120000	-0.760462
	19.125000	-0.702441
	19.130000	-0.602517
	19.135000	-0.650868
	19.140000	-0.757239
	19.145000	-0.699218
	19.150000	-0.599294
	19.155000	-0.654091
	19.160000	-0.754015
	19.165000	-0.692771
	19.170000	-0.599294
	19.175000	-0.647644
	19.180000	-0.757239
	19.185000	-0.692771
	19.190000	-0.599294
	19.195000	-0.657314
	19.200000	-0.754015
	19.205000	-0.695995
	19.210000	-0.592847
	19.215000	-0.657314
	19.220000	-0.750792
	19.225000	-0.699218
	19.230000	-0.596071
	19.235000	-0.650868
	19.240000	-0.750792
	19.245000	-0.695995
	19.250000	-0.592847
	19.255000	-0.647644
	19.260000	-0.744345
	19.265000	-0.692771
	19.270000	-0.589624
	19.275000	-0.647644
	19.280000	-0.741122
	19.285000	-0.692771
	19.290000	-0.592847
	19.295000	-0.647644
	19.300000	-0.744345
	19.305000	-0.689548
	19.310000	-0.592847
	19.315000	-0.647644
	19.320000	-0.741122
	19.325000	-0.689548
	19.330000	-0.589624
	19.335000	-0.644421
	19.340000	-0.750792
	19.345000	-0.692771
	19.350000	-0.589624
	19.355000	-0.641198
	19.360000	-0.741122
	19.365000	-0.689548
	19.370000	-0.592847
	19.375000	-0.647644
	19.380000	-0.744345
	19.385000	-0.686325
	19.390000	-0.596071
	19.395000	-0.647644
	19.400000	-0.734675
	19.405000	-0.683101
	19.410000	-0.586401
	19.415000	-0.644421
	19.420000	-0.737898
	19.425000	-0.679878
	19.430000	-0.579954
	19.435000	-0.644421
	19.440000	-0.744345
	19.445000	-0.689548
	19.450000	-0.589624
	19.455000	-0.647644
	19.460000	-0.737898
	19.465000	-0.676655
	19.470000	-0.583177
	19.475000	-0.644421
	19.480000	-0.744345
	19.485000	-0.679878
	19.490000	-0.589624
	19.495000	-0.644421
	19.500000	-0.741122
	19.505000	-0.683101
	19.510000	-0.586401
	19.515000	-0.647644
	19.520000	-0.747569
	19.525000	-0.689548
	19.530000	-0.592847
	19.535000	-0.644421
	19.540000	-0.747569
	19.545000	-0.686325
	19.550000	-0.583177
	19.555000	-0.654091
	19.560000	-0.747569
	19.565000	-0.689548
	19.570000	-0.596071
	19.575000	-0.660538
	19.580000	-0.747569
	19.585000	-0.686325
	19.590000	-0.592847
	19.595000	-0.654091
	19.600000	-0.747569
	19.605000	-0.695995
	19.610000	-0.592847
	19.615000	-0.650868
	19.620000	-0.754015
	19.625000	-0.689548
	19.630000	-0.599294
	19.635000	-0.657314
	19.640000	-0.744345
	19.645000	-0.683101
	19.650000	-0.599294
	19.655000	-0.657314
	19.660000	-0.750792
	19.665000	-0.689548
	19.670000	-0.596071
	19.675000	-0.660538
	19.680000	-0.750792
	19.685000	-0.686325
	19.690000	-0.592847
	19.695000	-0.654091
	19.700000	-0.754015
	19.705000	-0.686325
	19.710000	-0.592847
	19.715000	-0.654091
	19.720000	-0.754015
	19.725000	-0.686325
	19.730000	-0.592847
	19.735000	-0.657314
	19.740000	-0.750792
	19.745000	-0.683101
	19.750000	-0.589624
	19.755000	-0.660538
	19.760000	-0.754015
	19.765000	-0.686325
	19.770000	-0.599294
	19.775000	-0.660538
	19.780000	-0.754015
	19.785000	-0.683101
	19.790000	-0.596071
	19.795000	-0.657314
	19.800000	-0.757239
	19.805000	-0.686325
	19.810000	-0.602517
	19.815000	-0.663761
	19.820000	-0.757239
	19.825000	-0.686325
	19.830000	-0.602517
	19.835000	-0.660538
	19.840000	-0.754015
	19.845000	-0.689548
	19.850000	-0.599294
	19.855000	-0.660538
	19.860000	-0.760462
	19.865000	-0.689548
	19.870000	-0.599294
	19.875000	-0.663761
	19.880000	-0.760462
	19.885000	-0.689548
	19.890000	-0.602517
	19.895000	-0.666985
	19.900000	-0.754015
	19.905000	-0.689548
	19.910000	-0.602517
	19.915000	-0.666985
	19.920000	-0.757239
	19.925000	-0.686325
	19.930000	-0.599294
	19.935000	-0.670208
	19.940000	-0.750792
	19.945000	-0.692771
	19.950000	-0.599294
	19.955000	-0.670208
	19.960000	-0.760462
	19.965000	-0.686325
	19.970000	-0.596071
	19.975000	-0.666985
	19.980000	-0.757239
	19.985000	-0.686325
	19.990000	-0.596071
	19.995000	-0.670208
	20.000000	-0.760462
	20.005000	-0.683101
	20.010000	-0.596071
	20.015000	-0.660538
	20.020000	-0.760462
	20.025000	-0.689548
	20.030000	-0.596071
	20.035000	-0.670208
	20.040000	-0.757239
	20.045000	-0.689548
	20.050000	-0.602517
	20.055000	-0.670208
	20.060000	-0.757239
	20.065000	-0.692771
	20.070000	-0.599294
	20.075000	-0.666985
	20.080000	-0.754015
	20.085000	-0.686325
	20.090000	-0.599294
	20.095000	-0.670208
	20.100000	-0.754015
	20.105000	-0.689548
	20.110000	-0.599294
	20.115000	-0.670208
	20.120000	-0.760462
	20.125000	-0.686325
	20.130000	-0.592847
	20.135000	-0.676655
	20.140000	-0.763685
	20.145000	-0.679878
	20.150000	-0.596071
	20.155000	-0.670208
	20.160000	-0.760462
	20.165000	-0.686325
	20.170000	-0.589624
	20.175000	-0.666985
	20.180000	-0.760462
	20.185000	-0.686325
	20.190000	-0.596071
	20.195000	-0.673431
	20.200000	-0.760462
	20.205000	-0.683101
	20.210000	-0.599294
	20.215000	-0.666985
	20.220000	-0.757239
	20.225000	-0.686325
	20.230000	-0.596071
	20.235000	-0.663761
	20.240000	-0.754015
	20.245000	-0.683101
	20.250000	-0.596071
	20.255000	-0.670208
	20.260000	-0.757239
	20.265000	-0.679878
	20.270000	-0.589624
	20.275000	-0.666985
	20.280000	-0.754015
	20.285000	-0.683101
	20.290000	-0.592847
	20.295000	-0.673431
	20.300000	-0.760462
	20.305000	-0.683101
	20.310000	-0.596071
	20.315000	-0.670208
	20.320000	-0.760462
	20.325000	-0.683101
	20.330000	-0.599294
	20.335000	-0.670208
	20.340000	-0.757239
	20.345000	-0.686325
	20.350000	-0.596071
	20.355000	-0.670208
	20.360000	-0.754015
	20.365000	-0.679878
	20.370000	-0.602517
	20.375000	-0.676655
	20.380000	-0.760462
	20.385000	-0.686325
	20.390000	-0.599294
	20.395000	-0.673431
	20.400000	-0.757239
	20.405000	-0.679878
	20.410000	-0.602517
	20.415000	-0.679878
	20.420000	-0.763685
	20.425000	-0.683101
	20.430000	-0.602517
	20.435000	-0.679878
	20.440000	-0.760462
	20.445000	-0.686325
	20.450000	-0.605741
	20.455000	-0.676655
	20.460000	-0.766909
	20.465000	-0.686325
	20.470000	-0.605741
	20.475000	-0.679878
	20.480000	-0.763685
	20.485000	-0.689548
	20.490000	-0.605741
	20.495000	-0.686325
	20.500000	-0.766909
	20.505000	-0.686325
	20.510000	-0.605741
	20.515000	-0.683101
	20.520000	-0.766909
	20.525000	-0.689548
	20.530000	-0.608964
	20.535000	-0.689548
	20.540000	-0.770132
	20.545000	-0.686325
	20.550000	-0.602517
	20.555000	-0.683101
	20.560000	-0.763685
	20.565000	-0.695995
	20.570000	-0.608964
	20.575000	-0.686325
	20.580000	-0.766909
	20.585000	-0.689548
	20.590000	-0.608964
	20.595000	-0.686325
	20.600000	-0.766909
	20.605000	-0.683101
	20.610000	-0.599294
	20.615000	-0.683101
	20.620000	-0.757239
	20.625000	-0.679878
	20.630000	-0.592847
	20.635000	-0.670208
	20.640000	-0.754015
	20.645000	-0.666985
	20.650000	-0.589624
	20.655000	-0.670208
	20.660000	-0.754015
	20.665000	-0.673431
	20.670000	-0.586401
	20.675000	-0.663761
	20.680000	-0.744345
	20.685000	-0.657314
	20.690000	-0.579954
	20.695000	-0.660538
	20.700000	-0.728228
	20.705000	-0.644421
	20.710000	-0.560614
	20.715000	-0.637974
	20.720000	-0.702441
	20.725000	-0.621858
	20.730000	-0.528380
	20.735000	-0.602517
	20.740000	-0.666985
	20.745000	-0.576730
	20.750000	-0.486476
	20.755000	-0.550944
	20.760000	-0.612187
	20.765000	-0.515487
	20.770000	-0.428456
	20.775000	-0.489700
	20.780000	-0.557390
	20.785000	-0.451019
	20.790000	-0.360765
	20.795000	-0.425233
	20.800000	-0.483253
	20.805000	-0.389776
	20.810000	-0.293075
	20.815000	-0.351095
	20.820000	-0.409116
	20.825000	-0.322085
	20.830000	-0.231831
	20.835000	-0.293075
	20.840000	-0.351095
	20.845000	-0.257618
	20.850000	-0.173811
	20.855000	-0.235054
	20.860000	-0.289852
	20.865000	-0.206044
	20.870000	-0.125460
	20.875000	-0.189927
	20.880000	-0.251171
	20.885000	-0.164141
	20.890000	-0.083557
	20.895000	-0.157694
	20.900000	-0.218938
	20.905000	-0.128684
	20.910000	-0.057770
	20.915000	-0.122237
	20.920000	-0.183481
	20.925000	-0.102897
	20.930000	-0.028759
	20.935000	-0.099673
	20.940000	-0.157694
	20.945000	-0.070663
	20.950000	0.000251
	20.955000	-0.070663
	20.960000	-0.138354
	20.965000	-0.067440
	20.970000	0.006697
	20.975000	-0.064216
	20.980000	-0.131907
	20.985000	-0.060993
	20.990000	0.000251
	20.995000	-0.073886
	21.000000	-0.144800
	21.005000	-0.067440
	21.010000	-0.006196
	21.015000	-0.086780
	21.020000	-0.151247
	21.025000	-0.083557
	21.030000	-0.019089
	21.035000	-0.093227
	21.040000	-0.167364
	21.045000	-0.093227
	21.050000	-0.025536
	21.055000	-0.106120
	21.060000	-0.180257
	21.065000	-0.096450
	21.070000	-0.041653
	21.075000	-0.119014
	21.080000	-0.189927
	21.085000	-0.119014
	21.090000	-0.064216
	21.095000	-0.138354
	21.100000	-0.209268
	21.105000	-0.131907
	21.110000	-0.070663
	21.115000	-0.148024
	21.120000	-0.228608
	21.125000	-0.154470
	21.130000	-0.086780
	21.135000	-0.167364
	21.140000	-0.238278
	21.145000	-0.170587
	21.150000	-0.106120
	21.155000	-0.189927
	21.160000	-0.254395
	21.165000	-0.186704
	21.170000	-0.122237
	21.175000	-0.206044
	21.180000	-0.270511
	21.185000	-0.196374
	21.190000	-0.135130
	21.195000	-0.218938
	21.200000	-0.289852
	21.205000	-0.212491
	21.210000	-0.157694
	21.215000	-0.238278
	21.220000	-0.302745
	21.225000	-0.231831
	21.230000	-0.173811
	21.235000	-0.254395
	21.240000	-0.318862
	21.245000	-0.238278
	21.250000	-0.186704
	21.255000	-0.270511
	21.260000	-0.338202
	21.265000	-0.264065
	21.270000	-0.206044
	21.275000	-0.286628
	21.280000	-0.354319
	21.285000	-0.280181
	21.290000	-0.218938
	21.295000	-0.305968
	21.300000	-0.376882
	21.305000	-0.302745
	21.310000	-0.244725
	21.315000	-0.328532
	21.320000	-0.396222
	21.325000	-0.318862
	21.330000	-0.267288
	21.335000	-0.347872
	21.340000	-0.418786
	21.345000	-0.341425
	21.350000	-0.283405
	21.355000	-0.370436
	21.360000	-0.431679
	21.365000	-0.360765
	21.370000	-0.309192
	21.375000	-0.392999
	21.380000	-0.460690
	21.385000	-0.380106
	21.390000	-0.334979
	21.395000	-0.415563
	21.400000	-0.483253
	21.405000	-0.409116
	21.410000	-0.363989
	21.415000	-0.441349
	21.420000	-0.509040
	21.425000	-0.434903
	21.430000	-0.380106
	21.435000	-0.470360
	21.440000	-0.531603
	21.445000	-0.460690
	21.450000	-0.409116
	21.455000	-0.489700
	21.460000	-0.560614
	21.465000	-0.476806
	21.470000	-0.422009
	21.475000	-0.509040
	21.480000	-0.579954
	21.485000	-0.499370
	21.490000	-0.451019
	21.495000	-0.531603
	21.500000	-0.599294
	21.505000	-0.518710
	21.510000	-0.470360
	21.515000	-0.550944
	21.520000	-0.621858
	21.525000	-0.538050
	21.530000	-0.483253
	21.535000	-0.573507
	21.540000	-0.641198
	21.545000	-0.563837
	21.550000	-0.512263
	21.555000	-0.592847
	21.560000	-0.663761
	21.565000	-0.586401
	21.570000	-0.531603
	21.575000	-0.628304
	21.580000	-0.689548
	21.585000	-0.608964
	21.590000	-0.560614
	21.595000	-0.654091
	21.600000	-0.712112
	21.605000	-0.628304
	21.610000	-0.583177
	21.615000	-0.670208
	21.620000	-0.728228
	21.625000	-0.650868
	21.630000	-0.605741
	21.635000	-0.692771
	21.640000	-0.754015
	21.645000	-0.673431
	21.650000	-0.618634
	21.655000	-0.702441
	21.660000	-0.763685
	21.665000	-0.683101
	21.670000	-0.625081
	21.675000	-0.718558
	21.680000	-0.773355
	21.685000	-0.686325
	21.690000	-0.644421
	21.695000	-0.725005
	21.700000	-0.792696
	21.705000	-0.712112
	21.710000	-0.654091
	21.715000	-0.747569
	21.720000	-0.802366
	21.725000	-0.715335
	21.730000	-0.663761
	21.735000	-0.750792
	21.740000	-0.812036
	21.745000	-0.728228
	21.750000	-0.673431
	21.755000	-0.770132
	21.760000	-0.824929
	21.765000	-0.734675
	21.770000	-0.686325
	21.775000	-0.776579
	21.780000	-0.834599
	21.785000	-0.750792
	21.790000	-0.692771
	21.795000	-0.792696
	21.800000	-0.841046
	21.805000	-0.757239
	21.810000	-0.699218
	21.815000	-0.792696
	21.820000	-0.850716
	21.825000	-0.763685
	21.830000	-0.699218
	21.835000	-0.802366
	21.840000	-0.863609
	21.845000	-0.766909
	21.850000	-0.708888
	21.855000	-0.805589
	21.860000	-0.860386
	21.865000	-0.773355
	21.870000	-0.718558
	21.875000	-0.808812
	21.880000	-0.866833
	21.885000	-0.783025
	21.890000	-0.721782
	21.895000	-0.818482
	21.900000	-0.870056
	21.905000	-0.779802
	21.910000	-0.728228
	21.915000	-0.818482
	21.920000	-0.876503
	21.925000	-0.783025
	21.930000	-0.728228
	21.935000	-0.818482
	21.940000	-0.876503
	21.945000	-0.779802
	21.950000	-0.731452
	21.955000	-0.824929
	21.960000	-0.882950
	21.965000	-0.792696
	21.970000	-0.731452
	21.975000	-0.828152
	21.980000	-0.876503
	21.985000	-0.783025
	21.990000	-0.731452
	21.995000	-0.821706
	22.000000	-0.879726
	22.005000	-0.789472
	22.010000	-0.728228
	22.015000	-0.828152
	22.020000	-0.876503
	22.025000	-0.779802
	22.030000	-0.728228
	22.035000	-0.828152
	22.040000	-0.876503
	22.045000	-0.783025
	22.050000	-0.734675
	22.055000	-0.824929
	22.060000	-0.876503
	22.065000	-0.783025
	22.070000	-0.728228
	22.075000	-0.824929
	22.080000	-0.876503
	22.085000	-0.776579
	22.090000	-0.721782
	22.095000	-0.821706
	22.100000	-0.873280
	22.105000	-0.776579
	22.110000	-0.725005
	22.115000	-0.818482
	22.120000	-0.876503
	22.125000	-0.770132
	22.130000	-0.718558
	22.135000	-0.821706
	22.140000	-0.870056
	22.145000	-0.766909
	22.150000	-0.721782
	22.155000	-0.815259
	22.160000	-0.866833
	22.165000	-0.766909
	22.170000	-0.715335
	22.175000	-0.815259
	22.180000	-0.860386
	22.185000	-0.773355
	22.190000	-0.715335
	22.195000	-0.815259
	22.200000	-0.863609
	22.205000	-0.766909
	22.210000	-0.708888
	22.215000	-0.815259
	22.220000	-0.866833
	22.225000	-0.766909
	22.230000	-0.712112
	22.235000	-0.815259
	22.240000	-0.860386
	22.245000	-0.760462
	22.250000	-0.715335
	22.255000	-0.812036
	22.260000	-0.857163
	22.265000	-0.760462
	22.270000	-0.708888
	22.275000	-0.805589
	22.280000	-0.857163
	22.285000	-0.760462
	22.290000	-0.708888
	22.295000	-0.805589
	22.300000	-0.860386
	22.305000	-0.757239
	22.310000	-0.702441
	22.315000	-0.808812
	22.320000	-0.853939
	22.325000	-0.754015
	22.330000	-0.702441
	22.335000	-0.808812
	22.340000	-0.853939
	22.345000	-0.754015
	22.350000	-0.699218
	22.355000	-0.805589
	22.360000	-0.847493
	22.365000	-0.750792
	22.370000	-0.702441
	22.375000	-0.802366
	22.380000	-0.850716
	22.385000	-0.744345
	22.390000	-0.702441
	22.395000	-0.799142
	22.400000	-0.844269
	22.405000	-0.747569
	22.410000	-0.695995
	22.415000	-0.802366
	22.420000	-0.841046
	22.425000	-0.737898
	22.430000	-0.692771
	22.435000	-0.799142
	22.440000	-0.844269
	22.445000	-0.734675
	22.450000	-0.689548
	22.455000	-0.792696
	22.460000	-0.834599
	22.465000	-0.734675
	22.470000	-0.686325
	22.475000	-0.795919
	22.480000	-0.828152
	22.485000	-0.728228
	22.490000	-0.686325
	22.495000	-0.779802
	22.500000	-0.834599
	22.505000	-0.725005
	22.510000	-0.683101
	22.515000	-0.779802
	22.520000	-0.824929
	22.525000	-0.725005
	22.530000	-0.676655
	22.535000	-0.786249
	22.540000	-0.824929
	22.545000	-0.715335
	22.550000	-0.679878
	22.555000	-0.779802
	22.560000	-0.824929
	22.565000	-0.721782
	22.570000	-0.676655
	22.575000	-0.783025
	22.580000	-0.821706
	22.585000	-0.712112
	22.590000	-0.676655
	22.595000	-0.779802
	22.600000	-0.815259
	22.605000	-0.715335
	22.610000	-0.676655
	22.615000	-0.776579
	22.620000	-0.818482
	22.625000	-0.712112
	22.630000	-0.673431
	22.635000	-0.770132
	22.640000	-0.818482
	22.645000	-0.705665
	22.650000	-0.670208
	22.655000	-0.779802
	22.660000	-0.808812
	22.665000	-0.712112
	22.670000	-0.666985
	22.675000	-0.773355
	22.680000	-0.815259
	22.685000	-0.712112
	22.690000	-0.670208
	22.695000	-0.773355
	22.700000	-0.815259
	22.705000	-0.705665
	22.710000	-0.663761
	22.715000	-0.770132
	22.720000	-0.808812
	22.725000	-0.708888
	22.730000	-0.663761
	22.735000	-0.770132
	22.740000	-0.812036
	22.745000	-0.705665
	22.750000	-0.666985
	22.755000	-0.766909
	22.760000	-0.805589
	22.765000	-0.702441
	22.770000	-0.670208
	22.775000	-0.773355
	22.780000	-0.805589
	22.785000	-0.702441
	22.790000	-0.663761
	22.795000	-0.773355
	22.800000	-0.808812
	22.805000	-0.705665
	22.810000	-0.663761
	22.815000	-0.770132
	22.820000	-0.802366
	22.825000	-0.702441
	22.830000	-0.670208
	22.835000	-0.766909
	22.840000	-0.812036
	22.845000	-0.699218
	22.850000	-0.660538
	22.855000	-0.773355
	22.860000	-0.808812
	22.865000	-0.695995
	22.870000	-0.660538
	22.875000	-0.766909
	22.880000	-0.795919
	22.885000	-0.695995
	22.890000	-0.660538
	22.895000	-0.773355
	22.900000	-0.802366
	22.905000	-0.699218
	22.910000	-0.663761
	22.915000	-0.766909
	22.920000	-0.802366
	22.925000	-0.689548
	22.930000	-0.666985
	22.935000	-0.770132
	22.940000	-0.795919
	22.945000	-0.689548
	22.950000	-0.663761
	22.955000	-0.766909
	22.960000	-0.802366
	22.965000	-0.689548
	22.970000	-0.660538
	22.975000	-0.770132
	22.980000	-0.799142
	22.985000	-0.692771
	22.990000	-0.657314
	22.995000	-0.763685
	23.000000	-0.802366
	23.005000	-0.692771
	23.010000	-0.660538
	23.015000	-0.770132
	23.020000	-0.792696
	23.025000	-0.692771
	23.030000	-0.657314
	23.035000	-0.770132
	23.040000	-0.792696
	23.045000	-0.692771
	23.050000	-0.660538
	23.055000	-0.763685
	23.060000	-0.792696
	23.065000	-0.679878
	23.070000	-0.657314
	23.075000	-0.763685
	23.080000	-0.789472
	23.085000	-0.679878
	23.090000	-0.650868
	23.095000	-0.760462
	23.100000	-0.792696
	23.105000	-0.683101
	23.110000	-0.660538
	23.115000	-0.763685
	23.120000	-0.789472
	23.125000	-0.686325
	23.130000	-0.657314
	23.135000	-0.754015
	23.140000	-0.783025
	23.145000	-0.679878
	23.150000	-0.657314
	23.155000	-0.757239
	23.160000	-0.786249
	23.165000	-0.679878
	23.170000	-0.650868
	23.175000	-0.757239
	23.180000	-0.783025
	23.185000	-0.676655
	23.190000	-0.650868
	23.195000	-0.760462
	23.200000	-0.783025
	23.205000	-0.670208
	23.210000	-0.647644
	23.215000	-0.754015
	23.220000	-0.776579
	23.225000	-0.666985
	23.230000	-0.644421
	23.235000	-0.757239
	23.240000	-0.773355
	23.245000	-0.663761
	23.250000	-0.644421
	23.255000	-0.754015
	23.260000	-0.773355
	23.265000	-0.660538
	23.270000	-0.641198
	23.275000	-0.747569
	23.280000	-0.766909
	23.285000	-0.666985
	23.290000	-0.641198
	23.295000	-0.750792
	23.300000	-0.773355
	23.305000	-0.670208
	23.310000	-0.641198
	23.315000	-0.747569
	23.320000	-0.773355
	23.325000	-0.663761
	23.330000	-0.637974
	23.335000	-0.750792
	23.340000	-0.776579
	23.345000	-0.673431
	23.350000	-0.650868
	23.355000	-0.766909
	23.360000	-0.786249
	23.365000	-0.676655
	23.370000	-0.657314
	23.375000	-0.766909
	23.380000	-0.795919
	23.385000	-0.683101
	23.390000	-0.657314
	23.395000	-0.763685
	23.400000	-0.779802
	23.405000	-0.670208
	23.410000	-0.637974
	23.415000	-0.744345
	23.420000	-0.763685
	23.425000	-0.644421
	23.430000	-0.615411
	23.435000	-0.715335
	23.440000	-0.725005
	23.445000	-0.605741
	23.450000	-0.579954
	23.455000	-0.673431
	23.460000	-0.679878
	23.465000	-0.560614
	23.470000	-0.521933
	23.475000	-0.612187
	23.480000	-0.615411
	23.485000	-0.499370
	23.490000	-0.460690
	23.495000	-0.547720
	23.500000	-0.554167
	23.505000	-0.425233
	23.510000	-0.396222
	23.515000	-0.480030
	23.520000	-0.483253
	23.525000	-0.363989
	23.530000	-0.334979
	23.535000	-0.422009
	23.540000	-0.422009
	23.545000	-0.312415
	23.550000	-0.289852
	23.555000	-0.370436
	23.560000	-0.380106
	23.565000	-0.264065
	23.570000	-0.238278
	23.575000	-0.331755
	23.580000	-0.334979
	23.585000	-0.225384
	23.590000	-0.199597
	23.595000	-0.293075
	23.600000	-0.302745
	23.605000	-0.189927
	23.610000	-0.170587
	23.615000	-0.267288
	23.620000	-0.276958
	23.625000	-0.170587
	23.630000	-0.154470
	23.635000	-0.244725
	23.640000	-0.257618
	23.645000	-0.157694
	23.650000	-0.148024
	23.655000	-0.238278
	23.660000	-0.251171
	23.665000	-0.154470
	23.670000	-0.138354
	23.675000	-0.235054
	23.680000	-0.251171
	23.685000	-0.148024
	23.690000	-0.135130
	23.695000	-0.231831
	23.700000	-0.251171
	23.705000	-0.151247
	23.710000	-0.141577
	23.715000	-0.247948
	23.720000	-0.251171
	23.725000	-0.160917
	23.730000	-0.138354
	23.735000	-0.244725
	23.740000	-0.264065
	23.745000	-0.164141
	23.750000	-0.148024
	23.755000	-0.251171
	23.760000	-0.267288
	23.765000	-0.170587
	23.770000	-0.157694
	23.775000	-0.264065
	23.780000	-0.276958
	23.785000	-0.173811
	23.790000	-0.167364
	23.795000	-0.273735
	23.800000	-0.283405
	23.805000	-0.183481
	23.810000	-0.177034
	23.815000	-0.283405
	23.820000	-0.302745
	23.825000	-0.193151
	23.830000	-0.189927
	23.835000	-0.293075
	23.840000	-0.312415
	23.845000	-0.206044
	23.850000	-0.202821
	23.855000	-0.299522
	23.860000	-0.315638
	23.865000	-0.215714
	23.870000	-0.215714
	23.875000	-0.318862
	23.880000	-0.325308
	23.885000	-0.228608
	23.890000	-0.225384
	23.895000	-0.325308
	23.900000	-0.334979
	23.905000	-0.238278
	23.910000	-0.228608
	23.915000	-0.331755
	23.920000	-0.341425
	23.925000	-0.244725
	23.930000	-0.241501
	23.935000	-0.341425
	23.940000	-0.344649
	23.945000	-0.251171
	23.950000	-0.241501
	23.955000	-0.341425
	23.960000	-0.351095
	23.965000	-0.244725
	23.970000	-0.235054
	23.975000	-0.331755
	23.980000	-0.347872
	23.985000	-0.241501
	23.990000	-0.238278
	23.995000	-0.328532
	24.000000	-0.334979
	24.005000	-0.231831
	24.010000	-0.218938
	24.015000	-0.322085
	24.020000	-0.322085
	24.025000	-0.225384
	24.030000	-0.222161
	24.035000	-0.318862
	24.040000	-0.325308
	24.045000	-0.225384
	24.050000	-0.218938
	24.055000	-0.325308
	24.060000	-0.331755
	24.065000	-0.228608
	24.070000	-0.228608
	24.075000	-0.341425
	24.080000	-0.344649
	24.085000	-0.257618
	24.090000	-0.247948
	24.095000	-0.357542
	24.100000	-0.367212
	24.105000	-0.273735
	24.110000	-0.280181
	24.115000	-0.389776
	24.120000	-0.402669
	24.125000	-0.312415
	24.130000	-0.322085
	24.135000	-0.431679
	24.140000	-0.447796
	24.145000	-0.357542
	24.150000	-0.367212
	24.155000	-0.489700
	24.160000	-0.502593
	24.165000	-0.418786
	24.170000	-0.431679
	24.175000	-0.544497
	24.180000	-0.560614
	24.185000	-0.467136
	24.190000	-0.483253
	24.195000	-0.599294
	24.200000	-0.612187
	24.205000	-0.528380
	24.210000	-0.538050
	24.215000	-0.657314
	24.220000	-0.663761
	24.225000	-0.579954
	24.230000	-0.592847
	24.235000	-0.708888
	24.240000	-0.725005
	24.245000	-0.631528
	24.250000	-0.647644
	24.255000	-0.757239
	24.260000	-0.763685
	24.265000	-0.663761
	24.270000	-0.676655
	24.275000	-0.789472
	24.280000	-0.799142
	24.285000	-0.699218
	24.290000	-0.702441
	24.295000	-0.815259
	24.300000	-0.821706
	24.305000	-0.715335
	24.310000	-0.725005
	24.315000	-0.834599
	24.320000	-0.834599
	24.325000	-0.725005
	24.330000	-0.734675
	24.335000	-0.847493
	24.340000	-0.847493
	24.345000	-0.750792
	24.350000	-0.754015
	24.355000	-0.857163
	24.360000	-0.857163
	24.365000	-0.757239
	24.370000	-0.770132
	24.375000	-0.876503
	24.380000	-0.876503
	24.385000	-0.773355
	24.390000	-0.776579
	24.395000	-0.886173
	24.400000	-0.886173
	24.405000	-0.789472
	24.410000	-0.792696
	24.415000	-0.905513
	24.420000	-0.902290
	24.425000	-0.795919
	24.430000	-0.805589
	24.435000	-0.915183
	24.440000	-0.915183
	24.445000	-0.805589
	24.450000	-0.815259
	24.455000	-0.928077
	24.460000	-0.924853
	24.465000	-0.818482
	24.470000	-0.818482
	24.475000	-0.937747
	24.480000	-0.928077
	24.485000	-0.821706
	24.490000	-0.828152
	24.495000	-0.940970
	24.500000	-0.937747
	24.505000	-0.824929
	24.510000	-0.831376
	24.515000	-0.944193
	24.520000	-0.940970
	24.525000	-0.834599
	24.530000	-0.841046
	24.535000	-0.950640
	24.540000	-0.944193
	24.545000	-0.834599
	24.550000	-0.841046
	24.555000	-0.963534
	24.560000	-0.940970
	24.565000	-0.837823
	24.570000	-0.850716
	24.575000	-0.953863
	24.580000	-0.947417
	24.585000	-0.834599
	24.590000	-0.841046
	24.595000	-0.947417
	24.600000	-0.940970
	24.605000	-0.837823
	24.610000	-0.844269
	24.615000	-0.950640
	24.620000	-0.947417
	24.625000	-0.828152
	24.630000	-0.837823
	24.635000	-0.957087
	24.640000	-0.937747
	24.645000	-0.828152
	24.650000	-0.841046
	24.655000	-0.957087
	24.660000	-0.940970
	24.665000	-0.831376
	24.670000	-0.841046
	24.675000	-0.947417
	24.680000	-0.937747
	24.685000	-0.824929
	24.690000	-0.834599
	24.695000	-0.947417
	24.700000	-0.934523
	24.705000	-0.818482
	24.710000	-0.828152
	24.715000	-0.947417
	24.720000	-0.931300
	24.725000	-0.815259
	24.730000	-0.824929
	24.735000	-0.944193
	24.740000	-0.928077
	24.745000	-0.815259
	24.750000	-0.824929
	24.755000	-0.931300
	24.760000	-0.921630
	24.765000	-0.808812
	24.770000	-0.821706
	24.775000	-0.934523
	24.780000	-0.915183
	24.785000	-0.805589
	24.790000	-0.815259
	24.795000	-0.928077
	24.800000	-0.911960
	24.805000	-0.802366
	24.810000	-0.812036
	24.815000	-0.924853
	24.820000	-0.915183
	24.825000	-0.792696
	24.830000	-0.815259
	24.835000	-0.921630
	24.840000	-0.908736
	24.845000	-0.789472
	24.850000	-0.802366
	24.855000	-0.918407
	24.860000	-0.902290
	24.865000	-0.789472
	24.870000	-0.799142
	24.875000	-0.911960
	24.880000	-0.899066
	24.885000	-0.783025
	24.890000	-0.805589
	24.895000	-0.918407
	24.900000	-0.895843
	24.905000	-0.779802
	24.910000	-0.795919
	24.915000	-0.908736
	24.920000	-0.895843
	24.925000	-0.773355
	24.930000	-0.795919
	24.935000	-0.908736
	24.940000	-0.882950
	24.945000	-0.779802
	24.950000	-0.789472
	24.955000	-0.905513
	24.960000	-0.886173
	24.965000	-0.773355
	24.970000	-0.795919
	24.975000	-0.902290
	24.980000	-0.886173
	24.985000	-0.770132
	24.990000	-0.786249
	24.995000	-0.905513
	25.000000	-0.882950
	25.005000	-0.770132
	25.010000	-0.786249
	25.015000	-0.895843
	25.020000	-0.873280
	25.025000	-0.770132
	25.030000	-0.786249
	25.035000	-0.899066
	25.040000	-0.876503
	25.045000	-0.766909
	25.050000	-0.783025
	25.055000	-0.899066
	25.060000	-0.876503
	25.065000	-0.763685
	25.070000	-0.789472
	25.075000	-0.899066
	25.080000	-0.873280
	25.085000	-0.770132
	25.090000	-0.783025
	25.095000	-0.895843
	25.100000	-0.873280
	25.105000	-0.763685
	25.110000	-0.779802
	25.115000	-0.895843
	25.120000	-0.873280
	25.125000	-0.760462
	25.130000	-0.776579
	25.135000	-0.892620
	25.140000	-0.876503
	25.145000	-0.760462
	25.150000	-0.783025
	25.155000	-0.889396
	25.160000	-0.866833
	25.165000	-0.760462
	25.170000	-0.779802
	25.175000	-0.889396
	25.180000	-0.870056
	25.185000	-0.760462
	25.190000	-0.779802
	25.195000	-0.889396
	25.200000	-0.857163
	25.205000	-0.754015
	25.210000	-0.779802
	25.215000	-0.889396
	25.220000	-0.866833
	25.225000	-0.754015
	25.230000	-0.773355
	25.235000	-0.886173
	25.240000	-0.863609
	25.245000	-0.754015
	25.250000	-0.779802
	25.255000	-0.886173
	25.260000	-0.860386
	25.265000	-0.750792
	25.270000	-0.776579
	25.275000	-0.886173
	25.280000	-0.860386
	25.285000	-0.750792
	25.290000	-0.776579
	25.295000	-0.889396
	25.300000	-0.857163
	25.305000	-0.744345
	25.310000	-0.773355
	25.315000	-0.889396
	25.320000	-0.857163
	25.325000	-0.747569
	25.330000	-0.773355
	25.335000	-0.886173
	25.340000	-0.857163
	25.345000	-0.750792
	25.350000	-0.773355
	25.355000	-0.886173
	25.360000	-0.857163
	25.365000	-0.741122
	25.370000	-0.773355
	25.375000	-0.876503
	25.380000	-0.853939
	25.385000	-0.744345
	25.390000	-0.773355
	25.395000	-0.886173
	25.400000	-0.863609
	25.405000	-0.747569
	25.410000	-0.770132
	25.415000	-0.882950
	25.420000	-0.857163
	25.425000	-0.744345
	25.430000	-0.776579
	25.435000	-0.882950
	25.440000	-0.850716
	25.445000	-0.744345
	25.450000	-0.770132
	25.455000	-0.879726
	25.460000	-0.850716
	25.465000	-0.744345
	25.470000	-0.770132
	25.475000	-0.882950
	25.480000	-0.850716
	25.485000	-0.744345
	25.490000	-0.773355
	25.495000	-0.879726
	25.500000	-0.844269
	25.505000	-0.744345
	25.510000	-0.770132
	25.515000	-0.876503
	25.520000	-0.847493
	25.525000	-0.741122
	25.530000	-0.766909
	25.535000	-0.882950
	25.540000	-0.844269
	25.545000	-0.737898
	25.550000	-0.770132
	25.555000	-0.882950
	25.560000	-0.847493
	25.565000	-0.731452
	25.570000	-0.760462
	25.575000	-0.870056
	25.580000	-0.837823
	25.585000	-0.734675
	25.590000	-0.766909
	25.595000	-0.876503
	25.600000	-0.844269
	25.605000	-0.734675
	25.610000	-0.766909
	25.615000	-0.873280
	25.620000	-0.837823
	25.625000	-0.734675
	25.630000	-0.760462
	25.635000	-0.873280
	25.640000	-0.831376
	25.645000	-0.725005
	25.650000	-0.757239
	25.655000	-0.870056
	25.660000	-0.834599
	25.665000	-0.725005
	25.670000	-0.766909
	25.675000	-0.870056
	25.680000	-0.831376
	25.685000	-0.721782
	25.690000	-0.763685
	25.695000	-0.866833
	25.700000	-0.831376
	25.705000	-0.728228
	25.710000	-0.760462
	25.715000	-0.866833
	25.720000	-0.824929
	25.725000	-0.721782
	25.730000	-0.754015
	25.735000	-0.863609
	25.740000	-0.821706
	25.745000	-0.721782
	25.750000	-0.754015
	25.755000	-0.863609
	25.760000	-0.815259
	25.765000	-0.718558
	25.770000	-0.754015
	25.775000	-0.857163
	25.780000	-0.824929
	25.785000	-0.715335
	25.790000	-0.754015
	25.795000	-0.860386
	25.800000	-0.818482
	25.805000	-0.715335
	25.810000	-0.750792
	25.815000	-0.853939
	25.820000	-0.821706
	25.825000	-0.718558
	25.830000	-0.754015
	25.835000	-0.857163
	25.840000	-0.821706
	25.845000	-0.712112
	25.850000	-0.754015
	25.855000	-0.860386
	25.860000	-0.818482
	25.865000	-0.708888
	25.870000	-0.754015
	25.875000	-0.857163
	25.880000	-0.818482
	25.885000	-0.712112
	25.890000	-0.747569
	25.895000	-0.853939
	25.900000	-0.818482
	25.905000	-0.712112
	25.910000	-0.750792
	25.915000	-0.857163
	25.920000	-0.815259
	25.925000	-0.715335
	25.930000	-0.747569
	25.935000	-0.863609
	25.940000	-0.824929
	25.945000	-0.708888
	25.950000	-0.750792
	25.955000	-0.857163
	25.960000	-0.815259
	25.965000	-0.705665
	25.970000	-0.747569
	25.975000	-0.857163
	25.980000	-0.812036
	25.985000	-0.708888
	25.990000	-0.741122
	25.995000	-0.850716
	26.000000	-0.808812
	26.005000	-0.705665
	26.010000	-0.741122
	26.015000	-0.850716
	26.020000	-0.802366
	26.025000	-0.702441
	26.030000	-0.744345
	26.035000	-0.847493
	26.040000	-0.808812
	26.045000	-0.702441
	26.050000	-0.741122
	26.055000	-0.847493
	26.060000	-0.802366
	26.065000	-0.695995
	26.070000	-0.744345
	26.075000	-0.844269
	26.080000	-0.802366
	26.085000	-0.695995
	26.090000	-0.737898
	26.095000	-0.841046
	26.100000	-0.802366
	26.105000	-0.695995
	26.110000	-0.741122
	26.115000	-0.844269
	26.120000	-0.802366
	26.125000	-0.695995
	26.130000	-0.741122
	26.135000	-0.841046
	26.140000	-0.799142
	26.145000	-0.692771
	26.150000	-0.741122
	26.155000	-0.844269
	26.160000	-0.792696
	26.165000	-0.695995
	26.170000	-0.731452
	26.175000	-0.837823
	26.180000	-0.799142
	26.185000	-0.689548
	26.190000	-0.734675
	26.195000	-0.837823
	26.200000	-0.789472
	26.205000	-0.683101
	26.210000	-0.737898
	26.215000	-0.841046
	26.220000	-0.789472
	26.225000	-0.689548
	26.230000	-0.734675
	26.235000	-0.837823
	26.240000	-0.786249
	26.245000	-0.683101
	26.250000	-0.734675
	26.255000	-0.831376
	26.260000	-0.792696
	26.265000	-0.686325
	26.270000	-0.741122
	26.275000	-0.834599
	26.280000	-0.789472
	26.285000	-0.679878
	26.290000	-0.728228
	26.295000	-0.824929
	26.300000	-0.786249
	26.305000	-0.683101
	26.310000	-0.731452
	26.315000	-0.828152
	26.320000	-0.773355
	26.325000	-0.679878
	26.330000	-0.725005
	26.335000	-0.828152
	26.340000	-0.783025
	26.345000	-0.676655
	26.350000	-0.728228
	26.355000	-0.824929
	26.360000	-0.779802
	26.365000	-0.673431
	26.370000	-0.725005
	26.375000	-0.818482
	26.380000	-0.776579
	26.385000	-0.676655
	26.390000	-0.728228
	26.395000	-0.824929
	26.400000	-0.776579
	26.405000	-0.676655
	26.410000	-0.721782
	26.415000	-0.821706
	26.420000	-0.773355
	26.425000	-0.676655
	26.430000	-0.721782
	26.435000	-0.824929
	26.440000	-0.783025
	26.445000	-0.673431
	26.450000	-0.725005
	26.455000	-0.828152
	26.460000	-0.773355
	26.465000	-0.673431
	26.470000	-0.728228
	26.475000	-0.824929
	26.480000	-0.776579
	26.485000	-0.679878
	26.490000	-0.731452
	26.495000	-0.824929
	26.500000	-0.776579
	26.505000	-0.676655
	26.510000	-0.721782
	26.515000	-0.831376
	26.520000	-0.773355
	26.525000	-0.679878
	26.530000	-0.725005
	26.535000	-0.824929
	26.540000	-0.786249
	26.545000	-0.683101
	26.550000	-0.731452
	26.555000	-0.831376
	26.560000	-0.776579
	26.565000	-0.679878
	26.570000	-0.728228
	26.575000	-0.828152
	26.580000	-0.776579
	26.585000	-0.673431
	26.590000	-0.728228
	26.595000	-0.831376
	26.600000	-0.779802
	26.605000	-0.679878
	26.610000	-0.737898
	26.615000	-0.834599
	26.620000	-0.783025
	26.625000	-0.679878
	26.630000	-0.737898
	26.635000	-0.834599
	26.640000	-0.783025
	26.645000	-0.686325
	26.650000	-0.741122
	26.655000	-0.834599
	26.660000	-0.786249
	26.665000	-0.695995
	26.670000	-0.750792
	26.675000	-0.857163
	26.680000	-0.805589
	26.685000	-0.708888
	26.690000	-0.763685
	26.695000	-0.866833
	26.700000	-0.815259
	26.705000	-0.718558
	26.710000	-0.773355
	26.715000	-0.873280
	26.720000	-0.815259
	26.725000	-0.712112
	26.730000	-0.773355
	26.735000	-0.866833
	26.740000	-0.799142
	26.745000	-0.702441
	26.750000	-0.754015
	26.755000	-0.853939
	26.760000	-0.779802
	26.765000	-0.670208
	26.770000	-0.725005
	26.775000	-0.802366
	26.780000	-0.741122
	26.785000	-0.631528
	26.790000	-0.673431
	26.795000	-0.760462
	26.800000	-0.689548
	26.805000	-0.579954
	26.810000	-0.631528
	26.815000	-0.708888
	26.820000	-0.644421
	26.825000	-0.544497
	26.830000	-0.583177
	26.835000	-0.670208
	26.840000	-0.602517
	26.845000	-0.496147
	26.850000	-0.547720
	26.855000	-0.631528
	26.860000	-0.570284
	26.865000	-0.467136
	26.870000	-0.509040
	26.875000	-0.592847
	26.880000	-0.534827
	26.885000	-0.428456
	26.890000	-0.470360
	26.895000	-0.550944
	26.900000	-0.483253
	26.905000	-0.373659
	26.910000	-0.415563
	26.915000	-0.496147
	26.920000	-0.431679
	26.925000	-0.328532
	26.930000	-0.370436
	26.935000	-0.444573
	26.940000	-0.376882
	26.945000	-0.283405
	26.950000	-0.331755
	26.955000	-0.409116
	26.960000	-0.351095
	26.965000	-0.254395
	26.970000	-0.309192
	26.975000	-0.396222
	26.980000	-0.331755
	26.985000	-0.247948
	26.990000	-0.302745
	26.995000	-0.386552
	27.000000	-0.331755
	27.005000	-0.241501
	27.010000	-0.293075
	27.015000	-0.386552
	27.020000	-0.334979
	27.025000	-0.241501
	27.030000	-0.305968
	27.035000	-0.392999
	27.040000	-0.344649
	27.045000	-0.247948
	27.050000	-0.312415
	27.055000	-0.405892
	27.060000	-0.344649
	27.065000	-0.264065
	27.070000	-0.318862
	27.075000	-0.409116
	27.080000	-0.351095
	27.085000	-0.267288
	27.090000	-0.334979
	27.095000	-0.418786
	27.100000	-0.363989
	27.105000	-0.273735
	27.110000	-0.341425
	27.115000	-0.428456
	27.120000	-0.373659
	27.125000	-0.289852
	27.130000	-0.347872
	27.135000	-0.438126
	27.140000	-0.376882
	27.145000	-0.293075
	27.150000	-0.351095
	27.155000	-0.444573
	27.160000	-0.383329
	27.165000	-0.302745
	27.170000	-0.360765
	27.175000	-0.451019
	27.180000	-0.396222
	27.185000	-0.309192
	27.190000	-0.367212
	27.195000	-0.457466
	27.200000	-0.396222
	27.205000	-0.315638
	27.210000	-0.373659
	27.215000	-0.463913
	27.220000	-0.402669
	27.225000	-0.315638
	27.230000	-0.380106
	27.235000	-0.463913
	27.240000	-0.405892
	27.245000	-0.328532
	27.250000	-0.389776
	27.255000	-0.470360
	27.260000	-0.415563
	27.265000	-0.331755
	27.270000	-0.383329
	27.275000	-0.480030
	27.280000	-0.415563
	27.285000	-0.334979
	27.290000	-0.396222
	27.295000	-0.486476
	27.300000	-0.425233
	27.305000	-0.344649
	27.310000	-0.402669
	27.315000	-0.489700
	27.320000	-0.425233
	27.325000	-0.351095
	27.330000	-0.409116
	27.335000	-0.492923
	27.340000	-0.431679
	27.345000	-0.354319
	27.350000	-0.409116
	27.355000	-0.496147
	27.360000	-0.434903
	27.365000	-0.354319
	27.370000	-0.412339
	27.375000	-0.499370
	27.380000	-0.441349
	27.385000	-0.363989
	27.390000	-0.412339
	27.395000	-0.502593
	27.400000	-0.438126
	27.405000	-0.363989
	27.410000	-0.425233
	27.415000	-0.505817
	27.420000	-0.444573
	27.425000	-0.367212
	27.430000	-0.425233
	27.435000	-0.515487
	27.440000	-0.451019
	27.445000	-0.373659
	27.450000	-0.438126
	27.455000	-0.521933
	27.460000	-0.463913
	27.465000	-0.376882
	27.470000	-0.441349
	27.475000	-0.531603
	27.480000	-0.463913
	27.485000	-0.386552
	27.490000	-0.451019
	27.495000	-0.544497
	27.500000	-0.476806
	27.505000	-0.409116
	27.510000	-0.470360
	27.515000	-0.560614
	27.520000	-0.505817
	27.525000	-0.428456
	27.530000	-0.496147
	27.535000	-0.586401
	27.540000	-0.525157
	27.545000	-0.451019
	27.550000	-0.525157
	27.555000	-0.605741
	27.560000	-0.557390
	27.565000	-0.483253
	27.570000	-0.560614
	27.575000	-0.654091
	27.580000	-0.586401
	27.585000	-0.518710
	27.590000	-0.599294
	27.595000	-0.686325
	27.600000	-0.628304
	27.605000	-0.563837
	27.610000	-0.634751
	27.615000	-0.721782
	27.620000	-0.663761
	27.625000	-0.592847
	27.630000	-0.673431
	27.635000	-0.750792
	27.640000	-0.689548
	27.645000	-0.621858
	27.650000	-0.689548
	27.655000	-0.779802
	27.660000	-0.718558
	27.665000	-0.644421
	27.670000	-0.712112
	27.675000	-0.795919
	27.680000	-0.737898
	27.685000	-0.663761
	27.690000	-0.731452
	27.695000	-0.821706
	27.700000	-0.757239
	27.705000	-0.679878
	27.710000	-0.750792
	27.715000	-0.837823
	27.720000	-0.776579
	27.725000	-0.699218
	27.730000	-0.773355
	27.735000	-0.857163
	27.740000	-0.786249
	27.745000	-0.715335
	27.750000	-0.786249
	27.755000	-0.873280
	27.760000	-0.802366
	27.765000	-0.725005
	27.770000	-0.805589
	27.775000	-0.889396
	27.780000	-0.824929
	27.785000	-0.737898
	27.790000	-0.818482
	27.795000	-0.902290
	27.800000	-0.841046
	27.805000	-0.763685
	27.810000	-0.834599
	27.815000	-0.921630
	27.820000	-0.860386
	27.825000	-0.776579
	27.830000	-0.850716
	27.835000	-0.934523
	27.840000	-0.863609
	27.845000	-0.795919
	27.850000	-0.866833
	27.855000	-0.950640
	27.860000	-0.882950
	27.865000	-0.808812
	27.870000	-0.879726
	27.875000	-0.960310
	27.880000	-0.899066
	27.885000	-0.821706
	27.890000	-0.895843
	27.895000	-0.976427
	27.900000	-0.905513
	27.905000	-0.828152
	27.910000	-0.908736
	27.915000	-0.989320
	27.920000	-0.915183
	27.925000	-0.837823
	27.930000	-0.908736
	27.935000	-0.998991
	27.940000	-0.918407
	27.945000	-0.841046
	27.950000	-0.918407
	27.955000	-0.998991
	27.960000	-0.924853
	27.965000	-0.847493
	27.970000	-0.931300
	27.975000	-1.005437
	27.980000	-0.931300
	27.985000	-0.853939
	27.990000	-0.931300
	27.995000	-1.008661
	28.000000	-0.937747
	28.005000	-0.853939
	28.010000	-0.931300
	28.015000	-1.015107
	28.020000	-0.937747
	28.025000	-0.853939
	28.030000	-0.934523
	28.035000	-1.018331
	28.040000	-0.940970
	28.045000	-0.860386
	28.050000	-0.940970
	28.055000	-1.018331
	28.060000	-0.944193
	28.065000	-0.863609
	28.070000	-0.940970
	28.075000	-1.018331
	28.080000	-0.947417
	28.085000	-0.873280
	28.090000	-0.947417
	28.095000	-1.024777
	28.100000	-0.947417
	28.105000	-0.870056
	28.110000	-0.950640
	28.115000	-1.024777
	28.120000	-0.947417
	28.125000	-0.857163
	28.130000	-0.940970
	28.135000	-1.028001
	28.140000	-0.947417
	28.145000	-0.873280
	28.150000	-0.950640
	28.155000	-1.028001
	28.160000	-0.947417
	28.165000	-0.870056
	28.170000	-0.944193
	28.175000	-1.024777
	28.180000	-0.940970
	28.185000	-0.870056
	28.190000	-0.947417
	28.195000	-1.031224
	28.200000	-0.947417
	28.205000	-0.863609
	28.210000	-0.947417
	28.215000	-1.031224
	28.220000	-0.944193
	28.225000	-0.863609
	28.230000	-0.944193
	28.235000	-1.024777
	28.240000	-0.944193
	28.245000	-0.863609
	28.250000	-0.947417
	28.255000	-1.021554
	28.260000	-0.940970
	28.265000	-0.870056
	28.270000	-0.947417
	28.275000	-1.028001
	28.280000	-0.944193
	28.285000	-0.860386
	28.290000	-0.937747
	28.295000	-1.021554
	28.300000	-0.940970
	28.305000	-0.863609
	28.310000	-0.940970
	28.315000	-1.018331
	28.320000	-0.937747
	28.325000	-0.850716
	28.330000	-0.937747
	28.335000	-1.015107
	28.340000	-0.934523
	28.345000	-0.857163
	28.350000	-0.940970
	28.355000	-1.024777
	28.360000	-0.931300
	28.365000	-0.853939
	28.370000	-0.934523
	28.375000	-1.015107
	28.380000	-0.924853
	28.385000	-0.847493
	28.390000	-0.931300
	28.395000	-1.008661
	28.400000	-0.921630
	28.405000	-0.850716
	28.410000	-0.934523
	28.415000	-1.005437
	28.420000	-0.918407
	28.425000	-0.841046
	28.430000	-0.928077
	28.435000	-1.005437
	28.440000	-0.924853
	28.445000	-0.837823
	28.450000	-0.931300
	28.455000	-1.002214
	28.460000	-0.911960
	28.465000	-0.837823
	28.470000	-0.924853
	28.475000	-0.998991
	28.480000	-0.908736
	28.485000	-0.841046
	28.490000	-0.928077
	28.495000	-0.998991
	28.500000	-0.905513
	28.505000	-0.837823
	28.510000	-0.921630
	28.515000	-0.989320
	28.520000	-0.905513
	28.525000	-0.824929
	28.530000	-0.915183
	28.535000	-0.986097
	28.540000	-0.899066
	28.545000	-0.831376
	28.550000	-0.915183
	28.555000	-0.989320
	28.560000	-0.899066
	28.565000	-0.821706
	28.570000	-0.908736
	28.575000	-0.982874
	28.580000	-0.886173
	28.585000	-0.821706
	28.590000	-0.908736
	28.595000	-0.982874
	28.600000	-0.892620
	28.605000	-0.821706
	28.610000	-0.911960
	28.615000	-0.982874
	28.620000	-0.895843
	28.625000	-0.821706
	28.630000	-0.911960
	28.635000	-0.979650
	28.640000	-0.889396
	28.645000	-0.821706
	28.650000	-0.905513
	28.655000	-0.979650
	28.660000	-0.886173
	28.665000	-0.818482
	28.670000	-0.905513
	28.675000	-0.982874
	28.680000	-0.889396
	28.685000	-0.815259
	28.690000	-0.902290
	28.695000	-0.973204
	28.700000	-0.892620
	28.705000	-0.808812
	28.710000	-0.902290
	28.715000	-0.973204
	28.720000	-0.879726
	28.725000	-0.815259
	28.730000	-0.902290
	28.735000	-0.969980
	28.740000	-0.876503
	28.745000	-0.812036
	28.750000	-0.902290
	28.755000	-0.966757
	28.760000	-0.873280
	28.765000	-0.805589
	28.770000	-0.899066
	28.775000	-0.966757
	28.780000	-0.879726
	28.785000	-0.805589
	28.790000	-0.895843
	28.795000	-0.973204
	28.800000	-0.876503
	28.805000	-0.808812
	28.810000	-0.902290
	28.815000	-0.966757
	28.820000	-0.876503
	28.825000	-0.802366
	28.830000	-0.889396
	28.835000	-0.963534
	28.840000	-0.873280
	28.845000	-0.805589
	28.850000	-0.892620
	28.855000	-0.960310
	28.860000	-0.866833
	28.865000	-0.799142
	28.870000	-0.892620
	28.875000	-0.963534
	28.880000	-0.870056
	28.885000	-0.802366
	28.890000	-0.892620
	28.895000	-0.957087
	28.900000	-0.873280
	28.905000	-0.799142
	28.910000	-0.882950
	28.915000	-0.957087
	28.920000	-0.863609
	28.925000	-0.799142
	28.930000	-0.889396
	28.935000	-0.957087
	28.940000	-0.863609
	28.945000	-0.795919
	28.950000	-0.892620
	28.955000	-0.950640
	28.960000	-0.866833
	28.965000	-0.799142
	28.970000	-0.889396
	28.975000	-0.953863
	28.980000	-0.866833
	28.985000	-0.795919
	28.990000	-0.892620
	28.995000	-0.957087
	29.000000	-0.866833
	29.005000	-0.799142
	29.010000	-0.889396
	29.015000	-0.953863
	29.020000	-0.860386
	29.025000	-0.795919
	29.030000	-0.892620
	29.035000	-0.950640
	29.040000	-0.860386
	29.045000	-0.799142
	29.050000	-0.886173
	29.055000	-0.957087
	29.060000	-0.853939
	29.065000	-0.789472
	29.070000	-0.886173
	29.075000	-0.953863
	29.080000	-0.860386
	29.085000	-0.792696
	29.090000	-0.879726
	29.095000	-0.953863
	29.100000	-0.853939
	29.105000	-0.789472
	29.110000	-0.889396
	29.115000	-0.947417
	29.120000	-0.850716
	29.125000	-0.799142
	29.130000	-0.882950
	29.135000	-0.944193
	29.140000	-0.850716
	29.145000	-0.792696
	29.150000	-0.889396
	29.155000	-0.944193
	29.160000	-0.850716
	29.165000	-0.795919
	29.170000	-0.889396
	29.175000	-0.944193
	29.180000	-0.847493
	29.185000	-0.786249
	29.190000	-0.886173
	29.195000	-0.950640
	29.200000	-0.847493
	29.205000	-0.786249
	29.210000	-0.886173
	29.215000	-0.940970
	29.220000	-0.853939
	29.225000	-0.786249
	29.230000	-0.882950
	29.235000	-0.947417
	29.240000	-0.847493
	29.245000	-0.789472
	29.250000	-0.886173
	29.255000	-0.947417
	29.260000	-0.847493
	29.265000	-0.786249
	29.270000	-0.882950
	29.275000	-0.940970
	29.280000	-0.847493
	29.285000	-0.789472
	29.290000	-0.889396
	29.295000	-0.950640
	29.300000	-0.847493
	29.305000	-0.789472
	29.310000	-0.889396
	29.315000	-0.947417
	29.320000	-0.844269
	29.325000	-0.786249
	29.330000	-0.886173
	29.335000	-0.940970
	29.340000	-0.844269
	29.345000	-0.789472
	29.350000	-0.889396
	29.355000	-0.950640
	29.360000	-0.850716
	29.365000	-0.786249
	29.370000	-0.889396
	29.375000	-0.947417
	29.380000	-0.850716
	29.385000	-0.786249
	29.390000	-0.886173
	29.395000	-0.947417
	29.400000	-0.847493
	29.405000	-0.786249
	29.410000	-0.882950
	29.415000	-0.947417
	29.420000	-0.841046
	29.425000	-0.786249
	29.430000	-0.886173
	29.435000	-0.937747
	29.440000	-0.837823
	29.445000	-0.779802
	29.450000	-0.879726
	29.455000	-0.937747
	29.460000	-0.831376
	29.465000	-0.779802
	29.470000	-0.870056
	29.475000	-0.934523
	29.480000	-0.831376
	29.485000	-0.776579
	29.490000	-0.870056
	29.495000	-0.934523
	29.500000	-0.828152
	29.505000	-0.773355
	29.510000	-0.870056
	29.515000	-0.921630
	29.520000	-0.821706
	29.525000	-0.770132
	29.530000	-0.870056
	29.535000	-0.918407
	29.540000	-0.818482
	29.545000	-0.766909
	29.550000	-0.857163
	29.555000	-0.908736
	29.560000	-0.799142
	29.565000	-0.741122
	29.570000	-0.837823
	29.575000	-0.879726
	29.580000	-0.770132
	29.585000	-0.702441
	29.590000	-0.789472
	29.595000	-0.831376
	29.600000	-0.725005
	29.605000	-0.647644
	29.610000	-0.725005
	29.615000	-0.760462
	29.620000	-0.644421
	29.625000	-0.573507
	29.630000	-0.657314
	29.635000	-0.692771
	29.640000	-0.570284
	29.645000	-0.509040
	29.650000	-0.586401
	29.655000	-0.615411
	29.660000	-0.502593
	29.665000	-0.434903
	29.670000	-0.518710
	29.675000	-0.541274
	29.680000	-0.422009
	29.685000	-0.360765
	29.690000	-0.438126
	29.695000	-0.463913
	29.700000	-0.347872
	29.705000	-0.283405
	29.710000	-0.347872
	29.715000	-0.370436
	29.720000	-0.257618
	29.725000	-0.193151
	29.730000	-0.270511
	29.735000	-0.296298
	29.740000	-0.193151
	29.745000	-0.128684
	29.750000	-0.215714
	29.755000	-0.244725
	29.760000	-0.157694
	29.765000	-0.106120
	29.770000	-0.189927
	29.775000	-0.231831
	29.780000	-0.144800
	29.785000	-0.099673
	29.790000	-0.196374
	29.795000	-0.244725
	29.800000	-0.154470
	29.805000	-0.115790
	29.810000	-0.212491
	29.815000	-0.264065
	29.820000	-0.180257
	29.825000	-0.138354
	29.830000	-0.238278
	29.835000	-0.286628
	29.840000	-0.193151
	29.845000	-0.154470
	29.850000	-0.251171
	29.855000	-0.305968
	29.860000	-0.209268
	29.865000	-0.173811
	29.870000	-0.270511
	29.875000	-0.315638
	29.880000	-0.231831
	29.885000	-0.186704
	29.890000	-0.280181
	29.895000	-0.331755
	29.900000	-0.235054
	29.905000	-0.199597
	29.910000	-0.296298
	29.915000	-0.341425
	29.920000	-0.251171
	29.925000	-0.218938
	29.930000	-0.312415
	29.935000	-0.357542
	29.940000	-0.264065
	29.945000	-0.228608
	29.950000	-0.322085
	29.955000	-0.363989
	29.960000	-0.273735
	29.965000	-0.228608
	29.970000	-0.322085
	29.975000	-0.363989
	29.980000	-0.270511
	29.985000	-0.231831
	29.990000	-0.328532
	29.995000	-0.367212
	30.000000	-0.276958
	30.005000	-0.241501
	30.010000	-0.328532
	30.015000	-0.370436
	30.020000	-0.276958
	30.025000	-0.251171
	30.030000	-0.334979
	30.035000	-0.373659
	30.040000	-0.286628
	30.045000	-0.247948
	30.050000	-0.338202
	30.055000	-0.376882
	30.060000	-0.283405
	30.065000	-0.244725
	30.070000	-0.341425
	30.075000	-0.376882
	30.080000	-0.289852
	30.085000	-0.251171
	30.090000	-0.341425
	30.095000	-0.380106
	30.100000	-0.296298
	30.105000	-0.264065
	30.110000	-0.357542
	30.115000	-0.389776
	30.120000	-0.299522
	30.125000	-0.264065
	30.130000	-0.354319
	30.135000	-0.392999
	30.140000	-0.302745
	30.145000	-0.264065
	30.150000	-0.354319
	30.155000	-0.396222
	30.160000	-0.305968
	30.165000	-0.264065
	30.170000	-0.357542
	30.175000	-0.392999
	30.180000	-0.305968
	30.185000	-0.267288
	30.190000	-0.363989
	30.195000	-0.396222
	30.200000	-0.309192
	30.205000	-0.267288
	30.210000	-0.363989
	30.215000	-0.396222
	30.220000	-0.302745
	30.225000	-0.273735
	30.230000	-0.354319
	30.235000	-0.383329
	30.240000	-0.293075
	30.245000	-0.251171
	30.250000	-0.351095
	30.255000	-0.376882
	30.260000	-0.289852
	30.265000	-0.257618
	30.270000	-0.354319
	30.275000	-0.380106
	30.280000	-0.293075
	30.285000	-0.264065
	30.290000	-0.351095
	30.295000	-0.383329
	30.300000	-0.293075
	30.305000	-0.257618
	30.310000	-0.354319
	30.315000	-0.376882
	30.320000	-0.299522
	30.325000	-0.264065
	30.330000	-0.351095
	30.335000	-0.386552
	30.340000	-0.293075
	30.345000	-0.260841
	30.350000	-0.363989
	30.355000	-0.389776
	30.360000	-0.309192
	30.365000	-0.280181
	30.370000	-0.380106
	30.375000	-0.418786
	30.380000	-0.328532
	30.385000	-0.305968
	30.390000	-0.392999
	30.395000	-0.438126
	30.400000	-0.344649
	30.405000	-0.318862
	30.410000	-0.418786
	30.415000	-0.457466
	30.420000	-0.370436
	30.425000	-0.347872
	30.430000	-0.454243
	30.435000	-0.486476
	30.440000	-0.405892
	30.445000	-0.376882
	30.450000	-0.476806
	30.455000	-0.518710
	30.460000	-0.425233
	30.465000	-0.412339
	30.470000	-0.515487
	30.475000	-0.547720
	30.480000	-0.460690
	30.485000	-0.438126
	30.490000	-0.538050
	30.495000	-0.576730
	30.500000	-0.483253
	30.505000	-0.460690
	30.510000	-0.563837
	30.515000	-0.602517
	30.520000	-0.505817
	30.525000	-0.486476
	30.530000	-0.589624
	30.535000	-0.618634
	30.540000	-0.534827
	30.545000	-0.505817
	30.550000	-0.612187
	30.555000	-0.644421
	30.560000	-0.557390
	30.565000	-0.534827
	30.570000	-0.637974
	30.575000	-0.666985
	30.580000	-0.579954
	30.585000	-0.560614
	30.590000	-0.660538
	30.595000	-0.686325
	30.600000	-0.599294
	30.605000	-0.570284
	30.610000	-0.683101
	30.615000	-0.712112
	30.620000	-0.618634
	30.625000	-0.592847
	30.630000	-0.702441
	30.635000	-0.734675
	30.640000	-0.637974
	30.645000	-0.618634
	30.650000	-0.721782
	30.655000	-0.757239
	30.660000	-0.666985
	30.665000	-0.641198
	30.670000	-0.747569
	30.675000	-0.776579
	30.680000	-0.683101
	30.685000	-0.666985
	30.690000	-0.763685
	30.695000	-0.795919
	30.700000	-0.699218
	30.705000	-0.679878
	30.710000	-0.786249
	30.715000	-0.818482
	30.720000	-0.728228
	30.725000	-0.695995
	30.730000	-0.802366
	30.735000	-0.834599
	30.740000	-0.734675
	30.745000	-0.712112
	30.750000	-0.821706
	30.755000	-0.844269
	30.760000	-0.747569
	30.765000	-0.728228
	30.770000	-0.834599
	30.775000	-0.860386
	30.780000	-0.763685
	30.785000	-0.741122
	30.790000	-0.850716
	30.795000	-0.870056
	30.800000	-0.773355
	30.805000	-0.744345
	30.810000	-0.850716
	30.815000	-0.876503
	30.820000	-0.776579
	30.825000	-0.757239
	30.830000	-0.866833
	30.835000	-0.886173
	30.840000	-0.783025
	30.845000	-0.773355
	30.850000	-0.866833
	30.855000	-0.895843
	30.860000	-0.799142
	30.865000	-0.779802
	30.870000	-0.882950
	30.875000	-0.905513
	30.880000	-0.802366
	30.885000	-0.783025
	30.890000	-0.889396
	30.895000	-0.915183
	30.900000	-0.818482
	30.905000	-0.786249
	30.910000	-0.899066
	30.915000	-0.921630
	30.920000	-0.818482
	30.925000	-0.799142
	30.930000	-0.908736
	30.935000	-0.928077
	30.940000	-0.828152
	30.945000	-0.805589
	30.950000	-0.908736
	30.955000	-0.937747
	30.960000	-0.828152
	30.965000	-0.805589
	30.970000	-0.924853
	30.975000	-0.937747
	30.980000	-0.837823
	30.985000	-0.818482
	30.990000	-0.921630
	30.995000	-0.947417
	31.000000	-0.844269
	31.005000	-0.818482
	31.010000	-0.928077
	31.015000	-0.953863
	31.020000	-0.844269
	31.025000	-0.831376
	31.030000	-0.937747
	31.035000	-0.963534
	31.040000	-0.850716
	31.045000	-0.841046
	31.050000	-0.947417
	31.055000	-0.969980
	31.060000	-0.863609
	31.065000	-0.847493
	31.070000	-0.960310
	31.075000	-0.979650
	31.080000	-0.870056
	31.085000	-0.850716
	31.090000	-0.960310
	31.095000	-0.982874
	31.100000	-0.879726
	31.105000	-0.853939
	31.110000	-0.973204
	31.115000	-0.986097
	31.120000	-0.876503
	31.125000	-0.850716
	31.130000	-0.973204
	31.135000	-0.986097
	31.140000	-0.879726
	31.145000	-0.857163
	31.150000	-0.969980
	31.155000	-0.986097
	31.160000	-0.882950
	31.165000	-0.853939
	31.170000	-0.973204
	31.175000	-0.989320
	31.180000	-0.873280
	31.185000	-0.863609
	31.190000	-0.969980
	31.195000	-0.982874
	31.200000	-0.870056
	31.205000	-0.863609
	31.210000	-0.979650
	31.215000	-0.979650
	31.220000	-0.873280
	31.225000	-0.853939
	31.230000	-0.963534
	31.235000	-0.976427
	31.240000	-0.879726
	31.245000	-0.853939
	31.250000	-0.963534
	31.255000	-0.973204
	31.260000	-0.866833
	31.265000	-0.850716
	31.270000	-0.963534
	31.275000	-0.973204
	31.280000	-0.870056
	31.285000	-0.853939
	31.290000	-0.963534
	31.295000	-0.979650
	31.300000	-0.870056
	31.305000	-0.853939
	31.310000	-0.963534
	31.315000	-0.973204
	31.320000	-0.870056
	31.325000	-0.850716
	31.330000	-0.957087
	31.335000	-0.973204
	31.340000	-0.863609
	31.345000	-0.853939
	31.350000	-0.953863
	31.355000	-0.969980
	31.360000	-0.860386
	31.365000	-0.847493
	31.370000	-0.960310
	31.375000	-0.973204
	31.380000	-0.860386
	31.385000	-0.847493
	31.390000	-0.960310
	31.395000	-0.969980
	31.400000	-0.853939
	31.405000	-0.847493
	31.410000	-0.957087
	31.415000	-0.969980
	31.420000	-0.853939
	31.425000	-0.841046
	31.430000	-0.960310
	31.435000	-0.969980
	31.440000	-0.860386
	31.445000	-0.847493
	31.450000	-0.963534
	31.455000	-0.976427
	31.460000	-0.853939
	31.465000	-0.847493
	31.470000	-0.960310
	31.475000	-0.963534
	31.480000	-0.853939
	31.485000	-0.844269
	31.490000	-0.963534
	31.495000	-0.966757
	31.500000	-0.853939
	31.505000	-0.844269
	31.510000	-0.957087
	31.515000	-0.963534
	31.520000	-0.857163
	31.525000	-0.847493
	31.530000	-0.953863
	31.535000	-0.960310
	31.540000	-0.847493
	31.545000	-0.837823
	31.550000	-0.950640
	31.555000	-0.960310
	31.560000	-0.850716
	31.565000	-0.841046
	31.570000	-0.950640
	31.575000	-0.960310
	31.580000	-0.844269
	31.585000	-0.841046
	31.590000	-0.950640
	31.595000	-0.953863
	31.600000	-0.844269
	31.605000	-0.834599
	31.610000	-0.947417
	31.615000	-0.953863
	31.620000	-0.841046
	31.625000	-0.834599
	31.630000	-0.950640
	31.635000	-0.953863
	31.640000	-0.841046
	31.645000	-0.824929
	31.650000	-0.947417
	31.655000	-0.953863
	31.660000	-0.837823
	31.665000	-0.837823
	31.670000	-0.947417
	31.675000	-0.944193
	31.680000	-0.837823
	31.685000	-0.834599
	31.690000	-0.944193
	31.695000	-0.947417
	31.700000	-0.834599
	31.705000	-0.834599
	31.710000	-0.944193
	31.715000	-0.950640
	31.720000	-0.834599
	31.725000	-0.831376
	31.730000	-0.947417
	31.735000	-0.953863
	31.740000	-0.834599
	31.745000	-0.828152
	31.750000	-0.940970
	31.755000	-0.950640
	31.760000	-0.837823
	31.765000	-0.828152
	31.770000	-0.944193
	31.775000	-0.940970
	31.780000	-0.828152
	31.785000	-0.831376
	31.790000	-0.937747
	31.795000	-0.940970
	31.800000	-0.828152
	31.805000	-0.834599
	31.810000	-0.944193
	31.815000	-0.947417
	31.820000	-0.834599
	31.825000	-0.828152
	31.830000	-0.940970
	31.835000	-0.947417
	31.840000	-0.831376
	31.845000	-0.821706
	31.850000	-0.937747
	31.855000	-0.940970
	31.860000	-0.831376
	31.865000	-0.824929
	31.870000	-0.937747
	31.875000	-0.934523
	31.880000	-0.824929
	31.885000	-0.834599
	31.890000	-0.944193
	31.895000	-0.937747
	31.900000	-0.824929
	31.905000	-0.824929
	31.910000	-0.937747
	31.915000	-0.937747
	31.920000	-0.824929
	31.925000	-0.831376
	31.930000	-0.940970
	31.935000	-0.940970
	31.940000	-0.824929
	31.945000	-0.824929
	31.950000	-0.940970
	31.955000	-0.931300
	31.960000	-0.821706
	31.965000	-0.824929
	31.970000	-0.934523
	31.975000	-0.931300
	31.980000	-0.818482
	31.985000	-0.815259
	31.990000	-0.928077
	31.995000	-0.928077
	32.000000	-0.818482
	32.005000	-0.808812
	32.010000	-0.928077
	32.015000	-0.924853
	32.020000	-0.815259
	32.025000	-0.812036
	32.030000	-0.924853
	32.035000	-0.918407
	32.040000	-0.812036
	32.045000	-0.812036
	32.050000	-0.931300
	32.055000	-0.918407
	32.060000	-0.805589
	32.065000	-0.808812
	32.070000	-0.928077
	32.075000	-0.918407
	32.080000	-0.805589
	32.085000	-0.812036
	32.090000	-0.928077
	32.095000	-0.915183
	32.100000	-0.808812
	32.105000	-0.818482
	32.110000	-0.921630
	32.115000	-0.918407
	32.120000	-0.808812
	32.125000	-0.808812
	32.130000	-0.915183
	32.135000	-0.915183
	32.140000	-0.799142
	32.145000	-0.808812
	32.150000	-0.918407
	32.155000	-0.911960
	32.160000	-0.795919
	32.165000	-0.805589
	32.170000	-0.915183
	32.175000	-0.911960
	32.180000	-0.792696
	32.185000	-0.802366
	32.190000	-0.915183
	32.195000	-0.908736
	32.200000	-0.789472
	32.205000	-0.802366
	32.210000	-0.915183
	32.215000	-0.915183
	32.220000	-0.795919
	32.225000	-0.812036
	32.230000	-0.921630
	32.235000	-0.911960
	32.240000	-0.802366
	32.245000	-0.808812
	32.250000	-0.924853
	32.255000	-0.921630
	32.260000	-0.802366
	32.265000	-0.815259
	32.270000	-0.921630
	32.275000	-0.905513
	32.280000	-0.789472
	32.285000	-0.799142
	32.290000	-0.899066
	32.295000	-0.876503
	32.300000	-0.754015
	32.305000	-0.744345
	32.310000	-0.837823
	32.315000	-0.799142
	32.320000	-0.673431
	32.325000	-0.650868
	32.330000	-0.731452
	32.335000	-0.695995
	32.340000	-0.563837
	32.345000	-0.538050
	32.350000	-0.618634
	32.355000	-0.583177
	32.360000	-0.451019
	32.365000	-0.441349
	32.370000	-0.518710
	32.375000	-0.486476
	32.380000	-0.360765
	32.385000	-0.344649
	32.390000	-0.431679
	32.395000	-0.405892
	32.400000	-0.289852
	32.405000	-0.280181
	32.410000	-0.370436
	32.415000	-0.347872
	32.420000	-0.241501
	32.425000	-0.241501
	32.430000	-0.344649
	32.435000	-0.325308
	32.440000	-0.225384
	32.445000	-0.228608
	32.450000	-0.331755
	32.455000	-0.322085
	32.460000	-0.222161
	32.465000	-0.235054
	32.470000	-0.331755
	32.475000	-0.315638
	32.480000	-0.218938
	32.485000	-0.225384
	32.490000	-0.331755
	32.495000	-0.325308
	32.500000	-0.218938
	32.505000	-0.222161
	32.510000	-0.328532
	32.515000	-0.315638
	32.520000	-0.212491
	32.525000	-0.228608
	32.530000	-0.331755
	32.535000	-0.318862
	32.540000	-0.225384
	32.545000	-0.231831
	32.550000	-0.341425
	32.555000	-0.325308
	32.560000	-0.231831
	32.565000	-0.244725
	32.570000	-0.357542
	32.575000	-0.351095
	32.580000	-0.251171
	32.585000	-0.264065
	32.590000	-0.367212
	32.595000	-0.370436
	32.600000	-0.270511
	32.605000	-0.283405
	32.610000	-0.389776
	32.615000	-0.370436
	32.620000	-0.276958
	32.625000	-0.302745
	32.630000	-0.396222
	32.635000	-0.389776
	32.640000	-0.296298
	32.645000	-0.315638
	32.650000	-0.418786
	32.655000	-0.409116
	32.660000	-0.305968
	32.665000	-0.325308
	32.670000	-0.434903
	32.675000	-0.425233
	32.680000	-0.318862
	32.685000	-0.341425
	32.690000	-0.444573
	32.695000	-0.434903
	32.700000	-0.334979
	32.705000	-0.347872
	32.710000	-0.447796
	32.715000	-0.441349
	32.720000	-0.341425
	32.725000	-0.357542
	32.730000	-0.463913
	32.735000	-0.447796
	32.740000	-0.351095
	32.745000	-0.373659
	32.750000	-0.470360
	32.755000	-0.457466
	32.760000	-0.363989
	32.765000	-0.383329
	32.770000	-0.483253
	32.775000	-0.470360
	32.780000	-0.376882
	32.785000	-0.399446
	32.790000	-0.502593
	32.795000	-0.483253
	32.800000	-0.386552
	32.805000	-0.402669
	32.810000	-0.505817
	32.815000	-0.492923
	32.820000	-0.396222
	32.825000	-0.412339
	32.830000	-0.512263
	32.835000	-0.502593
	32.840000	-0.402669
	32.845000	-0.422009
	32.850000	-0.525157
	32.855000	-0.502593
	32.860000	-0.405892
	32.865000	-0.425233
	32.870000	-0.518710
	32.875000	-0.509040
	32.880000	-0.405892
	32.885000	-0.431679
	32.890000	-0.528380
	32.895000	-0.515487
	32.900000	-0.415563
	32.905000	-0.431679
	32.910000	-0.538050
	32.915000	-0.518710
	32.920000	-0.422009
	32.925000	-0.441349
	32.930000	-0.541274
	32.935000	-0.525157
	32.940000	-0.428456
	32.945000	-0.447796
	32.950000	-0.544497
	32.955000	-0.525157
	32.960000	-0.431679
	32.965000	-0.451019
	32.970000	-0.554167
	32.975000	-0.528380
	32.980000	-0.434903
	32.985000	-0.460690
	32.990000	-0.557390
	32.995000	-0.531603
	33.000000	-0.438126
	33.005000	-0.454243
	33.010000	-0.563837
	33.015000	-0.538050
	33.020000	-0.434903
	33.025000	-0.460690
	33.030000	-0.560614
	33.035000	-0.534827
	33.040000	-0.441349
	33.045000	-0.463913
	33.050000	-0.567060
	33.055000	-0.541274
	33.060000	-0.438126
	33.065000	-0.467136
	33.070000	-0.563837
	33.075000	-0.541274
	33.080000	-0.447796
	33.085000	-0.470360
	33.090000	-0.567060
	33.095000	-0.544497
	33.100000	-0.451019
	33.105000	-0.463913
	33.110000	-0.567060
	33.115000	-0.547720
	33.120000	-0.451019
	33.125000	-0.470360
	33.130000	-0.573507
	33.135000	-0.550944
	33.140000	-0.447796
	33.145000	-0.476806
	33.150000	-0.570284
	33.155000	-0.544497
	33.160000	-0.454243
	33.165000	-0.476806
	33.170000	-0.570284
	33.175000	-0.547720
	33.180000	-0.454243
	33.185000	-0.473583
	33.190000	-0.570284
	33.195000	-0.544497
	33.200000	-0.451019
	33.205000	-0.463913
	33.210000	-0.567060
	33.215000	-0.538050
	33.220000	-0.438126
	33.225000	-0.460690
	33.230000	-0.557390
	33.235000	-0.538050
	33.240000	-0.441349
	33.245000	-0.460690
	33.250000	-0.554167
	33.255000	-0.525157
	33.260000	-0.434903
	33.265000	-0.451019
	33.270000	-0.550944
	33.275000	-0.525157
	33.280000	-0.425233
	33.285000	-0.444573
	33.290000	-0.544497
	33.295000	-0.512263
	33.300000	-0.412339
	33.305000	-0.434903
	33.310000	-0.525157
	33.315000	-0.499370
	33.320000	-0.399446
	33.325000	-0.425233
	33.330000	-0.518710
	33.335000	-0.486476
	33.340000	-0.392999
	33.345000	-0.412339
	33.350000	-0.509040
	33.355000	-0.480030
	33.360000	-0.386552
	33.365000	-0.422009
	33.370000	-0.515487
	33.375000	-0.499370
	33.380000	-0.402669
	33.385000	-0.438126
	33.390000	-0.544497
	33.395000	-0.518710
	33.400000	-0.434903
	33.405000	-0.476806
	33.410000	-0.579954
	33.415000	-0.570284
	33.420000	-0.489700
	33.425000	-0.528380
	33.430000	-0.628304
	33.435000	-0.618634
	33.440000	-0.531603
	33.445000	-0.573507
	33.450000	-0.686325
	33.455000	-0.666985
	33.460000	-0.579954
	33.465000	-0.625081
	33.470000	-0.734675
	33.475000	-0.712112
	33.480000	-0.631528
	33.485000	-0.670208
	33.490000	-0.776579
	33.495000	-0.757239
	33.500000	-0.666985
	33.505000	-0.705665
	33.510000	-0.812036
	33.515000	-0.799142
	33.520000	-0.702441
	33.525000	-0.737898
	33.530000	-0.844269
	33.535000	-0.824929
	33.540000	-0.734675
	33.545000	-0.770132
	33.550000	-0.873280
	33.555000	-0.841046
	33.560000	-0.754015
	33.565000	-0.786249
	33.570000	-0.886173
	33.575000	-0.857163
	33.580000	-0.763685
	33.585000	-0.802366
	33.590000	-0.902290
	33.595000	-0.870056
	33.600000	-0.776579
	33.605000	-0.808812
	33.610000	-0.908736
	33.615000	-0.889396
	33.620000	-0.783025
	33.625000	-0.812036
	33.630000	-0.918407
	33.635000	-0.886173
	33.640000	-0.792696
	33.645000	-0.821706
	33.650000	-0.931300
	33.655000	-0.889396
	33.660000	-0.792696
	33.665000	-0.828152
	33.670000	-0.924853
	33.675000	-0.895843
	33.680000	-0.799142
	33.685000	-0.831376
	33.690000	-0.928077
	33.695000	-0.899066
	33.700000	-0.802366
	33.705000	-0.837823
	33.710000	-0.937747
	33.715000	-0.902290
	33.720000	-0.808812
	33.725000	-0.834599
	33.730000	-0.940970
	33.735000	-0.911960
	33.740000	-0.805589
	33.745000	-0.850716
	33.750000	-0.944193
	33.755000	-0.911960
	33.760000	-0.805589
	33.765000	-0.850716
	33.770000	-0.947417
	33.775000	-0.911960
	33.780000	-0.812036
	33.785000	-0.850716
	33.790000	-0.957087
	33.795000	-0.918407
	33.800000	-0.818482
	33.805000	-0.857163
	33.810000	-0.953863
	33.815000	-0.915183
	33.820000	-0.821706
	33.825000	-0.860386
	33.830000	-0.953863
	33.835000	-0.918407
	33.840000	-0.821706
	33.845000	-0.860386
	33.850000	-0.963534
	33.855000	-0.921630
	33.860000	-0.828152
	33.865000	-0.863609
	33.870000	-0.963534
	33.875000	-0.928077
	33.880000	-0.831376
	33.885000	-0.866833
	33.890000	-0.966757
	33.895000	-0.937747
	33.900000	-0.834599
	33.905000	-0.870056
	33.910000	-0.969980
	33.915000	-0.937747
	33.920000	-0.837823
	33.925000	-0.866833
	33.930000	-0.969980
	33.935000	-0.924853
	33.940000	-0.828152
	33.945000	-0.873280
	33.950000	-0.973204
	33.955000	-0.931300
	33.960000	-0.837823
	33.965000	-0.870056
	33.970000	-0.976427
	33.975000	-0.931300
	33.980000	-0.837823
	33.985000	-0.866833
	33.990000	-0.969980
	33.995000	-0.931300
	34.000000	-0.834599
	34.005000	-0.876503
	34.010000	-0.976427
	34.015000	-0.931300
	34.020000	-0.831376
	34.025000	-0.873280
	34.030000	-0.976427
	34.035000	-0.937747
	34.040000	-0.837823
	34.045000	-0.873280
	34.050000	-0.976427
	34.055000	-0.934523
	34.060000	-0.834599
	34.065000	-0.879726
	34.070000	-0.976427
	34.075000	-0.937747
	34.080000	-0.834599
	34.085000	-0.886173
	34.090000	-0.982874
	34.095000	-0.934523
	34.100000	-0.841046
	34.105000	-0.876503
	34.110000	-0.976427
	34.115000	-0.934523
	34.120000	-0.841046
	34.125000	-0.876503
	34.130000	-0.982874
	34.135000	-0.934523
	34.140000	-0.837823
	34.145000	-0.879726
	34.150000	-0.979650
	34.155000	-0.940970
	34.160000	-0.831376
	34.165000	-0.886173
	34.170000	-0.979650
	34.175000	-0.934523
	34.180000	-0.837823
	34.185000	-0.886173
	34.190000	-0.982874
	34.195000	-0.937747
	34.200000	-0.841046
	34.205000	-0.882950
	34.210000	-0.982874
	34.215000	-0.934523
	34.220000	-0.841046
	34.225000	-0.876503
	34.230000	-0.986097
	34.235000	-0.937747
	34.240000	-0.847493
	34.245000	-0.889396
	34.250000	-0.982874
	34.255000	-0.934523
	34.260000	-0.837823
	34.265000	-0.889396
	34.270000	-0.986097
	34.275000	-0.937747
	34.280000	-0.841046
	34.285000	-0.886173
	34.290000	-0.979650
	34.295000	-0.940970
	34.300000	-0.841046
	34.305000	-0.882950
	34.310000	-0.979650
	34.315000	-0.937747
	34.320000	-0.841046
	34.325000	-0.886173
	34.330000	-0.986097
	34.335000	-0.934523
	34.340000	-0.844269
	34.345000	-0.882950
	34.350000	-0.986097
	34.355000	-0.940970
	34.360000	-0.844269
	34.365000	-0.889396
	34.370000	-0.989320
	34.375000	-0.934523
	34.380000	-0.837823
	34.385000	-0.882950
	34.390000	-0.982874
	34.395000	-0.937747
	34.400000	-0.831376
	34.405000	-0.886173
	34.410000	-0.982874
	34.415000	-0.928077
	34.420000	-0.837823
	34.425000	-0.882950
	34.430000	-0.982874
	34.435000	-0.931300
	34.440000	-0.837823
	34.445000	-0.886173
	34.450000	-0.979650
	34.455000	-0.934523
	34.460000	-0.831376
	34.465000	-0.879726
	34.470000	-0.979650
	34.475000	-0.928077
	34.480000	-0.837823
	34.485000	-0.879726
	34.490000	-0.982874
	34.495000	-0.928077
	34.500000	-0.831376
	34.505000	-0.876503
	34.510000	-0.969980
	34.515000	-0.918407
	34.520000	-0.831376
	34.525000	-0.879726
	34.530000	-0.979650
	34.535000	-0.918407
	34.540000	-0.828152
	34.545000	-0.879726
	34.550000	-0.973204
	34.555000	-0.928077
	34.560000	-0.824929
	34.565000	-0.876503
	34.570000	-0.973204
	34.575000	-0.918407
	34.580000	-0.824929
	34.585000	-0.873280
	34.590000	-0.966757
	34.595000	-0.921630
	34.600000	-0.821706
	34.605000	-0.870056
	34.610000	-0.966757
	34.615000	-0.918407
	34.620000	-0.821706
	34.625000	-0.866833
	34.630000	-0.966757
	34.635000	-0.921630
	34.640000	-0.818482
	34.645000	-0.863609
	34.650000	-0.966757
	34.655000	-0.915183
	34.660000	-0.818482
	34.665000	-0.870056
	34.670000	-0.960310
	34.675000	-0.911960
	34.680000	-0.812036
	34.685000	-0.863609
	34.690000	-0.966757
	34.695000	-0.902290
	34.700000	-0.812036
	34.705000	-0.863609
	34.710000	-0.957087
	34.715000	-0.908736
	34.720000	-0.812036
	34.725000	-0.863609
	34.730000	-0.963534
	34.735000	-0.908736
	34.740000	-0.812036
	34.745000	-0.866833
	34.750000	-0.953863
	34.755000	-0.905513
	34.760000	-0.808812
	34.765000	-0.866833
	34.770000	-0.960310
	34.775000	-0.895843
	34.780000	-0.802366
	34.785000	-0.866833
	34.790000	-0.953863
	34.795000	-0.902290
	34.800000	-0.812036
	34.805000	-0.866833
	34.810000	-0.953863
	34.815000	-0.895843
	34.820000	-0.808812
	34.825000	-0.860386
	34.830000	-0.957087
	34.835000	-0.895843
	34.840000	-0.805589
	34.845000	-0.853939
	34.850000	-0.953863
	34.855000	-0.886173
	34.860000	-0.789472
	34.865000	-0.837823
	34.870000	-0.931300
	34.875000	-0.866833
	34.880000	-0.766909
	34.885000	-0.812036
	34.890000	-0.895843
	34.895000	-0.831376
	34.900000	-0.725005
	34.905000	-0.773355
	34.910000	-0.853939
	34.915000	-0.789472
	34.920000	-0.689548
	34.925000	-0.737898
	34.930000	-0.818482
	34.935000	-0.757239
	34.940000	-0.657314
	34.945000	-0.705665
	34.950000	-0.789472
	34.955000	-0.725005
	34.960000	-0.634751
	34.965000	-0.683101
	34.970000	-0.766909
	34.975000	-0.705665
	34.980000	-0.618634
	34.985000	-0.663761
	34.990000	-0.750792
	34.995000	-0.702441
	35.000000	-0.605741
	35.005000	-0.660538
	35.010000	-0.747569
	35.015000	-0.692771
	35.020000	-0.599294
	35.025000	-0.650868
	35.030000	-0.734675
	35.035000	-0.676655
	35.040000	-0.592847
	35.045000	-0.647644
	35.050000	-0.721782
	35.055000	-0.673431
	35.060000	-0.579954
	35.065000	-0.634751
	35.070000	-0.725005
	35.075000	-0.670208
	35.080000	-0.579954
	35.085000	-0.634751
	35.090000	-0.734675
	35.095000	-0.679878
	35.100000	-0.592847
	35.105000	-0.657314
	35.110000	-0.747569
	35.115000	-0.695995
	35.120000	-0.608964
	35.125000	-0.673431
	35.130000	-0.763685
	35.135000	-0.702441
	35.140000	-0.615411
	35.145000	-0.673431
	35.150000	-0.757239
	35.155000	-0.699218
	35.160000	-0.612187
	35.165000	-0.666985
	35.170000	-0.747569
	35.175000	-0.683101
	35.180000	-0.586401
	35.185000	-0.634751
	35.190000	-0.715335
	35.195000	-0.650868
	35.200000	-0.557390
	35.205000	-0.605741
	35.210000	-0.686325
	35.215000	-0.618634
	35.220000	-0.528380
	35.225000	-0.579954
	35.230000	-0.647644
	35.235000	-0.579954
	35.240000	-0.489700
	35.245000	-0.538050
	35.250000	-0.621858
	35.255000	-0.557390
	35.260000	-0.473583
	35.265000	-0.518710
	35.270000	-0.599294
	35.275000	-0.534827
	35.280000	-0.451019
	35.285000	-0.512263
	35.290000	-0.592847
	35.295000	-0.528380
	35.300000	-0.451019
	35.305000	-0.515487
	35.310000	-0.596071
	35.315000	-0.534827
	35.320000	-0.460690
	35.325000	-0.512263
	35.330000	-0.602517
	35.335000	-0.544497
	35.340000	-0.463913
	35.345000	-0.521933
	35.350000	-0.602517
	35.355000	-0.547720
	35.360000	-0.467136
	35.365000	-0.531603
	35.370000	-0.612187
	35.375000	-0.554167
	35.380000	-0.476806
	35.385000	-0.528380
	35.390000	-0.612187
	35.395000	-0.554167
	35.400000	-0.476806
	35.405000	-0.531603
	35.410000	-0.621858
	35.415000	-0.560614
	35.420000	-0.476806
	35.425000	-0.541274
	35.430000	-0.621858
	35.435000	-0.563837
	35.440000	-0.489700
	35.445000	-0.544497
	35.450000	-0.625081
	35.455000	-0.567060
	35.460000	-0.489700
	35.465000	-0.547720
	35.470000	-0.631528
	35.475000	-0.570284
	35.480000	-0.489700
	35.485000	-0.550944
	35.490000	-0.628304
	35.495000	-0.567060
	35.500000	-0.489700
	35.505000	-0.554167
	35.510000	-0.628304
	35.515000	-0.567060
	35.520000	-0.489700
	35.525000	-0.547720
	35.530000	-0.628304
	35.535000	-0.563837
	35.540000	-0.483253
	35.545000	-0.538050
	35.550000	-0.621858
	35.555000	-0.554167
	35.560000	-0.483253
	35.565000	-0.534827
	35.570000	-0.618634
	35.575000	-0.554167
	35.580000	-0.476806
	35.585000	-0.541274
	35.590000	-0.615411
	35.595000	-0.557390
	35.600000	-0.476806
	35.605000	-0.534827
	35.610000	-0.618634
	35.615000	-0.554167
	35.620000	-0.480030
	35.625000	-0.541274
	35.630000	-0.618634
	35.635000	-0.563837
	35.640000	-0.483253
	35.645000	-0.544497
	35.650000	-0.621858
	35.655000	-0.557390
	35.660000	-0.483253
	35.665000	-0.538050
	35.670000	-0.615411
	35.675000	-0.557390
	35.680000	-0.489700
	35.685000	-0.547720
	35.690000	-0.621858
	35.695000	-0.567060
	35.700000	-0.489700
	35.705000	-0.547720
	35.710000	-0.634751
	35.715000	-0.567060
	35.720000	-0.492923
	35.725000	-0.554167
	35.730000	-0.631528
	35.735000	-0.563837
	35.740000	-0.496147
	35.745000	-0.547720
	35.750000	-0.625081
	35.755000	-0.567060
	35.760000	-0.496147
	35.765000	-0.557390
	35.770000	-0.637974
	35.775000	-0.570284
	35.780000	-0.499370
	35.785000	-0.557390
	35.790000	-0.641198
	35.795000	-0.573507
	35.800000	-0.505817
	35.805000	-0.567060
	35.810000	-0.641198
	35.815000	-0.579954
	35.820000	-0.505817
	35.825000	-0.570284
	35.830000	-0.650868
	35.835000	-0.576730
	35.840000	-0.509040
	35.845000	-0.573507
	35.850000	-0.647644
	35.855000	-0.576730
	35.860000	-0.512263
	35.865000	-0.573507
	35.870000	-0.647644
	35.875000	-0.583177
	35.880000	-0.518710
	35.885000	-0.579954
	35.890000	-0.654091
	35.895000	-0.589624
	35.900000	-0.518710
	35.905000	-0.586401
	35.910000	-0.657314
	35.915000	-0.589624
	35.920000	-0.518710
	35.925000	-0.589624
	35.930000	-0.660538
	35.935000	-0.596071
	35.940000	-0.531603
	35.945000	-0.592847
	35.950000	-0.673431
	35.955000	-0.596071
	35.960000	-0.531603
	35.965000	-0.596071
	35.970000	-0.670208
	35.975000	-0.605741
	35.980000	-0.538050
	35.985000	-0.599294
	35.990000	-0.676655
	35.995000	-0.612187
	36.000000	-0.544497
	36.005000	-0.621858
	36.010000	-0.689548
	36.015000	-0.631528
	36.020000	-0.560614
	36.025000	-0.631528
	36.030000	-0.715335
	36.035000	-0.647644
	36.040000	-0.586401
	36.045000	-0.657314
	36.050000	-0.734675
	36.055000	-0.676655
	36.060000	-0.608964
	36.065000	-0.692771
	36.070000	-0.770132
	36.075000	-0.712112
	36.080000	-0.647644
	36.085000	-0.725005
	36.090000	-0.805589
	36.095000	-0.741122
	36.100000	-0.676655
	36.105000	-0.750792
	36.110000	-0.828152
	36.115000	-0.766909
	36.120000	-0.708888
	36.125000	-0.786249
	36.130000	-0.866833
	36.135000	-0.802366
	36.140000	-0.741122
	36.145000	-0.815259
	36.150000	-0.895843
	36.155000	-0.834599
	36.160000	-0.773355
	36.165000	-0.850716
	36.170000	-0.931300
	36.175000	-0.873280
	36.180000	-0.805589
	36.185000	-0.882950
	36.190000	-0.966757
	36.195000	-0.895843
	36.200000	-0.834599
	36.205000	-0.915183
	36.210000	-0.986097
	36.215000	-0.928077
	36.220000	-0.863609
	36.225000	-0.931300
	36.230000	-1.011884
	36.235000	-0.944193
	36.240000	-0.879726
	36.245000	-0.953863
	36.250000	-1.031224
	36.255000	-0.963534
	36.260000	-0.895843
	36.265000	-0.969980
	36.270000	-1.050564
	36.275000	-0.979650
	36.280000	-0.905513
	36.285000	-0.992544
	36.290000	-1.066681
	36.295000	-0.995767
	36.300000	-0.924853
	36.305000	-0.998991
	36.310000	-1.079574
	36.315000	-1.002214
	36.320000	-0.934523
	36.325000	-1.011884
	36.330000	-1.086021
	36.335000	-1.015107
	36.340000	-0.944193
	36.345000	-1.024777
	36.350000	-1.098915
	36.355000	-1.024777
	36.360000	-0.953863
	36.365000	-1.034447
	36.370000	-1.102138
	36.375000	-1.031224
	36.380000	-0.963534
	36.385000	-1.040894
	36.390000	-1.118255
	36.395000	-1.037671
	36.400000	-0.966757
	36.405000	-1.050564
	36.410000	-1.124702
	36.415000	-1.050564
	36.420000	-0.976427
	36.425000	-1.053788
	36.430000	-1.127925
	36.435000	-1.060234
	36.440000	-0.982874
	36.445000	-1.066681
	36.450000	-1.137595
	36.455000	-1.060234
	36.460000	-0.989320
	36.465000	-1.073128
	36.470000	-1.147265
	36.475000	-1.066681
	36.480000	-0.998991
	36.485000	-1.073128
	36.490000	-1.150488
	36.495000	-1.076351
	36.500000	-0.998991
	36.505000	-1.082798
	36.510000	-1.156935
	36.515000	-1.076351
	36.520000	-1.011884
	36.525000	-1.092468
	36.530000	-1.169829
	36.535000	-1.079574
	36.540000	-1.015107
	36.545000	-1.095691
	36.550000	-1.163382
	36.555000	-1.082798
	36.560000	-1.015107
	36.565000	-1.095691
	36.570000	-1.166605
	36.575000	-1.086021
	36.580000	-1.015107
	36.585000	-1.098915
	36.590000	-1.169829
	36.595000	-1.082798
	36.600000	-1.011884
	36.605000	-1.098915
	36.610000	-1.173052
	36.615000	-1.082798
	36.620000	-1.015107
	36.625000	-1.098915
	36.630000	-1.169829
	36.635000	-1.086021
	36.640000	-1.008661
	36.645000	-1.098915
	36.650000	-1.169829
	36.655000	-1.086021
	36.660000	-1.008661
	36.665000	-1.095691
	36.670000	-1.169829
	36.675000	-1.086021
	36.680000	-1.015107
	36.685000	-1.095691
	36.690000	-1.166605
	36.695000	-1.079574
	36.700000	-1.005437
	36.705000	-1.092468
	36.710000	-1.163382
	36.715000	-1.076351
	36.720000	-1.005437
	36.725000	-1.092468
	36.730000	-1.160158
	36.735000	-1.073128
	36.740000	-0.995767
	36.745000	-1.086021
	36.750000	-1.163382
	36.755000	-1.069904
	36.760000	-0.995767
	36.765000	-1.082798
	36.770000	-1.160158
	36.775000	-1.073128
	36.780000	-0.995767
	36.785000	-1.082798
	36.790000	-1.147265
	36.795000	-1.066681
	36.800000	-1.002214
	36.805000	-1.079574
	36.810000	-1.153712
	36.815000	-1.063458
	36.820000	-0.986097
	36.825000	-1.079574
	36.830000	-1.150488
	36.835000	-1.057011
	36.840000	-0.989320
	36.845000	-1.073128
	36.850000	-1.144042
	36.855000	-1.050564
	36.860000	-0.986097
	36.865000	-1.076351
	36.870000	-1.140818
	36.875000	-1.050564
	36.880000	-0.979650
	36.885000	-1.069904
	36.890000	-1.137595
	36.895000	-1.044118
	36.900000	-0.973204
	36.905000	-1.066681
	36.910000	-1.137595
	36.915000	-1.044118
	36.920000	-0.973204
	36.925000	-1.063458
	36.930000	-1.127925
	36.935000	-1.040894
	36.940000	-0.973204
	36.945000	-1.060234
	36.950000	-1.134372
	36.955000	-1.028001
	36.960000	-0.969980
	36.965000	-1.057011
	36.970000	-1.121478
	36.975000	-1.028001
	36.980000	-0.966757
	36.985000	-1.053788
	36.990000	-1.118255
	36.995000	-1.028001
	37.000000	-0.957087
	37.005000	-1.047341
	37.010000	-1.115031
	37.015000	-1.024777
	37.020000	-0.960310
	37.025000	-1.047341
	37.030000	-1.118255
	37.035000	-1.021554
	37.040000	-0.957087
	37.045000	-1.047341
	37.050000	-1.115031
	37.055000	-1.018331
	37.060000	-0.960310
	37.065000	-1.044118
	37.070000	-1.115031
	37.075000	-1.021554
	37.080000	-0.950640
	37.085000	-1.050564
	37.090000	-1.108585
	37.095000	-1.015107
	37.100000	-0.953863
	37.105000	-1.044118
	37.110000	-1.102138
	37.115000	-1.011884
	37.120000	-0.947417
	37.125000	-1.034447
	37.130000	-1.105361
	37.135000	-1.015107
	37.140000	-0.947417
	37.145000	-1.034447
	37.150000	-1.108585
	37.155000	-1.008661
	37.160000	-0.947417
	37.165000	-1.034447
	37.170000	-1.105361
	37.175000	-1.008661
	37.180000	-0.944193
	37.185000	-1.034447
	37.190000	-1.098915
	37.195000	-1.002214
	37.200000	-0.940970
	37.205000	-1.031224
	37.210000	-1.098915
	37.215000	-1.005437
	37.220000	-0.931300
	37.225000	-1.031224
	37.230000	-1.098915
	37.235000	-0.998991
	37.240000	-0.931300
	37.245000	-1.024777
	37.250000	-1.092468
	37.255000	-0.995767
	37.260000	-0.931300
	37.265000	-1.021554
	37.270000	-1.092468
	37.275000	-0.995767
	37.280000	-0.931300
	37.285000	-1.024777
	37.290000	-1.086021
	37.295000	-0.995767
	37.300000	-0.934523
	37.305000	-1.021554
	37.310000	-1.089245
	37.315000	-1.002214
	37.320000	-0.928077
	37.325000	-1.024777
	37.330000	-1.082798
	37.335000	-0.989320
	37.340000	-0.924853
	37.345000	-1.018331
	37.350000	-1.076351
	37.355000	-0.992544
	37.360000	-0.924853
	37.365000	-1.015107
	37.370000	-1.076351
	37.375000	-0.982874
	37.380000	-0.928077
	37.385000	-1.018331
	37.390000	-1.073128
	37.395000	-0.982874
	37.400000	-0.918407
	37.405000	-1.018331
	37.410000	-1.076351
	37.415000	-0.982874
	37.420000	-0.921630
	37.425000	-1.018331
	37.430000	-1.076351
	37.435000	-0.986097
	37.440000	-0.918407
	37.445000	-1.015107
	37.450000	-1.073128
	37.455000	-0.979650
	37.460000	-0.915183
	37.465000	-1.018331
	37.470000	-1.076351
	37.475000	-0.973204
	37.480000	-0.918407
	37.485000	-1.011884
	37.490000	-1.063458
	37.495000	-0.973204
	37.500000	-0.915183
	37.505000	-1.005437
	37.510000	-1.073128
	37.515000	-0.976427
	37.520000	-0.915183
	37.525000	-1.015107
	37.530000	-1.066681
	37.535000	-0.966757
	37.540000	-0.911960
	37.545000	-1.008661
	37.550000	-1.069904
	37.555000	-0.973204
	37.560000	-0.915183
	37.565000	-1.008661
	37.570000	-1.069904
	37.575000	-0.966757
	37.580000	-0.908736
	37.585000	-1.008661
	37.590000	-1.066681
	37.595000	-0.969980
	37.600000	-0.915183
	37.605000	-1.008661
	37.610000	-1.066681
	37.615000	-0.963534
	37.620000	-0.911960
	37.625000	-1.005437
	37.630000	-1.060234
	37.635000	-0.969980
	37.640000	-0.905513
	37.645000	-1.005437
	37.650000	-1.053788
	37.655000	-0.966757
	37.660000	-0.905513
	37.665000	-1.005437
	37.670000	-1.060234
	37.675000	-0.963534
	37.680000	-0.908736
	37.685000	-1.002214
	37.690000	-1.053788
	37.695000	-0.957087
	37.700000	-0.905513
	37.705000	-1.002214
	37.710000	-1.053788
	37.715000	-0.960310
	37.720000	-0.895843
	37.725000	-0.995767
	37.730000	-1.050564
	37.735000	-0.953863
	37.740000	-0.902290
	37.745000	-1.005437
	37.750000	-1.053788
	37.755000	-0.957087
	37.760000	-0.899066
	37.765000	-1.002214
	37.770000	-1.050564
	37.775000	-0.950640
	37.780000	-0.899066
	37.785000	-0.995767
	37.790000	-1.053788
	37.795000	-0.944193
	37.800000	-0.895843
	37.805000	-0.998991
	37.810000	-1.047341
	37.815000	-0.947417
	37.820000	-0.899066
	37.825000	-0.995767
	37.830000	-1.047341
	37.835000	-0.947417
	37.840000	-0.902290
	37.845000	-0.992544
	37.850000	-1.050564
	37.855000	-0.947417
	37.860000	-0.895843
	37.865000	-0.995767
	37.870000	-1.050564
	37.875000	-0.953863
	37.880000	-0.902290
	37.885000	-0.998991
	37.890000	-1.053788
	37.895000	-0.950640
	37.900000	-0.892620
	37.905000	-0.995767
	37.910000	-1.047341
	37.915000	-0.950640
	37.920000	-0.892620
	37.925000	-1.002214
	37.930000	-1.050564
	37.935000	-0.950640
	37.940000	-0.895843
	37.945000	-0.998991
	37.950000	-1.050564
	37.955000	-0.947417
	37.960000	-0.895843
	37.965000	-0.992544
	37.970000	-1.044118
	37.975000	-0.944193
	37.980000	-0.892620
	37.985000	-0.992544
	37.990000	-1.047341
	37.995000	-0.944193
	38.000000	-0.892620
	38.005000	-0.989320
	38.010000	-1.037671
	38.015000	-0.944193
	38.020000	-0.892620
	38.025000	-0.995767
	38.030000	-1.047341
	38.035000	-0.940970
	38.040000	-0.889396
	38.045000	-0.992544
	38.050000	-1.037671
	38.055000	-0.940970
	38.060000	-0.889396
	38.065000	-0.998991
	38.070000	-1.040894
	38.075000	-0.940970
	38.080000	-0.892620
	38.085000	-0.995767
	38.090000	-1.037671
	38.095000	-0.937747
	38.100000	-0.895843
	38.105000	-0.992544
	38.110000	-1.047341
	38.115000	-0.937747
	38.120000	-0.889396
	38.125000	-0.989320
	38.130000	-1.044118
	38.135000	-0.944193
	38.140000	-0.889396
	38.145000	-0.998991
	38.150000	-1.047341
	38.155000	-0.940970
	38.160000	-0.892620
	38.165000	-0.989320
	38.170000	-1.044118
	38.175000	-0.944193
	38.180000	-0.889396
	38.185000	-0.995767
	38.190000	-1.044118
	38.195000	-0.944193
	38.200000	-0.892620
	38.205000	-0.989320
	38.210000	-1.040894
	38.215000	-0.940970
	38.220000	-0.895843
	38.225000	-0.992544
	38.230000	-1.047341
	38.235000	-0.940970
	38.240000	-0.892620
	38.245000	-0.998991
	38.250000	-1.047341
	38.255000	-0.940970
	38.260000	-0.889396
	38.265000	-0.998991
	38.270000	-1.040894
	38.275000	-0.944193
	38.280000	-0.895843
	38.285000	-0.998991
	38.290000	-1.044118
	38.295000	-0.934523
	38.300000	-0.892620
	38.305000	-0.998991
	38.310000	-1.040894
	38.315000	-0.940970
	38.320000	-0.895843
	38.325000	-1.002214
	38.330000	-1.047341
	38.335000	-0.940970
	38.340000	-0.899066
	38.345000	-0.995767
	38.350000	-1.044118
	38.355000	-0.940970
	38.360000	-0.895843
	38.365000	-0.998991
	38.370000	-1.037671
	38.375000	-0.937747
	38.380000	-0.895843
	38.385000	-0.995767
	38.390000	-1.040894
	38.395000	-0.940970
	38.400000	-0.895843
	38.405000	-0.995767
	38.410000	-1.047341
	38.415000	-0.937747
	38.420000	-0.895843
	38.425000	-0.995767
	38.430000	-1.040894
	38.435000	-0.937747
	38.440000	-0.892620
	38.445000	-0.995767
	38.450000	-1.037671
	38.455000	-0.934523
	38.460000	-0.895843
	38.465000	-0.998991
	38.470000	-1.047341
	38.475000	-0.934523
	38.480000	-0.895843
	38.485000	-0.998991
	38.490000	-1.044118
	38.495000	-0.937747
	38.500000	-0.892620
	38.505000	-0.998991
	38.510000	-1.034447
	38.515000	-0.944193
	38.520000	-0.892620
	38.525000	-0.998991
	38.530000	-1.037671
	38.535000	-0.931300
	38.540000	-0.892620
	38.545000	-0.992544
	38.550000	-1.040894
	38.555000	-0.934523
	38.560000	-0.895843
	38.565000	-1.005437
	38.570000	-1.040894
	38.575000	-0.937747
	38.580000	-0.899066
	38.585000	-0.998991
	38.590000	-1.044118
	38.595000	-0.928077
	38.600000	-0.895843
	38.605000	-0.992544
	38.610000	-1.040894
	38.615000	-0.928077
	38.620000	-0.889396
	38.625000	-0.995767
	38.630000	-1.028001
	38.635000	-0.918407
	38.640000	-0.879726
	38.645000	-0.976427
	38.650000	-1.008661
	38.655000	-0.895843
	38.660000	-0.844269
	38.665000	-0.937747
	38.670000	-0.957087
	38.675000	-0.837823
	38.680000	-0.779802
	38.685000	-0.860386
	38.690000	-0.882950
	38.695000	-0.757239
	38.700000	-0.692771
	38.705000	-0.773355
	38.710000	-0.789472
	38.715000	-0.657314
	38.720000	-0.596071
	38.725000	-0.679878
	38.730000	-0.692771
	38.735000	-0.567060
	38.740000	-0.512263
	38.745000	-0.589624
	38.750000	-0.608964
	38.755000	-0.492923
	38.760000	-0.444573
	38.765000	-0.525157
	38.770000	-0.541274
	38.775000	-0.431679
	38.780000	-0.392999
	38.785000	-0.480030
	38.790000	-0.499370
	38.795000	-0.399446
	38.800000	-0.354319
	38.805000	-0.441349
	38.810000	-0.476806
	38.815000	-0.376882
	38.820000	-0.338202
	38.825000	-0.428456
	38.830000	-0.460690
	38.835000	-0.363989
	38.840000	-0.331755
	38.845000	-0.418786
	38.850000	-0.460690
	38.855000	-0.360765
	38.860000	-0.338202
	38.865000	-0.428456
	38.870000	-0.460690
	38.875000	-0.367212
	38.880000	-0.344649
	38.885000	-0.434903
	38.890000	-0.473583
	38.895000	-0.376882
	38.900000	-0.357542
	38.905000	-0.451019
	38.910000	-0.489700
	38.915000	-0.389776
	38.920000	-0.360765
	38.925000	-0.463913
	38.930000	-0.496147
	38.935000	-0.399446
	38.940000	-0.373659
	38.945000	-0.473583
	38.950000	-0.515487
	38.955000	-0.412339
	38.960000	-0.392999
	38.965000	-0.489700
	38.970000	-0.525157
	38.975000	-0.428456
	38.980000	-0.399446
	38.985000	-0.499370
	38.990000	-0.541274
	38.995000	-0.434903
	39.000000	-0.412339
	39.005000	-0.515487
	39.010000	-0.541274
	39.015000	-0.447796
	39.020000	-0.425233
	39.025000	-0.518710
	39.030000	-0.554167
	39.035000	-0.460690
	39.040000	-0.428456
	39.045000	-0.531603
	39.050000	-0.554167
	39.055000	-0.467136
	39.060000	-0.441349
	39.065000	-0.544497
	39.070000	-0.563837
	39.075000	-0.473583
	39.080000	-0.451019
	39.085000	-0.547720
	39.090000	-0.573507
	39.095000	-0.480030
	39.100000	-0.457466
	39.105000	-0.560614
	39.110000	-0.583177
	39.115000	-0.492923
	39.120000	-0.467136
	39.125000	-0.557390
	39.130000	-0.592847
	39.135000	-0.496147
	39.140000	-0.470360
	39.145000	-0.567060
	39.150000	-0.589624
	39.155000	-0.505817
	39.160000	-0.480030
	39.165000	-0.576730
	39.170000	-0.602517
	39.175000	-0.509040
	39.180000	-0.483253
	39.185000	-0.579954
	39.190000	-0.608964
	39.195000	-0.512263
	39.200000	-0.483253
	39.205000	-0.592847
	39.210000	-0.612187
	39.215000	-0.525157
	39.220000	-0.496147
	39.225000	-0.592847
	39.230000	-0.618634
	39.235000	-0.525157
	39.240000	-0.509040
	39.245000	-0.602517
	39.250000	-0.628304
	39.255000	-0.534827
	39.260000	-0.512263
	39.265000	-0.608964
	39.270000	-0.631528
	39.275000	-0.538050
	39.280000	-0.512263
	39.285000	-0.612187
	39.290000	-0.637974
	39.295000	-0.547720
	39.300000	-0.521933
	39.305000	-0.618634
	39.310000	-0.644421
	39.315000	-0.550944
	39.320000	-0.534827
	39.325000	-0.625081
	39.330000	-0.654091
	39.335000	-0.560614
	39.340000	-0.541274
	39.345000	-0.641198
	39.350000	-0.663761
	39.355000	-0.567060
	39.360000	-0.550944
	39.365000	-0.641198
	39.370000	-0.663761
	39.375000	-0.576730
	39.380000	-0.554167
	39.385000	-0.647644
	39.390000	-0.679878
	39.395000	-0.576730
	39.400000	-0.560614
	39.405000	-0.657314
	39.410000	-0.679878
	39.415000	-0.583177
	39.420000	-0.570284
	39.425000	-0.670208
	39.430000	-0.702441
	39.435000	-0.608964
	39.440000	-0.592847
	39.445000	-0.705665
	39.450000	-0.728228
	39.455000	-0.644421
	39.460000	-0.631528
	39.465000	-0.741122
	39.470000	-0.773355
	39.475000	-0.689548
	39.480000	-0.679878
	39.485000	-0.792696
	39.490000	-0.824929
	39.495000	-0.728228
	39.500000	-0.718558
	39.505000	-0.828152
	39.510000	-0.863609
	39.515000	-0.770132
	39.520000	-0.760462
	39.525000	-0.863609
	39.530000	-0.882950
	39.535000	-0.799142
	39.540000	-0.783025
	39.545000	-0.892620
	39.550000	-0.921630
	39.555000	-0.828152
	39.560000	-0.815259
	39.565000	-0.921630
	39.570000	-0.947417
	39.575000	-0.857163
	39.580000	-0.841046
	39.585000	-0.953863
	39.590000	-0.976427
	39.595000	-0.886173
	39.600000	-0.870056
	39.605000	-0.973204
	39.610000	-1.005437
	39.615000	-0.908736
	39.620000	-0.892620
	39.625000	-1.002214
	39.630000	-1.028001
	39.635000	-0.928077
	39.640000	-0.928077
	39.645000	-1.028001
	39.650000	-1.050564
	39.655000	-0.950640
	39.660000	-0.940970
	39.665000	-1.044118
	39.670000	-1.069904
	39.675000	-0.966757
	39.680000	-0.953863
	39.685000	-1.069904
	39.690000	-1.086021
	39.695000	-0.986097
	39.700000	-0.963534
	39.705000	-1.076351
	39.710000	-1.092468
	39.715000	-0.989320
	39.720000	-0.979650
	39.725000	-1.092468
	39.730000	-1.115031
	39.735000	-1.002214
	39.740000	-0.998991
	39.745000	-1.105361
	39.750000	-1.127925
	39.755000	-1.018331
	39.760000	-1.008661
	39.765000	-1.118255
	39.770000	-1.140818
	39.775000	-1.031224
	39.780000	-1.018331
	39.785000	-1.134372
	39.790000	-1.147265
	39.795000	-1.044118
	39.800000	-1.028001
	39.805000	-1.134372
	39.810000	-1.156935
	39.815000	-1.050564
	39.820000	-1.037671
	39.825000	-1.147265
	39.830000	-1.156935
	39.835000	-1.057011
	39.840000	-1.040894
	39.845000	-1.156935
	39.850000	-1.169829
	39.855000	-1.060234
	39.860000	-1.044118
	39.865000	-1.160158
	39.870000	-1.166605
	39.875000	-1.066681
	39.880000	-1.050564
	39.885000	-1.160158
	39.890000	-1.176275
	39.895000	-1.066681
	39.900000	-1.047341
	39.905000	-1.163382
	39.910000	-1.169829
	39.915000	-1.063458
	39.920000	-1.050564
	39.925000	-1.163382
	39.930000	-1.176275
	39.935000	-1.066681
	39.940000	-1.057011
	39.945000	-1.166605
	39.950000	-1.176275
	39.955000	-1.063458
	39.960000	-1.057011
	39.965000	-1.166605
	39.970000	-1.176275
	39.975000	-1.060234
	39.980000	-1.053788
	39.985000	-1.163382
	39.990000	-1.176275
	39.995000	-1.060234
	40.000000	-1.050564
	40.005000	-1.156935
	40.010000	-1.166605
	40.015000	-1.060234
	40.020000	-1.050564
	40.025000	-1.163382
	40.030000	-1.169829
	40.035000	-1.057011
	40.040000	-1.047341
	40.045000	-1.163382
	40.050000	-1.169829
	40.055000	-1.060234
	40.060000	-1.044118
	40.065000	-1.160158
	40.070000	-1.169829
	40.075000	-1.053788
	40.080000	-1.034447
	40.085000	-1.156935
	40.090000	-1.160158
	40.095000	-1.050564
	40.100000	-1.037671
	40.105000	-1.153712
	40.110000	-1.163382
	40.115000	-1.050564
	40.120000	-1.044118
	40.125000	-1.147265
	40.130000	-1.160158
	40.135000	-1.053788
	40.140000	-1.034447
	40.145000	-1.147265
	40.150000	-1.160158
	40.155000	-1.040894
	40.160000	-1.034447
	40.165000	-1.147265
	40.170000	-1.156935
	40.175000	-1.047341
	40.180000	-1.028001
	40.185000	-1.147265
	40.190000	-1.156935
	40.195000	-1.040894
	40.200000	-1.031224
	40.205000	-1.150488
	40.210000	-1.150488
	40.215000	-1.037671
	40.220000	-1.024777
	40.225000	-1.140818
	40.230000	-1.147265
	40.235000	-1.034447
	40.240000	-1.021554
	40.245000	-1.134372
	40.250000	-1.147265
	40.255000	-1.028001
	40.260000	-1.024777
	40.265000	-1.134372
	40.270000	-1.144042
	40.275000	-1.037671
	40.280000	-1.028001
	40.285000	-1.134372
	40.290000	-1.140818
	40.295000	-1.021554
	40.300000	-1.011884
	40.305000	-1.127925
	40.310000	-1.134372
	40.315000	-1.018331
	40.320000	-1.008661
	40.325000	-1.127925
	40.330000	-1.131148
	40.335000	-1.024777
	40.340000	-1.011884
	40.345000	-1.124702
	40.350000	-1.127925
	40.355000	-1.015107
	40.360000	-1.008661
	40.365000	-1.121478
	40.370000	-1.124702
	40.375000	-1.008661
	40.380000	-1.008661
	40.385000	-1.124702
	40.390000	-1.127925
	40.395000	-1.008661
	40.400000	-1.005437
	40.405000	-1.124702
	40.410000	-1.124702
	40.415000	-1.008661
	40.420000	-1.002214
	40.425000	-1.118255
	40.430000	-1.121478
	40.435000	-1.002214
	40.440000	-0.998991
	40.445000	-1.118255
	40.450000	-1.121478
	40.455000	-0.998991
	40.460000	-0.998991
	40.465000	-1.111808
	40.470000	-1.118255
	40.475000	-1.002214
	40.480000	-0.995767
	40.485000	-1.118255
	40.490000	-1.111808
	40.495000	-0.995767
	40.500000	-0.989320
	40.505000	-1.111808
	40.510000	-1.108585
	40.515000	-0.995767
	40.520000	-0.989320
	40.525000	-1.111808
	40.530000	-1.105361
	40.535000	-0.992544
	40.540000	-0.992544
	40.545000	-1.105361
	40.550000	-1.102138
	40.555000	-0.989320
	40.560000	-0.992544
	40.565000	-1.105361
	40.570000	-1.105361
	40.575000	-0.986097
	40.580000	-0.982874
	40.585000	-1.102138
	40.590000	-1.095691
	40.595000	-0.992544
	40.600000	-0.986097
	40.605000	-1.095691
	40.610000	-1.102138
	40.615000	-0.986097
	40.620000	-0.982874
	40.625000	-1.108585
	40.630000	-1.102138
	40.635000	-0.986097
	40.640000	-0.986097
	40.645000	-1.098915
	40.650000	-1.098915
	40.655000	-0.982874
	40.660000	-0.982874
	40.665000	-1.095691
	40.670000	-1.095691
	40.675000	-0.979650
	40.680000	-0.986097
	40.685000	-1.098915
	40.690000	-1.095691
	40.695000	-0.979650
	40.700000	-0.979650
	40.705000	-1.095691
	40.710000	-1.092468
	40.715000	-0.979650
	40.720000	-0.982874
	40.725000	-1.092468
	40.730000	-1.086021
	40.735000	-0.979650
	40.740000	-0.979650
	40.745000	-1.089245
	40.750000	-1.086021
	40.755000	-0.973204
	40.760000	-0.982874
	40.765000	-1.092468
	40.770000	-1.092468
	40.775000	-0.973204
	40.780000	-0.973204
	40.785000	-1.089245
	40.790000	-1.086021
	40.795000	-0.969980
	40.800000	-0.973204
	40.805000	-1.092468
	40.810000	-1.082798
	40.815000	-0.969980
	40.820000	-0.973204
	40.825000	-1.086021
	40.830000	-1.082798
	40.835000	-0.966757
	40.840000	-0.966757
	40.845000	-1.089245
	40.850000	-1.082798
	40.855000	-0.963534
	40.860000	-0.966757
	40.865000	-1.082798
	40.870000	-1.082798
	40.875000	-0.957087
	40.880000	-0.966757
	40.885000	-1.082798
	40.890000	-1.076351
	40.895000	-0.966757
	40.900000	-0.963534
	40.905000	-1.082798
	40.910000	-1.069904
	40.915000	-0.960310
	40.920000	-0.960310
	40.925000	-1.086021
	40.930000	-1.069904
	40.935000	-0.966757
	40.940000	-0.963534
	40.945000	-1.079574
	40.950000	-1.076351
	40.955000	-0.960310
	40.960000	-0.963534
	40.965000	-1.076351
	40.970000	-1.069904
	40.975000	-0.963534
	40.980000	-0.966757
	40.985000	-1.076351
	40.990000	-1.069904
	40.995000	-0.960310
	41.000000	-0.957087
	41.005000	-1.079574
	41.010000	-1.069904
	41.015000	-0.960310
	41.020000	-0.963534
	41.025000	-1.082798
	41.030000	-1.069904
	41.035000	-0.953863
	41.040000	-0.966757
	41.045000	-1.082798
	41.050000	-1.066681
	41.055000	-0.950640
	41.060000	-0.966757
	41.065000	-1.076351
	41.070000	-1.069904
	41.075000	-0.953863
	41.080000	-0.963534
	41.085000	-1.079574
	41.090000	-1.066681
	41.095000	-0.957087
	41.100000	-0.957087
	41.105000	-1.076351
	41.110000	-1.069904
	41.115000	-0.950640
	41.120000	-0.963534
	41.125000	-1.079574
	41.130000	-1.063458
	41.135000	-0.953863
	41.140000	-0.963534
	41.145000	-1.076351
	41.150000	-1.063458
	41.155000	-0.950640
	41.160000	-0.963534
	41.165000	-1.069904
	41.170000	-1.063458
	41.175000	-0.950640
	41.180000	-0.963534
	41.185000	-1.073128
	41.190000	-1.060234
	41.195000	-0.947417
	41.200000	-0.963534
	41.205000	-1.073128
	41.210000	-1.066681
	41.215000	-0.947417
	41.220000	-0.966757
	41.225000	-1.073128
	41.230000	-1.063458
	41.235000	-0.950640
	41.240000	-0.960310
	41.245000	-1.079574
	41.250000	-1.066681
	41.255000	-0.950640
	41.260000	-0.963534
	41.265000	-1.076351
	41.270000	-1.060234
	41.275000	-0.953863
	41.280000	-0.966757
	41.285000	-1.073128
	41.290000	-1.066681
	41.295000	-0.953863
	41.300000	-0.953863
	41.305000	-1.069904
	41.310000	-1.060234
	41.315000	-0.950640
	41.320000	-0.960310
	41.325000	-1.073128
	41.330000	-1.063458
	41.335000	-0.947417
	41.340000	-0.960310
	41.345000	-1.076351
	41.350000	-1.063458
	41.355000	-0.947417
	41.360000	-0.963534
	41.365000	-1.073128
	41.370000	-1.063458
	41.375000	-0.950640
	41.380000	-0.960310
	41.385000	-1.079574
	41.390000	-1.063458
	41.395000	-0.950640
	41.400000	-0.963534
	41.405000	-1.079574
	41.410000	-1.060234
	41.415000	-0.944193
	41.420000	-0.957087
	41.425000	-1.076351
	41.430000	-1.060234
	41.435000	-0.937747
	41.440000	-0.960310
	41.445000	-1.063458
	41.450000	-1.040894
	41.455000	-0.928077
	41.460000	-0.931300
	41.465000	-1.037671
	41.470000	-1.015107
	41.475000	-0.892620
	41.480000	-0.899066
	41.485000	-1.002214
	41.490000	-0.976427
	41.495000	-0.857163
	41.500000	-0.857163
	41.505000	-0.950640
	41.510000	-0.921630
	41.515000	-0.802366
	41.520000	-0.795919
	41.525000	-0.895843
	41.530000	-0.863609
	41.535000	-0.731452
	41.540000	-0.737898
	41.545000	-0.831376
	41.550000	-0.786249
	41.555000	-0.654091
	41.560000	-0.644421
	41.565000	-0.728228
	41.570000	-0.679878
	41.575000	-0.550944
	41.580000	-0.547720
	41.585000	-0.628304
	41.590000	-0.589624
	41.595000	-0.470360
	41.600000	-0.467136
	41.605000	-0.554167
	41.610000	-0.521933
	41.615000	-0.409116
	41.620000	-0.409116
	41.625000	-0.499370
	41.630000	-0.480030
	41.635000	-0.360765
	41.640000	-0.373659
	41.645000	-0.470360
	41.650000	-0.451019
	41.655000	-0.347872
	41.660000	-0.363989
	41.665000	-0.467136
	41.670000	-0.444573
	41.675000	-0.354319
	41.680000	-0.370436
	41.685000	-0.467136
	41.690000	-0.454243
	41.695000	-0.360765
	41.700000	-0.380106
	41.705000	-0.480030
	41.710000	-0.463913
	41.715000	-0.363989
	41.720000	-0.386552
	41.725000	-0.489700
	41.730000	-0.476806
	41.735000	-0.380106
	41.740000	-0.399446
	41.745000	-0.499370
	41.750000	-0.483253
	41.755000	-0.389776
	41.760000	-0.405892
	41.765000	-0.512263
	41.770000	-0.496147
	41.775000	-0.405892
	41.780000	-0.418786
	41.785000	-0.518710
	41.790000	-0.505817
	41.795000	-0.412339
	41.800000	-0.422009
	41.805000	-0.528380
	41.810000	-0.509040
	41.815000	-0.415563
	41.820000	-0.438126
	41.825000	-0.534827
	41.830000	-0.518710
	41.835000	-0.422009
	41.840000	-0.441349
	41.845000	-0.534827
	41.850000	-0.518710
	41.855000	-0.418786
	41.860000	-0.441349
	41.865000	-0.531603
	41.870000	-0.515487
	41.875000	-0.422009
	41.880000	-0.434903
	41.885000	-0.538050
	41.890000	-0.518710
	41.895000	-0.425233
	41.900000	-0.438126
	41.905000	-0.538050
	41.910000	-0.521933
	41.915000	-0.434903
	41.920000	-0.454243
	41.925000	-0.550944
	41.930000	-0.525157
	41.935000	-0.438126
	41.940000	-0.457466
	41.945000	-0.554167
	41.950000	-0.541274
	41.955000	-0.438126
	41.960000	-0.467136
	41.965000	-0.570284
	41.970000	-0.547720
	41.975000	-0.457466
	41.980000	-0.476806
	41.985000	-0.576730
	41.990000	-0.560614
	41.995000	-0.470360
	42.000000	-0.486476
	42.005000	-0.592847
	42.010000	-0.570284
	42.015000	-0.476806
	42.020000	-0.496147
	42.025000	-0.599294
	42.030000	-0.579954
	42.035000	-0.483253
	42.040000	-0.509040
	42.045000	-0.605741
	42.050000	-0.583177
	42.055000	-0.492923
	42.060000	-0.515487
	42.065000	-0.615411
	42.070000	-0.592847
	42.075000	-0.496147
	42.080000	-0.518710
	42.085000	-0.621858
	42.090000	-0.605741
	42.095000	-0.509040
	42.100000	-0.531603
	42.105000	-0.628304
	42.110000	-0.605741
	42.115000	-0.518710
	42.120000	-0.538050
	42.125000	-0.637974
	42.130000	-0.612187
	42.135000	-0.518710
	42.140000	-0.541274
	42.145000	-0.644421
	42.150000	-0.618634
	42.155000	-0.525157
	42.160000	-0.557390
	42.165000	-0.644421
	42.170000	-0.621858
	42.175000	-0.528380
	42.180000	-0.557390
	42.185000	-0.650868
	42.190000	-0.631528
	42.195000	-0.534827
	42.200000	-0.557390
	42.205000	-0.657314
	42.210000	-0.637974
	42.215000	-0.544497
	42.220000	-0.567060
	42.225000	-0.673431
	42.230000	-0.644421
	42.235000	-0.557390
	42.240000	-0.573507
	42.245000	-0.666985
	42.250000	-0.647644
	42.255000	-0.560614
	42.260000	-0.583177
	42.265000	-0.676655
	42.270000	-0.657314
	42.275000	-0.567060
	42.280000	-0.596071
	42.285000	-0.692771
	42.290000	-0.663761
	42.295000	-0.583177
	42.300000	-0.602517
	42.305000	-0.702441
	42.310000	-0.679878
	42.315000	-0.586401
	42.320000	-0.612187
	42.325000	-0.712112
	42.330000	-0.686325
	42.335000	-0.599294
	42.340000	-0.631528
	42.345000	-0.728228
	42.350000	-0.712112
	42.355000	-0.618634
	42.360000	-0.657314
	42.365000	-0.754015
	42.370000	-0.744345
	42.375000	-0.657314
	42.380000	-0.686325
	42.385000	-0.795919
	42.390000	-0.766909
	42.395000	-0.683101
	42.400000	-0.712112
	42.405000	-0.821706
	42.410000	-0.805589
	42.415000	-0.718558
	42.420000	-0.747569
	42.425000	-0.850716
	42.430000	-0.837823
	42.435000	-0.754015
	42.440000	-0.792696
	42.445000	-0.889396
	42.450000	-0.876503
	42.455000	-0.783025
	42.460000	-0.828152
	42.465000	-0.934523
	42.470000	-0.918407
	42.475000	-0.831376
	42.480000	-0.870056
	42.485000	-0.979650
	42.490000	-0.960310
	42.495000	-0.876503
	42.500000	-0.911960
	42.505000	-1.021554
	42.510000	-1.005437
	42.515000	-0.911960
	42.520000	-0.950640
	42.525000	-1.060234
	42.530000	-1.044118
	42.535000	-0.950640
	42.540000	-0.992544
	42.545000	-1.092468
	42.550000	-1.073128
	42.555000	-0.973204
	42.560000	-1.011884
	42.565000	-1.121478
	42.570000	-1.095691
	42.575000	-1.005437
	42.580000	-1.037671
	42.585000	-1.140818
	42.590000	-1.111808
	42.595000	-1.018331
	42.600000	-1.060234
	42.605000	-1.169829
	42.610000	-1.137595
	42.615000	-1.047341
	42.620000	-1.082798
	42.625000	-1.185945
	42.630000	-1.160158
	42.635000	-1.057011
	42.640000	-1.095691
	42.645000	-1.195615
	42.650000	-1.176275
	42.655000	-1.076351
	42.660000	-1.111808
	42.665000	-1.214956
	42.670000	-1.189169
	42.675000	-1.092468
	42.680000	-1.127925
	42.685000	-1.227849
	42.690000	-1.205285
	42.695000	-1.102138
	42.700000	-1.137595
	42.705000	-1.243966
	42.710000	-1.205285
	42.715000	-1.108585
	42.720000	-1.144042
	42.725000	-1.256859
	42.730000	-1.221402
	42.735000	-1.115031
	42.740000	-1.160158
	42.745000	-1.263306
	42.750000	-1.224626
	42.755000	-1.118255
	42.760000	-1.160158
	42.765000	-1.263306
	42.770000	-1.224626
	42.775000	-1.121478
	42.780000	-1.163382
	42.785000	-1.263306
	42.790000	-1.224626
	42.795000	-1.127925
	42.800000	-1.150488
	42.805000	-1.260083
	42.810000	-1.227849
	42.815000	-1.118255
	42.820000	-1.153712
	42.825000	-1.266529
	42.830000	-1.224626
	42.835000	-1.121478
	42.840000	-1.156935
	42.845000	-1.260083
	42.850000	-1.218179
	42.855000	-1.118255
	42.860000	-1.153712
	42.865000	-1.256859
	42.870000	-1.221402
	42.875000	-1.115031
	42.880000	-1.150488
	42.885000	-1.250413
	42.890000	-1.208509
	42.895000	-1.108585
	42.900000	-1.144042
	42.905000	-1.250413
	42.910000	-1.208509
	42.915000	-1.102138
	42.920000	-1.144042
	42.925000	-1.247189
	42.930000	-1.205285
	42.935000	-1.102138
	42.940000	-1.140818
	42.945000	-1.240742
	42.950000	-1.205285
	42.955000	-1.102138
	42.960000	-1.137595
	42.965000	-1.237519
	42.970000	-1.202062
	42.975000	-1.095691
	42.980000	-1.134372
	42.985000	-1.237519
	42.990000	-1.195615
	42.995000	-1.089245
	43.000000	-1.131148
	43.005000	-1.234296
	43.010000	-1.192392
	43.015000	-1.089245
	43.020000	-1.127925
	43.025000	-1.231072
	43.030000	-1.185945
	43.035000	-1.082798
	43.040000	-1.124702
	43.045000	-1.224626
	43.050000	-1.185945
	43.055000	-1.079574
	43.060000	-1.124702
	43.065000	-1.227849
	43.070000	-1.185945
	43.075000	-1.082798
	43.080000	-1.115031
	43.085000	-1.214956
	43.090000	-1.173052
	43.095000	-1.073128
	43.100000	-1.111808
	43.105000	-1.221402
	43.110000	-1.173052
	43.115000	-1.069904
	43.120000	-1.111808
	43.125000	-1.211732
	43.130000	-1.173052
	43.135000	-1.066681
	43.140000	-1.108585
	43.145000	-1.211732
	43.150000	-1.169829
	43.155000	-1.057011
	43.160000	-1.108585
	43.165000	-1.211732
	43.170000	-1.166605
	43.175000	-1.057011
	43.180000	-1.111808
	43.185000	-1.208509
	43.190000	-1.166605
	43.195000	-1.066681
	43.200000	-1.105361
	43.205000	-1.208509
	43.210000	-1.166605
	43.215000	-1.050564
	43.220000	-1.098915
	43.225000	-1.202062
	43.230000	-1.160158
	43.235000	-1.050564
	43.240000	-1.102138
	43.245000	-1.205285
	43.250000	-1.156935
	43.255000	-1.050564
	43.260000	-1.095691
	43.265000	-1.195615
	43.270000	-1.153712
	43.275000	-1.050564
	43.280000	-1.089245
	43.285000	-1.189169
	43.290000	-1.150488
	43.295000	-1.044118
	43.300000	-1.086021
	43.305000	-1.189169
	43.310000	-1.144042
	43.315000	-1.040894
	43.320000	-1.082798
	43.325000	-1.189169
	43.330000	-1.147265
	43.335000	-1.047341
	43.340000	-1.086021
	43.345000	-1.189169
	43.350000	-1.144042
	43.355000	-1.037671
	43.360000	-1.086021
	43.365000	-1.189169
	43.370000	-1.134372
	43.375000	-1.034447
	43.380000	-1.082798
	43.385000	-1.185945
	43.390000	-1.134372
	43.395000	-1.037671
	43.400000	-1.076351
	43.405000	-1.176275
	43.410000	-1.131148
	43.415000	-1.031224
	43.420000	-1.076351
	43.425000	-1.173052
	43.430000	-1.131148
	43.435000	-1.028001
	43.440000	-1.076351
	43.445000	-1.176275
	43.450000	-1.121478
	43.455000	-1.024777
	43.460000	-1.069904
	43.465000	-1.173052
	43.470000	-1.124702
	43.475000	-1.024777
	43.480000	-1.073128
	43.485000	-1.176275
	43.490000	-1.124702
	43.495000	-1.018331
	43.500000	-1.066681
	43.505000	-1.169829
	43.510000	-1.118255
	43.515000	-1.018331
	43.520000	-1.066681
	43.525000	-1.166605
	43.530000	-1.118255
	43.535000	-1.008661
	43.540000	-1.066681
	43.545000	-1.169829
	43.550000	-1.118255
	43.555000	-1.015107
	43.560000	-1.060234
	43.565000	-1.166605
	43.570000	-1.111808
	43.575000	-1.015107
	43.580000	-1.063458
	43.585000	-1.166605
	43.590000	-1.111808
	43.595000	-1.008661
	43.600000	-1.060234
	43.605000	-1.160158
	43.610000	-1.111808
	43.615000	-1.008661
	43.620000	-1.066681
	43.625000	-1.160158
	43.630000	-1.111808
	43.635000	-1.008661
	43.640000	-1.060234
	43.645000	-1.156935
	43.650000	-1.111808
	43.655000	-1.011884
	43.660000	-1.060234
	43.665000	-1.156935
	43.670000	-1.105361
	43.675000	-1.008661
	43.680000	-1.057011
	43.685000	-1.160158
	43.690000	-1.108585
	43.695000	-1.002214
	43.700000	-1.053788
	43.705000	-1.156935
	43.710000	-1.108585
	43.715000	-1.005437
	43.720000	-1.063458
	43.725000	-1.160158
	43.730000	-1.102138
	43.735000	-1.002214
	43.740000	-1.057011
	43.745000	-1.153712
	43.750000	-1.095691
	43.755000	-0.998991
	43.760000	-1.057011
	43.765000	-1.153712
	43.770000	-1.102138
	43.775000	-0.998991
	43.780000	-1.053788
	43.785000	-1.150488
	43.790000	-1.095691
	43.795000	-0.995767
	43.800000	-1.047341
	43.805000	-1.150488
	43.810000	-1.098915
	43.815000	-0.995767
	43.820000	-1.040894
	43.825000	-1.156935
	43.830000	-1.089245
	43.835000	-0.992544
	43.840000	-1.047341
	43.845000	-1.140818
	43.850000	-1.095691
	43.855000	-0.989320
	43.860000	-1.047341
	43.865000	-1.144042
	43.870000	-1.082798
	43.875000	-0.989320
	43.880000	-1.047341
	43.885000	-1.140818
	43.890000	-1.095691
	43.895000	-0.989320
	43.900000	-1.047341
	43.905000	-1.147265
	43.910000	-1.092468
	43.915000	-0.989320
	43.920000	-1.044118
	43.925000	-1.147265
	43.930000	-1.089245
	43.935000	-0.986097
	43.940000	-1.047341
	43.945000	-1.140818
	43.950000	-1.082798
	43.955000	-0.986097
	43.960000	-1.044118
	43.965000	-1.144042
	43.970000	-1.089245
	43.975000	-0.989320
	43.980000	-1.044118
	43.985000	-1.137595
	43.990000	-1.082798
	43.995000	-0.992544
	44.000000	-1.040894
	44.005000	-1.140818
	44.010000	-1.079574
	44.015000	-0.986097
	44.020000	-1.040894
	44.025000	-1.144042
	44.030000	-1.082798
	44.035000	-0.989320
	44.040000	-1.047341
	44.045000	-1.147265
	44.050000	-1.089245
	44.055000	-0.992544
	44.060000	-1.040894
	44.065000	-1.144042
	44.070000	-1.079574
	44.075000	-0.986097
	44.080000	-1.040894
	44.085000	-1.140818
	44.090000	-1.082798
	44.095000	-0.982874
	44.100000	-1.044118
	44.105000	-1.140818
	44.110000	-1.079574
	44.115000	-0.986097
	44.120000	-1.040894
	44.125000	-1.140818
	44.130000	-1.076351
	44.135000	-0.982874
	44.140000	-1.040894
	44.145000	-1.137595
	44.150000	-1.079574
	44.155000	-0.982874
	44.160000	-1.040894
	44.165000	-1.134372
	44.170000	-1.076351
	44.175000	-0.982874
	44.180000	-1.044118
	44.185000	-1.137595
	44.190000	-1.076351
	44.195000	-0.976427
	44.200000	-1.040894
	44.205000	-1.134372
	44.210000	-1.079574
	44.215000	-0.982874
	44.220000	-1.037671
	44.225000	-1.137595
	44.230000	-1.076351
	44.235000	-0.979650
	44.240000	-1.044118
	44.245000	-1.134372
	44.250000	-1.076351
	44.255000	-0.973204
	44.260000	-1.040894
	44.265000	-1.134372
	44.270000	-1.076351
	44.275000	-0.973204
	44.280000	-1.040894
	44.285000	-1.140818
	44.290000	-1.076351
	44.295000	-0.976427
	44.300000	-1.037671
	44.305000	-1.131148
	44.310000	-1.069904
	44.315000	-0.973204
	44.320000	-1.044118
	44.325000	-1.134372
	44.330000	-1.069904
	44.335000	-0.979650
	44.340000	-1.037671
	44.345000	-1.137595
	44.350000	-1.066681
	44.355000	-0.979650
	44.360000	-1.044118
	44.365000	-1.134372
	44.370000	-1.076351
	44.375000	-0.979650
	44.380000	-1.040894
	44.385000	-1.134372
	44.390000	-1.073128
	44.395000	-0.976427
	44.400000	-1.034447
	44.405000	-1.131148
	44.410000	-1.063458
	44.415000	-0.973204
	44.420000	-1.028001
	44.425000	-1.118255
	44.430000	-1.060234
	44.435000	-0.966757
	44.440000	-1.031224
	44.445000	-1.124702
	44.450000	-1.053788
	44.455000	-0.963534
	44.460000	-1.024777
	44.465000	-1.118255
	44.470000	-1.047341
	44.475000	-0.960310
	44.480000	-1.018331
	44.485000	-1.111808
	44.490000	-1.047341
	44.495000	-0.957087
	44.500000	-1.015107
	44.505000	-1.108585
	44.510000	-1.037671
	44.515000	-0.950640
	44.520000	-1.008661
	44.525000	-1.098915
	44.530000	-1.034447
	44.535000	-0.931300
	44.540000	-0.998991
	44.545000	-1.095691
	44.550000	-1.021554
	44.555000	-0.928077
	44.560000	-0.992544
	44.565000	-1.076351
	44.570000	-1.015107
	44.575000	-0.908736
	44.580000	-0.960310
	44.585000	-1.050564
	44.590000	-0.976427
	44.595000	-0.879726
	44.600000	-0.934523
	44.605000	-1.021554
	44.610000	-0.944193
	44.615000	-0.850716
	44.620000	-0.905513
	44.625000	-0.989320
	44.630000	-0.918407
	44.635000	-0.815259
	44.640000	-0.876503
	44.645000	-0.953863
	44.650000	-0.886173
	44.655000	-0.795919
	44.660000	-0.847493
	44.665000	-0.924853
	44.670000	-0.857163
	44.675000	-0.760462
	44.680000	-0.815259
	44.685000	-0.892620
	44.690000	-0.824929
	44.695000	-0.728228
	44.700000	-0.786249
	44.705000	-0.860386
	44.710000	-0.779802
	44.715000	-0.689548
	44.720000	-0.747569
	44.725000	-0.824929
	44.730000	-0.747569
	44.735000	-0.660538
	44.740000	-0.715335
	44.745000	-0.792696
	44.750000	-0.712112
	44.755000	-0.621858
	44.760000	-0.679878
	44.765000	-0.763685
	44.770000	-0.692771
	44.775000	-0.599294
	44.780000	-0.666985
	44.785000	-0.744345
	44.790000	-0.670208
	44.795000	-0.586401
	44.800000	-0.657314
	44.805000	-0.737898
	44.810000	-0.670208
	44.815000	-0.586401
	44.820000	-0.657314
	44.825000	-0.741122
	44.830000	-0.670208
	44.835000	-0.592847
	44.840000	-0.663761
	44.845000	-0.750792
	44.850000	-0.676655
	44.855000	-0.602517
	44.860000	-0.670208
	44.865000	-0.757239
	44.870000	-0.699218
	44.875000	-0.625081
	44.880000	-0.695995
	44.885000	-0.779802
	44.890000	-0.715335
	44.895000	-0.631528
	44.900000	-0.702441
	44.905000	-0.786249
	44.910000	-0.721782
	44.915000	-0.637974
	44.920000	-0.715335
	44.925000	-0.789472
	44.930000	-0.721782
	44.935000	-0.647644
	44.940000	-0.715335
	44.945000	-0.792696
	44.950000	-0.731452
	44.955000	-0.650868
	44.960000	-0.718558
	44.965000	-0.795919
	44.970000	-0.731452
	44.975000	-0.650868
	44.980000	-0.721782
	44.985000	-0.799142
	44.990000	-0.734675
	44.995000	-0.657314
	45.000000	-0.728228
	45.005000	-0.812036
	45.010000	-0.744345
	45.015000	-0.670208
	45.020000	-0.734675
	45.025000	-0.812036
	45.030000	-0.750792
	45.035000	-0.673431
	45.040000	-0.744345
	45.045000	-0.824929
	45.050000	-0.760462
	45.055000	-0.683101
	45.060000	-0.750792
	45.065000	-0.837823
	45.070000	-0.770132
	45.075000	-0.686325
	45.080000	-0.757239
	45.085000	-0.837823
	45.090000	-0.770132
	45.095000	-0.695995
	45.100000	-0.760462
	45.105000	-0.841046
	45.110000	-0.770132
	45.115000	-0.692771
	45.120000	-0.757239
	45.125000	-0.841046
	45.130000	-0.770132
	45.135000	-0.689548
	45.140000	-0.760462
	45.145000	-0.844269
	45.150000	-0.770132
	45.155000	-0.689548
	45.160000	-0.757239
	45.165000	-0.834599
	45.170000	-0.770132
	45.175000	-0.689548
	45.180000	-0.760462
	45.185000	-0.834599
	45.190000	-0.770132
	45.195000	-0.689548
	45.200000	-0.754015
	45.205000	-0.834599
	45.210000	-0.766909
	45.215000	-0.692771
	45.220000	-0.763685
	45.225000	-0.841046
	45.230000	-0.779802
	45.235000	-0.702441
	45.240000	-0.773355
	45.245000	-0.853939
	45.250000	-0.786249
	45.255000	-0.712112
	45.260000	-0.789472
	45.265000	-0.863609
	45.270000	-0.792696
	45.275000	-0.725005
	45.280000	-0.795919
	45.285000	-0.873280
	45.290000	-0.802366
	45.295000	-0.741122
	45.300000	-0.808812
	45.305000	-0.889396
	45.310000	-0.812036
	45.315000	-0.747569
	45.320000	-0.821706
	45.325000	-0.895843
	45.330000	-0.831376
	45.335000	-0.757239
	45.340000	-0.834599
	45.345000	-0.911960
	45.350000	-0.837823
	45.355000	-0.770132
	45.360000	-0.853939
	45.365000	-0.931300
	45.370000	-0.860386
	45.375000	-0.792696
	45.380000	-0.873280
	45.385000	-0.947417
	45.390000	-0.876503
	45.395000	-0.805589
	45.400000	-0.889396
	45.405000	-0.963534
	45.410000	-0.899066
	45.415000	-0.828152
	45.420000	-0.911960
	45.425000	-0.986097
	45.430000	-0.908736
	45.435000	-0.844269
	45.440000	-0.924853
	45.445000	-0.998991
	45.450000	-0.931300
	45.455000	-0.863609
	45.460000	-0.937747
	45.465000	-1.011884
	45.470000	-0.937747
	45.475000	-0.873280
	45.480000	-0.953863
	45.485000	-1.021554
	45.490000	-0.957087
	45.495000	-0.886173
	45.500000	-0.960310
	45.505000	-1.040894
	45.510000	-0.960310
	45.515000	-0.899066
	45.520000	-0.973204
	45.525000	-1.057011
	45.530000	-0.982874
	45.535000	-0.908736
	45.540000	-0.989320
	45.545000	-1.066681
	45.550000	-0.992544
	45.555000	-0.928077
	45.560000	-1.005437
	45.565000	-1.079574
	45.570000	-1.008661
	45.575000	-0.940970
	45.580000	-1.021554
	45.585000	-1.098915
	45.590000	-1.021554
	45.595000	-0.957087
	45.600000	-1.034447
	45.605000	-1.111808
	45.610000	-1.040894
	45.615000	-0.969980
	45.620000	-1.047341
	45.625000	-1.131148
	45.630000	-1.050564
	45.635000	-0.986097
	45.640000	-1.063458
	45.645000	-1.137595
	45.650000	-1.060234
	45.655000	-0.989320
	45.660000	-1.076351
	45.665000	-1.147265
	45.670000	-1.063458
	45.675000	-0.998991
	45.680000	-1.082798
	45.685000	-1.156935
	45.690000	-1.069904
	45.695000	-1.005437
	45.700000	-1.082798
	45.705000	-1.156935
	45.710000	-1.082798
	45.715000	-1.008661
	45.720000	-1.086021
	45.725000	-1.166605
	45.730000	-1.086021
	45.735000	-1.015107
	45.740000	-1.095691
	45.745000	-1.169829
	45.750000	-1.086021
	45.755000	-1.015107
	45.760000	-1.098915
	45.765000	-1.179499
	45.770000	-1.095691
	45.775000	-1.021554
	45.780000	-1.098915
	45.785000	-1.176275
	45.790000	-1.092468
	45.795000	-1.028001
	45.800000	-1.111808
	45.805000	-1.176275
	45.810000	-1.092468
	45.815000	-1.024777
	45.820000	-1.105361
	45.825000	-1.182722
	45.830000	-1.098915
	45.835000	-1.028001
	45.840000	-1.115031
	45.845000	-1.182722
	45.850000	-1.098915
	45.855000	-1.034447
	45.860000	-1.118255
	45.865000	-1.185945
	45.870000	-1.105361
	45.875000	-1.034447
	45.880000	-1.115031
	45.885000	-1.185945
	45.890000	-1.102138
	45.895000	-1.028001
	45.900000	-1.121478
	45.905000	-1.189169
	45.910000	-1.102138
	45.915000	-1.031224
	45.920000	-1.115031
	45.925000	-1.189169
	45.930000	-1.102138
	45.935000	-1.031224
	45.940000	-1.121478
	45.945000	-1.189169
	45.950000	-1.105361
	45.955000	-1.040894
	45.960000	-1.121478
	45.965000	-1.189169
	45.970000	-1.108585
	45.975000	-1.044118
	45.980000	-1.121478
	45.985000	-1.189169
	45.990000	-1.105361
	45.995000	-1.044118
	46.000000	-1.121478
	46.005000	-1.195615
	46.010000	-1.108585
	46.015000	-1.037671
	46.020000	-1.127925
	46.025000	-1.198839
	46.030000	-1.111808
	46.035000	-1.040894
	46.040000	-1.127925
	46.045000	-1.195615
	46.050000	-1.108585
	46.055000	-1.037671
	46.060000	-1.124702
	46.065000	-1.192392
	46.070000	-1.105361
	46.075000	-1.037671
	46.080000	-1.127925
	46.085000	-1.192392
	46.090000	-1.098915
	46.095000	-1.031224
	46.100000	-1.124702
	46.105000	-1.189169
	46.110000	-1.102138
	46.115000	-1.028001
	46.120000	-1.124702
	46.125000	-1.185945
	46.130000	-1.095691
	46.135000	-1.034447
	46.140000	-1.118255
	46.145000	-1.189169
	46.150000	-1.095691
	46.155000	-1.031224
	46.160000	-1.121478
	46.165000	-1.179499
	46.170000	-1.092468
	46.175000	-1.024777
	46.180000	-1.115031
	46.185000	-1.176275
	46.190000	-1.086021
	46.195000	-1.028001
	46.200000	-1.118255
	46.205000	-1.182722
	46.210000	-1.092468
	46.215000	-1.028001
	46.220000	-1.118255
	46.225000	-1.179499
	46.230000	-1.089245
	46.235000	-1.024777
	46.240000	-1.115031
	46.245000	-1.179499
	46.250000	-1.092468
	46.255000	-1.034447
	46.260000	-1.121478
	46.265000	-1.182722
	46.270000	-1.089245
	46.275000	-1.024777
	46.280000	-1.118255
	46.285000	-1.182722
	46.290000	-1.086021
	46.295000	-1.024777
	46.300000	-1.124702
	46.305000	-1.179499
	46.310000	-1.092468
	46.315000	-1.021554
	46.320000	-1.121478
	46.325000	-1.185945
	46.330000	-1.082798
	46.335000	-1.024777
	46.340000	-1.115031
	46.345000	-1.179499
	46.350000	-1.089245
	46.355000	-1.024777
	46.360000	-1.115031
	46.365000	-1.185945
	46.370000	-1.086021
	46.375000	-1.024777
	46.380000	-1.118255
	46.385000	-1.173052
	46.390000	-1.086021
	46.395000	-1.021554
	46.400000	-1.111808
	46.405000	-1.169829
	46.410000	-1.076351
	46.415000	-1.018331
	46.420000	-1.111808
	46.425000	-1.166605
	46.430000	-1.069904
	46.435000	-1.021554
	46.440000	-1.108585
	46.445000	-1.166605
	46.450000	-1.079574
	46.455000	-1.015107
	46.460000	-1.108585
	46.465000	-1.169829
	46.470000	-1.073128
	46.475000	-1.015107
	46.480000	-1.105361
	46.485000	-1.163382
	46.490000	-1.066681
	46.495000	-1.011884
	46.500000	-1.098915
	46.505000	-1.163382
	46.510000	-1.060234
	46.515000	-0.998991
	46.520000	-1.105361
	46.525000	-1.156935
	46.530000	-1.057011
	46.535000	-0.995767
	46.540000	-1.089245
	46.545000	-1.147265
	46.550000	-1.053788
	46.555000	-0.998991
	46.560000	-1.092468
	46.565000	-1.147265
	46.570000	-1.050564
	46.575000	-0.992544
	46.580000	-1.089245
	46.585000	-1.153712
	46.590000	-1.047341
	46.595000	-0.992544
	46.600000	-1.089245
	46.605000	-1.140818
	46.610000	-1.044118
	46.615000	-0.992544
	46.620000	-1.086021
	46.625000	-1.140818
	46.630000	-1.044118
	46.635000	-0.995767
	46.640000	-1.095691
	46.645000	-1.150488
	46.650000	-1.057011
	46.655000	-0.998991
	46.660000	-1.092468
	46.665000	-1.150488
	46.670000	-1.053788
	46.675000	-0.998991
	46.680000	-1.098915
	46.685000	-1.144042
	46.690000	-1.053788
	46.695000	-0.995767
	46.700000	-1.092468
	46.705000	-1.150488
	46.710000	-1.060234
	46.715000	-0.998991
	46.720000	-1.098915
	46.725000	-1.140818
	46.730000	-1.050564
	46.735000	-0.998991
	46.740000	-1.098915
	46.745000	-1.150488
	46.750000	-1.044118
	46.755000	-0.995767
	46.760000	-1.095691
	46.765000	-1.150488
	46.770000	-1.044118
	46.775000	-0.992544
	46.780000	-1.095691
	46.785000	-1.140818
	46.790000	-1.044118
	46.795000	-0.992544
	46.800000	-1.092468
	46.805000	-1.144042
	46.810000	-1.047341
	46.815000	-0.986097
	46.820000	-1.098915
	46.825000	-1.144042
	46.830000	-1.037671
	46.835000	-0.989320
	46.840000	-1.092468
	46.845000	-1.137595
	46.850000	-1.044118
	46.855000	-0.982874
	46.860000	-1.082798
	46.865000	-1.134372
	46.870000	-1.034447
	46.875000	-0.976427
	46.880000	-1.079574
	46.885000	-1.127925
	46.890000	-1.024777
	46.895000	-0.973204
	46.900000	-1.073128
	46.905000	-1.115031
	46.910000	-1.011884
	46.915000	-0.960310
	46.920000	-1.057011
	46.925000	-1.108585
	46.930000	-1.008661
	46.935000	-0.957087
	46.940000	-1.060234
	46.945000	-1.105361
	46.950000	-1.008661
	46.955000	-0.957087
	46.960000	-1.057011
	46.965000	-1.102138
	46.970000	-1.008661
	46.975000	-0.960310
	46.980000	-1.053788
	46.985000	-1.108585
	46.990000	-0.998991
	46.995000	-0.953863
	47.000000	-1.053788
	47.005000	-1.098915
	47.010000	-0.998991
	47.015000	-0.947417
	47.020000	-1.050564
	47.025000	-1.102138
	47.030000	-0.992544
	47.035000	-0.947417
	47.040000	-1.047341
	47.045000	-1.092468
	47.050000	-0.995767
	47.055000	-0.950640
	47.060000	-1.047341
	47.065000	-1.098915
	47.070000	-0.992544
	47.075000	-0.947417
	47.080000	-1.047341
	47.085000	-1.095691
	47.090000	-0.995767
	47.095000	-0.947417
	47.100000	-1.057011
	47.105000	-1.095691
	47.110000	-0.995767
	47.115000	-0.950640
	47.120000	-1.057011
	47.125000	-1.105361
	47.130000	-0.995767
	47.135000	-0.950640
	47.140000	-1.050564
	47.145000	-1.095691
	47.150000	-0.992544
	47.155000	-0.947417
	47.160000	-1.047341
	47.165000	-1.098915
	47.170000	-0.989320
	47.175000	-0.947417
	47.180000	-1.053788
	47.185000	-1.092468
	47.190000	-0.992544
	47.195000	-0.944193
	47.200000	-1.050564
	47.205000	-1.092468
	47.210000	-0.986097
	47.215000	-0.947417
	47.220000	-1.047341
	47.225000	-1.092468
	47.230000	-0.986097
	47.235000	-0.944193
	47.240000	-1.044118
	47.245000	-1.092468
	47.250000	-0.989320
	47.255000	-0.947417
	47.260000	-1.050564
	47.265000	-1.086021
	47.270000	-0.995767
	47.275000	-0.947417
	47.280000	-1.050564
	47.285000	-1.089245
	47.290000	-0.986097
	47.295000	-0.944193
	47.300000	-1.050564
	47.305000	-1.092468
	47.310000	-0.989320
	47.315000	-0.950640
