2024/7/11 	 11:35:10 
 This file comes from Vt only measurement 	 1.000000E-1 
 Voltage Sensitivity 	 0.000000E+0 
 Sampling rate 	 200 
 Number of samples per channel 	 -1 
 No filter from Labview 	 	 	 
 	 
 ***End_of_Header*** 
 	 Time 	  Voltage 	 Filtered Voltage 	 
	0.000000	-0.944193
	0.005000	-0.824929
	0.010000	-0.831376
	0.015000	-0.950640
	0.020000	-0.940970
	0.025000	-0.824929
	0.030000	-0.831376
	0.035000	-0.950640
	0.040000	-0.940970
	0.045000	-0.821706
	0.050000	-0.834599
	0.055000	-0.944193
	0.060000	-0.940970
	0.065000	-0.818482
	0.070000	-0.837823
	0.075000	-0.953863
	0.080000	-0.940970
	0.085000	-0.815259
	0.090000	-0.834599
	0.095000	-0.947417
	0.100000	-0.937747
	0.105000	-0.831376
	0.110000	-0.834599
	0.115000	-0.947417
	0.120000	-0.944193
	0.125000	-0.821706
	0.130000	-0.834599
	0.135000	-0.953863
	0.140000	-0.940970
	0.145000	-0.828152
	0.150000	-0.837823
	0.155000	-0.957087
	0.160000	-0.940970
	0.165000	-0.831376
	0.170000	-0.841046
	0.175000	-0.953863
	0.180000	-0.944193
	0.185000	-0.828152
	0.190000	-0.841046
	0.195000	-0.960310
	0.200000	-0.944193
	0.205000	-0.824929
	0.210000	-0.837823
	0.215000	-0.963534
	0.220000	-0.944193
	0.225000	-0.828152
	0.230000	-0.831376
	0.235000	-0.957087
	0.240000	-0.934523
	0.245000	-0.824929
	0.250000	-0.834599
	0.255000	-0.953863
	0.260000	-0.937747
	0.265000	-0.821706
	0.270000	-0.837823
	0.275000	-0.947417
	0.280000	-0.934523
	0.285000	-0.818482
	0.290000	-0.831376
	0.295000	-0.947417
	0.300000	-0.934523
	0.305000	-0.818482
	0.310000	-0.841046
	0.315000	-0.950640
	0.320000	-0.934523
	0.325000	-0.818482
	0.330000	-0.834599
	0.335000	-0.950640
	0.340000	-0.934523
	0.345000	-0.815259
	0.350000	-0.841046
	0.355000	-0.953863
	0.360000	-0.937747
	0.365000	-0.821706
	0.370000	-0.831376
	0.375000	-0.953863
	0.380000	-0.934523
	0.385000	-0.824929
	0.390000	-0.834599
	0.395000	-0.947417
	0.400000	-0.937747
	0.405000	-0.818482
	0.410000	-0.834599
	0.415000	-0.950640
	0.420000	-0.931300
	0.425000	-0.818482
	0.430000	-0.834599
	0.435000	-0.953863
	0.440000	-0.931300
	0.445000	-0.821706
	0.450000	-0.837823
	0.455000	-0.950640
	0.460000	-0.931300
	0.465000	-0.821706
	0.470000	-0.831376
	0.475000	-0.957087
	0.480000	-0.928077
	0.485000	-0.824929
	0.490000	-0.844269
	0.495000	-0.953863
	0.500000	-0.934523
	0.505000	-0.824929
	0.510000	-0.844269
	0.515000	-0.960310
	0.520000	-0.934523
	0.525000	-0.818482
	0.530000	-0.837823
	0.535000	-0.953863
	0.540000	-0.934523
	0.545000	-0.818482
	0.550000	-0.841046
	0.555000	-0.953863
	0.560000	-0.934523
	0.565000	-0.815259
	0.570000	-0.837823
	0.575000	-0.950640
	0.580000	-0.934523
	0.585000	-0.812036
	0.590000	-0.841046
	0.595000	-0.950640
	0.600000	-0.937747
	0.605000	-0.812036
	0.610000	-0.837823
	0.615000	-0.953863
	0.620000	-0.928077
	0.625000	-0.815259
	0.630000	-0.834599
	0.635000	-0.953863
	0.640000	-0.928077
	0.645000	-0.818482
	0.650000	-0.837823
	0.655000	-0.947417
	0.660000	-0.928077
	0.665000	-0.812036
	0.670000	-0.834599
	0.675000	-0.950640
	0.680000	-0.924853
	0.685000	-0.808812
	0.690000	-0.834599
	0.695000	-0.947417
	0.700000	-0.928077
	0.705000	-0.805589
	0.710000	-0.837823
	0.715000	-0.953863
	0.720000	-0.924853
	0.725000	-0.818482
	0.730000	-0.837823
	0.735000	-0.953863
	0.740000	-0.924853
	0.745000	-0.812036
	0.750000	-0.837823
	0.755000	-0.953863
	0.760000	-0.924853
	0.765000	-0.815259
	0.770000	-0.834599
	0.775000	-0.953863
	0.780000	-0.924853
	0.785000	-0.815259
	0.790000	-0.850716
	0.795000	-0.953863
	0.800000	-0.928077
	0.805000	-0.812036
	0.810000	-0.841046
	0.815000	-0.953863
	0.820000	-0.924853
	0.825000	-0.805589
	0.830000	-0.841046
	0.835000	-0.950640
	0.840000	-0.924853
	0.845000	-0.818482
	0.850000	-0.837823
	0.855000	-0.950640
	0.860000	-0.918407
	0.865000	-0.812036
	0.870000	-0.847493
	0.875000	-0.960310
	0.880000	-0.928077
	0.885000	-0.812036
	0.890000	-0.850716
	0.895000	-0.953863
	0.900000	-0.924853
	0.905000	-0.824929
	0.910000	-0.857163
	0.915000	-0.969980
	0.920000	-0.940970
	0.925000	-0.828152
	0.930000	-0.857163
	0.935000	-0.969980
	0.940000	-0.937747
	0.945000	-0.824929
	0.950000	-0.857163
	0.955000	-0.969980
	0.960000	-0.931300
	0.965000	-0.821706
	0.970000	-0.853939
	0.975000	-0.966757
	0.980000	-0.934523
	0.985000	-0.821706
	0.990000	-0.850716
	0.995000	-0.950640
	1.000000	-0.921630
	1.005000	-0.812036
	1.010000	-0.834599
	1.015000	-0.937747
	1.020000	-0.905513
	1.025000	-0.786249
	1.030000	-0.815259
	1.035000	-0.921630
	1.040000	-0.876503
	1.045000	-0.766909
	1.050000	-0.789472
	1.055000	-0.895843
	1.060000	-0.850716
	1.065000	-0.741122
	1.070000	-0.773355
	1.075000	-0.876503
	1.080000	-0.837823
	1.085000	-0.728228
	1.090000	-0.757239
	1.095000	-0.860386
	1.100000	-0.828152
	1.105000	-0.712112
	1.110000	-0.750792
	1.115000	-0.847493
	1.120000	-0.812036
	1.125000	-0.708888
	1.130000	-0.747569
	1.135000	-0.841046
	1.140000	-0.805589
	1.145000	-0.702441
	1.150000	-0.737898
	1.155000	-0.841046
	1.160000	-0.808812
	1.165000	-0.695995
	1.170000	-0.741122
	1.175000	-0.834599
	1.180000	-0.805589
	1.185000	-0.702441
	1.190000	-0.734675
	1.195000	-0.844269
	1.200000	-0.805589
	1.205000	-0.708888
	1.210000	-0.737898
	1.215000	-0.841046
	1.220000	-0.808812
	1.225000	-0.705665
	1.230000	-0.744345
	1.235000	-0.850716
	1.240000	-0.805589
	1.245000	-0.712112
	1.250000	-0.757239
	1.255000	-0.850716
	1.260000	-0.821706
	1.265000	-0.718558
	1.270000	-0.763685
	1.275000	-0.866833
	1.280000	-0.834599
	1.285000	-0.731452
	1.290000	-0.763685
	1.295000	-0.870056
	1.300000	-0.831376
	1.305000	-0.731452
	1.310000	-0.783025
	1.315000	-0.882950
	1.320000	-0.847493
	1.325000	-0.747569
	1.330000	-0.789472
	1.335000	-0.889396
	1.340000	-0.857163
	1.345000	-0.760462
	1.350000	-0.799142
	1.355000	-0.911960
	1.360000	-0.873280
	1.365000	-0.779802
	1.370000	-0.812036
	1.375000	-0.921630
	1.380000	-0.889396
	1.385000	-0.783025
	1.390000	-0.834599
	1.395000	-0.937747
	1.400000	-0.899066
	1.405000	-0.795919
	1.410000	-0.844269
	1.415000	-0.950640
	1.420000	-0.908736
	1.425000	-0.812036
	1.430000	-0.844269
	1.435000	-0.960310
	1.440000	-0.911960
	1.445000	-0.808812
	1.450000	-0.853939
	1.455000	-0.957087
	1.460000	-0.911960
	1.465000	-0.802366
	1.470000	-0.844269
	1.475000	-0.953863
	1.480000	-0.908736
	1.485000	-0.802366
	1.490000	-0.844269
	1.495000	-0.940970
	1.500000	-0.905513
	1.505000	-0.799142
	1.510000	-0.837823
	1.515000	-0.940970
	1.520000	-0.899066
	1.525000	-0.789472
	1.530000	-0.834599
	1.535000	-0.934523
	1.540000	-0.889396
	1.545000	-0.783025
	1.550000	-0.824929
	1.555000	-0.934523
	1.560000	-0.879726
	1.565000	-0.779802
	1.570000	-0.828152
	1.575000	-0.928077
	1.580000	-0.873280
	1.585000	-0.776579
	1.590000	-0.815259
	1.595000	-0.928077
	1.600000	-0.882950
	1.605000	-0.773355
	1.610000	-0.815259
	1.615000	-0.918407
	1.620000	-0.876503
	1.625000	-0.776579
	1.630000	-0.818482
	1.635000	-0.924853
	1.640000	-0.876503
	1.645000	-0.773355
	1.650000	-0.812036
	1.655000	-0.915183
	1.660000	-0.879726
	1.665000	-0.773355
	1.670000	-0.815259
	1.675000	-0.924853
	1.680000	-0.863609
	1.685000	-0.773355
	1.690000	-0.812036
	1.695000	-0.921630
	1.700000	-0.870056
	1.705000	-0.770132
	1.710000	-0.821706
	1.715000	-0.918407
	1.720000	-0.873280
	1.725000	-0.770132
	1.730000	-0.818482
	1.735000	-0.915183
	1.740000	-0.879726
	1.745000	-0.773355
	1.750000	-0.821706
	1.755000	-0.921630
	1.760000	-0.876503
	1.765000	-0.773355
	1.770000	-0.821706
	1.775000	-0.931300
	1.780000	-0.876503
	1.785000	-0.776579
	1.790000	-0.831376
	1.795000	-0.924853
	1.800000	-0.876503
	1.805000	-0.779802
	1.810000	-0.828152
	1.815000	-0.931300
	1.820000	-0.879726
	1.825000	-0.783025
	1.830000	-0.841046
	1.835000	-0.937747
	1.840000	-0.889396
	1.845000	-0.792696
	1.850000	-0.834599
	1.855000	-0.950640
	1.860000	-0.899066
	1.865000	-0.792696
	1.870000	-0.841046
	1.875000	-0.947417
	1.880000	-0.895843
	1.885000	-0.792696
	1.890000	-0.844269
	1.895000	-0.947417
	1.900000	-0.895843
	1.905000	-0.799142
	1.910000	-0.850716
	1.915000	-0.950640
	1.920000	-0.899066
	1.925000	-0.799142
	1.930000	-0.844269
	1.935000	-0.953863
	1.940000	-0.899066
	1.945000	-0.802366
	1.950000	-0.850716
	1.955000	-0.957087
	1.960000	-0.899066
	1.965000	-0.799142
	1.970000	-0.853939
	1.975000	-0.957087
	1.980000	-0.902290
	1.985000	-0.808812
	1.990000	-0.857163
	1.995000	-0.953863
	2.000000	-0.899066
	2.005000	-0.802366
	2.010000	-0.857163
	2.015000	-0.960310
	2.020000	-0.908736
	2.025000	-0.799142
	2.030000	-0.850716
	2.035000	-0.953863
	2.040000	-0.902290
	2.045000	-0.805589
	2.050000	-0.857163
	2.055000	-0.960310
	2.060000	-0.902290
	2.065000	-0.805589
	2.070000	-0.853939
	2.075000	-0.957087
	2.080000	-0.892620
	2.085000	-0.802366
	2.090000	-0.860386
	2.095000	-0.957087
	2.100000	-0.899066
	2.105000	-0.795919
	2.110000	-0.857163
	2.115000	-0.963534
	2.120000	-0.899066
	2.125000	-0.799142
	2.130000	-0.857163
	2.135000	-0.957087
	2.140000	-0.899066
	2.145000	-0.805589
	2.150000	-0.860386
	2.155000	-0.953863
	2.160000	-0.895843
	2.165000	-0.799142
	2.170000	-0.857163
	2.175000	-0.957087
	2.180000	-0.895843
	2.185000	-0.805589
	2.190000	-0.857163
	2.195000	-0.953863
	2.200000	-0.899066
	2.205000	-0.802366
	2.210000	-0.863609
	2.215000	-0.953863
	2.220000	-0.892620
	2.225000	-0.799142
	2.230000	-0.866833
	2.235000	-0.960310
	2.240000	-0.902290
	2.245000	-0.792696
	2.250000	-0.860386
	2.255000	-0.960310
	2.260000	-0.899066
	2.265000	-0.799142
	2.270000	-0.863609
	2.275000	-0.957087
	2.280000	-0.892620
	2.285000	-0.795919
	2.290000	-0.863609
	2.295000	-0.957087
	2.300000	-0.899066
	2.305000	-0.795919
	2.310000	-0.857163
	2.315000	-0.960310
	2.320000	-0.892620
	2.325000	-0.795919
	2.330000	-0.863609
	2.335000	-0.957087
	2.340000	-0.889396
	2.345000	-0.795919
	2.350000	-0.860386
	2.355000	-0.957087
	2.360000	-0.892620
	2.365000	-0.792696
	2.370000	-0.853939
	2.375000	-0.953863
	2.380000	-0.892620
	2.385000	-0.792696
	2.390000	-0.857163
	2.395000	-0.957087
	2.400000	-0.882950
	2.405000	-0.792696
	2.410000	-0.857163
	2.415000	-0.947417
	2.420000	-0.882950
	2.425000	-0.792696
	2.430000	-0.853939
	2.435000	-0.944193
	2.440000	-0.879726
	2.445000	-0.789472
	2.450000	-0.850716
	2.455000	-0.947417
	2.460000	-0.876503
	2.465000	-0.786249
	2.470000	-0.850716
	2.475000	-0.950640
	2.480000	-0.873280
	2.485000	-0.786249
	2.490000	-0.847493
	2.495000	-0.947417
	2.500000	-0.879726
	2.505000	-0.783025
	2.510000	-0.857163
	2.515000	-0.947417
	2.520000	-0.876503
	2.525000	-0.783025
	2.530000	-0.847493
	2.535000	-0.950640
	2.540000	-0.879726
	2.545000	-0.792696
	2.550000	-0.853939
	2.555000	-0.940970
	2.560000	-0.879726
	2.565000	-0.786249
	2.570000	-0.853939
	2.575000	-0.947417
	2.580000	-0.873280
	2.585000	-0.783025
	2.590000	-0.857163
	2.595000	-0.950640
	2.600000	-0.876503
	2.605000	-0.789472
	2.610000	-0.857163
	2.615000	-0.953863
	2.620000	-0.879726
	2.625000	-0.786249
	2.630000	-0.857163
	2.635000	-0.944193
	2.640000	-0.873280
	2.645000	-0.783025
	2.650000	-0.853939
	2.655000	-0.950640
	2.660000	-0.879726
	2.665000	-0.786249
	2.670000	-0.853939
	2.675000	-0.944193
	2.680000	-0.879726
	2.685000	-0.786249
	2.690000	-0.860386
	2.695000	-0.953863
	2.700000	-0.879726
	2.705000	-0.783025
	2.710000	-0.863609
	2.715000	-0.947417
	2.720000	-0.876503
	2.725000	-0.789472
	2.730000	-0.857163
	2.735000	-0.944193
	2.740000	-0.879726
	2.745000	-0.786249
	2.750000	-0.863609
	2.755000	-0.953863
	2.760000	-0.879726
	2.765000	-0.789472
	2.770000	-0.863609
	2.775000	-0.947417
	2.780000	-0.876503
	2.785000	-0.792696
	2.790000	-0.866833
	2.795000	-0.953863
	2.800000	-0.873280
	2.805000	-0.783025
	2.810000	-0.860386
	2.815000	-0.957087
	2.820000	-0.879726
	2.825000	-0.786249
	2.830000	-0.866833
	2.835000	-0.950640
	2.840000	-0.876503
	2.845000	-0.792696
	2.850000	-0.863609
	2.855000	-0.953863
	2.860000	-0.879726
	2.865000	-0.783025
	2.870000	-0.863609
	2.875000	-0.947417
	2.880000	-0.870056
	2.885000	-0.789472
	2.890000	-0.860386
	2.895000	-0.953863
	2.900000	-0.876503
	2.905000	-0.795919
	2.910000	-0.863609
	2.915000	-0.953863
	2.920000	-0.879726
	2.925000	-0.789472
	2.930000	-0.866833
	2.935000	-0.953863
	2.940000	-0.876503
	2.945000	-0.789472
	2.950000	-0.860386
	2.955000	-0.944193
	2.960000	-0.876503
	2.965000	-0.789472
	2.970000	-0.863609
	2.975000	-0.953863
	2.980000	-0.866833
	2.985000	-0.783025
	2.990000	-0.857163
	2.995000	-0.940970
	3.000000	-0.857163
	3.005000	-0.773355
	3.010000	-0.853939
	3.015000	-0.934523
	3.020000	-0.850716
	3.025000	-0.770132
	3.030000	-0.841046
	3.035000	-0.921630
	3.040000	-0.841046
	3.045000	-0.763685
	3.050000	-0.831376
	3.055000	-0.918407
	3.060000	-0.841046
	3.065000	-0.754015
	3.070000	-0.831376
	3.075000	-0.911960
	3.080000	-0.828152
	3.085000	-0.744345
	3.090000	-0.821706
	3.095000	-0.895843
	3.100000	-0.818482
	3.105000	-0.731452
	3.110000	-0.805589
	3.115000	-0.895843
	3.120000	-0.805589
	3.125000	-0.728228
	3.130000	-0.795919
	3.135000	-0.876503
	3.140000	-0.792696
	3.145000	-0.715335
	3.150000	-0.786249
	3.155000	-0.866833
	3.160000	-0.786249
	3.165000	-0.702441
	3.170000	-0.773355
	3.175000	-0.853939
	3.180000	-0.776579
	3.185000	-0.695995
	3.190000	-0.773355
	3.195000	-0.850716
	3.200000	-0.770132
	3.205000	-0.689548
	3.210000	-0.773355
	3.215000	-0.847493
	3.220000	-0.766909
	3.225000	-0.689548
	3.230000	-0.766909
	3.235000	-0.844269
	3.240000	-0.760462
	3.245000	-0.683101
	3.250000	-0.760462
	3.255000	-0.841046
	3.260000	-0.763685
	3.265000	-0.679878
	3.270000	-0.760462
	3.275000	-0.834599
	3.280000	-0.760462
	3.285000	-0.683101
	3.290000	-0.760462
	3.295000	-0.834599
	3.300000	-0.754015
	3.305000	-0.683101
	3.310000	-0.760462
	3.315000	-0.834599
	3.320000	-0.757239
	3.325000	-0.676655
	3.330000	-0.754015
	3.335000	-0.831376
	3.340000	-0.750792
	3.345000	-0.670208
	3.350000	-0.747569
	3.355000	-0.821706
	3.360000	-0.737898
	3.365000	-0.657314
	3.370000	-0.744345
	3.375000	-0.815259
	3.380000	-0.734675
	3.385000	-0.660538
	3.390000	-0.734675
	3.395000	-0.812036
	3.400000	-0.737898
	3.405000	-0.663761
	3.410000	-0.744345
	3.415000	-0.824929
	3.420000	-0.737898
	3.425000	-0.663761
	3.430000	-0.747569
	3.435000	-0.828152
	3.440000	-0.744345
	3.445000	-0.670208
	3.450000	-0.760462
	3.455000	-0.831376
	3.460000	-0.757239
	3.465000	-0.683101
	3.470000	-0.770132
	3.475000	-0.844269
	3.480000	-0.766909
	3.485000	-0.695995
	3.490000	-0.783025
	3.495000	-0.863609
	3.500000	-0.783025
	3.505000	-0.708888
	3.510000	-0.802366
	3.515000	-0.870056
	3.520000	-0.792696
	3.525000	-0.721782
	3.530000	-0.812036
	3.535000	-0.876503
	3.540000	-0.802366
	3.545000	-0.731452
	3.550000	-0.805589
	3.555000	-0.892620
	3.560000	-0.802366
	3.565000	-0.741122
	3.570000	-0.818482
	3.575000	-0.895843
	3.580000	-0.808812
	3.585000	-0.737898
	3.590000	-0.824929
	3.595000	-0.902290
	3.600000	-0.808812
	3.605000	-0.741122
	3.610000	-0.831376
	3.615000	-0.902290
	3.620000	-0.812036
	3.625000	-0.750792
	3.630000	-0.834599
	3.635000	-0.908736
	3.640000	-0.821706
	3.645000	-0.754015
	3.650000	-0.841046
	3.655000	-0.908736
	3.660000	-0.828152
	3.665000	-0.763685
	3.670000	-0.847493
	3.675000	-0.928077
	3.680000	-0.834599
	3.685000	-0.766909
	3.690000	-0.853939
	3.695000	-0.924853
	3.700000	-0.834599
	3.705000	-0.766909
	3.710000	-0.850716
	3.715000	-0.934523
	3.720000	-0.834599
	3.725000	-0.770132
	3.730000	-0.853939
	3.735000	-0.931300
	3.740000	-0.841046
	3.745000	-0.776579
	3.750000	-0.863609
	3.755000	-0.937747
	3.760000	-0.850716
	3.765000	-0.776579
	3.770000	-0.863609
	3.775000	-0.937747
	3.780000	-0.853939
	3.785000	-0.779802
	3.790000	-0.876503
	3.795000	-0.944193
	3.800000	-0.853939
	3.805000	-0.789472
	3.810000	-0.879726
	3.815000	-0.944193
	3.820000	-0.857163
	3.825000	-0.789472
	3.830000	-0.879726
	3.835000	-0.947417
	3.840000	-0.857163
	3.845000	-0.786249
	3.850000	-0.876503
	3.855000	-0.940970
	3.860000	-0.853939
	3.865000	-0.795919
	3.870000	-0.882950
	3.875000	-0.947417
	3.880000	-0.853939
	3.885000	-0.792696
	3.890000	-0.882950
	3.895000	-0.957087
	3.900000	-0.863609
	3.905000	-0.802366
	3.910000	-0.886173
	3.915000	-0.953863
	3.920000	-0.860386
	3.925000	-0.792696
	3.930000	-0.886173
	3.935000	-0.960310
	3.940000	-0.863609
	3.945000	-0.799142
	3.950000	-0.889396
	3.955000	-0.960310
	3.960000	-0.863609
	3.965000	-0.799142
	3.970000	-0.889396
	3.975000	-0.960310
	3.980000	-0.866833
	3.985000	-0.805589
	3.990000	-0.889396
	3.995000	-0.957087
	4.000000	-0.860386
	4.005000	-0.792696
	4.010000	-0.889396
	4.015000	-0.957087
	4.020000	-0.863609
	4.025000	-0.795919
	4.030000	-0.886173
	4.035000	-0.960310
	4.040000	-0.863609
	4.045000	-0.792696
	4.050000	-0.892620
	4.055000	-0.960310
	4.060000	-0.863609
	4.065000	-0.802366
	4.070000	-0.889396
	4.075000	-0.957087
	4.080000	-0.866833
	4.085000	-0.792696
	4.090000	-0.895843
	4.095000	-0.950640
	4.100000	-0.866833
	4.105000	-0.799142
	4.110000	-0.895843
	4.115000	-0.960310
	4.120000	-0.863609
	4.125000	-0.792696
	4.130000	-0.902290
	4.135000	-0.957087
	4.140000	-0.863609
	4.145000	-0.792696
	4.150000	-0.892620
	4.155000	-0.963534
	4.160000	-0.860386
	4.165000	-0.795919
	4.170000	-0.892620
	4.175000	-0.963534
	4.180000	-0.863609
	4.185000	-0.799142
	4.190000	-0.895843
	4.195000	-0.950640
	4.200000	-0.866833
	4.205000	-0.792696
	4.210000	-0.892620
	4.215000	-0.953863
	4.220000	-0.863609
	4.225000	-0.792696
	4.230000	-0.892620
	4.235000	-0.953863
	4.240000	-0.850716
	4.245000	-0.792696
	4.250000	-0.899066
	4.255000	-0.957087
	4.260000	-0.853939
	4.265000	-0.792696
	4.270000	-0.892620
	4.275000	-0.953863
	4.280000	-0.857163
	4.285000	-0.795919
	4.290000	-0.892620
	4.295000	-0.953863
	4.300000	-0.850716
	4.305000	-0.792696
	4.310000	-0.889396
	4.315000	-0.957087
	4.320000	-0.847493
	4.325000	-0.792696
	4.330000	-0.889396
	4.335000	-0.950640
	4.340000	-0.853939
	4.345000	-0.792696
	4.350000	-0.892620
	4.355000	-0.947417
	4.360000	-0.850716
	4.365000	-0.792696
	4.370000	-0.889396
	4.375000	-0.947417
	4.380000	-0.850716
	4.385000	-0.789472
	4.390000	-0.892620
	4.395000	-0.947417
	4.400000	-0.850716
	4.405000	-0.792696
	4.410000	-0.892620
	4.415000	-0.947417
	4.420000	-0.844269
	4.425000	-0.789472
	4.430000	-0.889396
	4.435000	-0.934523
	4.440000	-0.841046
	4.445000	-0.786249
	4.450000	-0.879726
	4.455000	-0.937747
	4.460000	-0.841046
	4.465000	-0.786249
	4.470000	-0.882950
	4.475000	-0.944193
	4.480000	-0.844269
	4.485000	-0.779802
	4.490000	-0.886173
	4.495000	-0.940970
	4.500000	-0.837823
	4.505000	-0.779802
	4.510000	-0.886173
	4.515000	-0.944193
	4.520000	-0.841046
	4.525000	-0.779802
	4.530000	-0.882950
	4.535000	-0.940970
	4.540000	-0.837823
	4.545000	-0.776579
	4.550000	-0.876503
	4.555000	-0.931300
	4.560000	-0.841046
	4.565000	-0.779802
	4.570000	-0.879726
	4.575000	-0.931300
	4.580000	-0.834599
	4.585000	-0.783025
	4.590000	-0.879726
	4.595000	-0.940970
	4.600000	-0.834599
	4.605000	-0.776579
	4.610000	-0.876503
	4.615000	-0.937747
	4.620000	-0.831376
	4.625000	-0.786249
	4.630000	-0.879726
	4.635000	-0.937747
	4.640000	-0.837823
	4.645000	-0.783025
	4.650000	-0.882950
	4.655000	-0.934523
	4.660000	-0.834599
	4.665000	-0.776579
	4.670000	-0.882950
	4.675000	-0.937747
	4.680000	-0.834599
	4.685000	-0.786249
	4.690000	-0.882950
	4.695000	-0.934523
	4.700000	-0.834599
	4.705000	-0.779802
	4.710000	-0.882950
	4.715000	-0.937747
	4.720000	-0.831376
	4.725000	-0.776579
	4.730000	-0.889396
	4.735000	-0.937747
	4.740000	-0.834599
	4.745000	-0.779802
	4.750000	-0.879726
	4.755000	-0.937747
	4.760000	-0.834599
	4.765000	-0.779802
	4.770000	-0.876503
	4.775000	-0.934523
	4.780000	-0.837823
	4.785000	-0.783025
	4.790000	-0.889396
	4.795000	-0.944193
	4.800000	-0.837823
	4.805000	-0.786249
	4.810000	-0.889396
	4.815000	-0.934523
	4.820000	-0.824929
	4.825000	-0.776579
	4.830000	-0.879726
	4.835000	-0.934523
	4.840000	-0.831376
	4.845000	-0.773355
	4.850000	-0.889396
	4.855000	-0.931300
	4.860000	-0.834599
	4.865000	-0.783025
	4.870000	-0.886173
	4.875000	-0.937747
	4.880000	-0.828152
	4.885000	-0.789472
	4.890000	-0.889396
	4.895000	-0.931300
	4.900000	-0.824929
	4.905000	-0.783025
	4.910000	-0.889396
	4.915000	-0.934523
	4.920000	-0.824929
	4.925000	-0.779802
	4.930000	-0.889396
	4.935000	-0.934523
	4.940000	-0.828152
	4.945000	-0.776579
	4.950000	-0.889396
	4.955000	-0.934523
	4.960000	-0.828152
	4.965000	-0.779802
	4.970000	-0.892620
	4.975000	-0.934523
	4.980000	-0.818482
	4.985000	-0.779802
	4.990000	-0.886173
	4.995000	-0.934523
	5.000000	-0.828152
	5.005000	-0.779802
	5.010000	-0.886173
	5.015000	-0.934523
	5.020000	-0.824929
	5.025000	-0.779802
	5.030000	-0.882950
	5.035000	-0.928077
	5.040000	-0.824929
	5.045000	-0.776579
	5.050000	-0.892620
	5.055000	-0.934523
	5.060000	-0.828152
	5.065000	-0.776579
	5.070000	-0.889396
	5.075000	-0.931300
	5.080000	-0.824929
	5.085000	-0.776579
	5.090000	-0.889396
	5.095000	-0.931300
	5.100000	-0.818482
	5.105000	-0.776579
	5.110000	-0.879726
	5.115000	-0.928077
	5.120000	-0.818482
	5.125000	-0.776579
	5.130000	-0.886173
	5.135000	-0.924853
	5.140000	-0.815259
	5.145000	-0.776579
	5.150000	-0.879726
	5.155000	-0.921630
	5.160000	-0.815259
	5.165000	-0.776579
	5.170000	-0.882950
	5.175000	-0.921630
	5.180000	-0.812036
	5.185000	-0.773355
	5.190000	-0.879726
	5.195000	-0.918407
	5.200000	-0.815259
	5.205000	-0.773355
	5.210000	-0.879726
	5.215000	-0.918407
	5.220000	-0.818482
	5.225000	-0.773355
	5.230000	-0.882950
	5.235000	-0.924853
	5.240000	-0.815259
	5.245000	-0.773355
	5.250000	-0.889396
	5.255000	-0.924853
	5.260000	-0.815259
	5.265000	-0.776579
	5.270000	-0.895843
	5.275000	-0.924853
	5.280000	-0.815259
	5.285000	-0.779802
	5.290000	-0.886173
	5.295000	-0.928077
	5.300000	-0.812036
	5.305000	-0.779802
	5.310000	-0.889396
	5.315000	-0.924853
	5.320000	-0.815259
	5.325000	-0.776579
	5.330000	-0.886173
	5.335000	-0.924853
	5.340000	-0.818482
	5.345000	-0.783025
	5.350000	-0.889396
	5.355000	-0.928077
	5.360000	-0.818482
	5.365000	-0.776579
	5.370000	-0.892620
	5.375000	-0.928077
	5.380000	-0.815259
	5.385000	-0.783025
	5.390000	-0.889396
	5.395000	-0.928077
	5.400000	-0.815259
	5.405000	-0.783025
	5.410000	-0.899066
	5.415000	-0.934523
	5.420000	-0.821706
	5.425000	-0.783025
	5.430000	-0.895843
	5.435000	-0.928077
	5.440000	-0.818482
	5.445000	-0.789472
	5.450000	-0.895843
	5.455000	-0.924853
	5.460000	-0.818482
	5.465000	-0.786249
	5.470000	-0.895843
	5.475000	-0.924853
	5.480000	-0.818482
	5.485000	-0.789472
	5.490000	-0.902290
	5.495000	-0.924853
	5.500000	-0.808812
	5.505000	-0.783025
	5.510000	-0.895843
	5.515000	-0.928077
	5.520000	-0.818482
	5.525000	-0.779802
	5.530000	-0.895843
	5.535000	-0.921630
	5.540000	-0.805589
	5.545000	-0.776579
	5.550000	-0.895843
	5.555000	-0.921630
	5.560000	-0.812036
	5.565000	-0.773355
	5.570000	-0.892620
	5.575000	-0.918407
	5.580000	-0.805589
	5.585000	-0.776579
	5.590000	-0.892620
	5.595000	-0.915183
	5.600000	-0.802366
	5.605000	-0.770132
	5.610000	-0.876503
	5.615000	-0.905513
	5.620000	-0.792696
	5.625000	-0.766909
	5.630000	-0.866833
	5.635000	-0.902290
	5.640000	-0.789472
	5.645000	-0.757239
	5.650000	-0.866833
	5.655000	-0.892620
	5.660000	-0.776579
	5.665000	-0.747569
	5.670000	-0.853939
	5.675000	-0.879726
	5.680000	-0.773355
	5.685000	-0.747569
	5.690000	-0.850716
	5.695000	-0.873280
	5.700000	-0.766909
	5.705000	-0.731452
	5.710000	-0.837823
	5.715000	-0.863609
	5.720000	-0.750792
	5.725000	-0.725005
	5.730000	-0.831376
	5.735000	-0.850716
	5.740000	-0.734675
	5.745000	-0.705665
	5.750000	-0.808812
	5.755000	-0.834599
	5.760000	-0.725005
	5.765000	-0.695995
	5.770000	-0.805589
	5.775000	-0.824929
	5.780000	-0.718558
	5.785000	-0.689548
	5.790000	-0.799142
	5.795000	-0.815259
	5.800000	-0.708888
	5.805000	-0.686325
	5.810000	-0.799142
	5.815000	-0.815259
	5.820000	-0.705665
	5.825000	-0.683101
	5.830000	-0.792696
	5.835000	-0.808812
	5.840000	-0.699218
	5.845000	-0.666985
	5.850000	-0.776579
	5.855000	-0.805589
	5.860000	-0.689548
	5.865000	-0.666985
	5.870000	-0.776579
	5.875000	-0.792696
	5.880000	-0.686325
	5.885000	-0.666985
	5.890000	-0.770132
	5.895000	-0.795919
	5.900000	-0.689548
	5.905000	-0.663761
	5.910000	-0.773355
	5.915000	-0.799142
	5.920000	-0.689548
	5.925000	-0.670208
	5.930000	-0.779802
	5.935000	-0.802366
	5.940000	-0.695995
	5.945000	-0.683101
	5.950000	-0.792696
	5.955000	-0.808812
	5.960000	-0.705665
	5.965000	-0.686325
	5.970000	-0.795919
	5.975000	-0.815259
	5.980000	-0.715335
	5.985000	-0.702441
	5.990000	-0.808812
	5.995000	-0.824929
	6.000000	-0.728228
	6.005000	-0.708888
	6.010000	-0.818482
	6.015000	-0.847493
	6.020000	-0.741122
	6.025000	-0.728228
	6.030000	-0.831376
	6.035000	-0.853939
	6.040000	-0.747569
	6.045000	-0.734675
	6.050000	-0.850716
	6.055000	-0.870056
	6.060000	-0.763685
	6.065000	-0.744345
	6.070000	-0.860386
	6.075000	-0.876503
	6.080000	-0.776579
	6.085000	-0.760462
	6.090000	-0.879726
	6.095000	-0.892620
	6.100000	-0.786249
	6.105000	-0.776579
	6.110000	-0.889396
	6.115000	-0.902290
	6.120000	-0.792696
	6.125000	-0.779802
	6.130000	-0.889396
	6.135000	-0.902290
	6.140000	-0.792696
	6.145000	-0.779802
	6.150000	-0.889396
	6.155000	-0.905513
	6.160000	-0.795919
	6.165000	-0.779802
	6.170000	-0.892620
	6.175000	-0.908736
	6.180000	-0.795919
	6.185000	-0.783025
	6.190000	-0.892620
	6.195000	-0.902290
	6.200000	-0.792696
	6.205000	-0.779802
	6.210000	-0.892620
	6.215000	-0.905513
	6.220000	-0.799142
	6.225000	-0.779802
	6.230000	-0.895843
	6.235000	-0.905513
	6.240000	-0.789472
	6.245000	-0.783025
	6.250000	-0.889396
	6.255000	-0.902290
	6.260000	-0.786249
	6.265000	-0.779802
	6.270000	-0.886173
	6.275000	-0.905513
	6.280000	-0.792696
	6.285000	-0.776579
	6.290000	-0.895843
	6.295000	-0.908736
	6.300000	-0.789472
	6.305000	-0.776579
	6.310000	-0.899066
	6.315000	-0.902290
	6.320000	-0.795919
	6.325000	-0.783025
	6.330000	-0.895843
	6.335000	-0.905513
	6.340000	-0.789472
	6.345000	-0.786249
	6.350000	-0.899066
	6.355000	-0.905513
	6.360000	-0.792696
	6.365000	-0.786249
	6.370000	-0.895843
	6.375000	-0.905513
	6.380000	-0.799142
	6.385000	-0.786249
	6.390000	-0.902290
	6.395000	-0.908736
	6.400000	-0.792696
	6.405000	-0.783025
	6.410000	-0.899066
	6.415000	-0.902290
	6.420000	-0.792696
	6.425000	-0.779802
	6.430000	-0.902290
	6.435000	-0.905513
	6.440000	-0.789472
	6.445000	-0.786249
	6.450000	-0.902290
	6.455000	-0.908736
	6.460000	-0.792696
	6.465000	-0.786249
	6.470000	-0.902290
	6.475000	-0.908736
	6.480000	-0.799142
	6.485000	-0.786249
	6.490000	-0.905513
	6.495000	-0.911960
	6.500000	-0.795919
	6.505000	-0.792696
	6.510000	-0.908736
	6.515000	-0.911960
	6.520000	-0.789472
	6.525000	-0.786249
	6.530000	-0.905513
	6.535000	-0.911960
	6.540000	-0.795919
	6.545000	-0.789472
	6.550000	-0.905513
	6.555000	-0.908736
	6.560000	-0.799142
	6.565000	-0.792696
	6.570000	-0.908736
	6.575000	-0.915183
	6.580000	-0.792696
	6.585000	-0.789472
	6.590000	-0.902290
	6.595000	-0.908736
	6.600000	-0.789472
	6.605000	-0.792696
	6.610000	-0.908736
	6.615000	-0.908736
	6.620000	-0.792696
	6.625000	-0.795919
	6.630000	-0.918407
	6.635000	-0.915183
	6.640000	-0.789472
	6.645000	-0.792696
	6.650000	-0.908736
	6.655000	-0.908736
	6.660000	-0.795919
	6.665000	-0.792696
	6.670000	-0.911960
	6.675000	-0.918407
	6.680000	-0.792696
	6.685000	-0.792696
	6.690000	-0.911960
	6.695000	-0.908736
	6.700000	-0.792696
	6.705000	-0.795919
	6.710000	-0.908736
	6.715000	-0.911960
	6.720000	-0.792696
	6.725000	-0.792696
	6.730000	-0.902290
	6.735000	-0.902290
	6.740000	-0.792696
	6.745000	-0.795919
	6.750000	-0.905513
	6.755000	-0.902290
	6.760000	-0.786249
	6.765000	-0.795919
	6.770000	-0.908736
	6.775000	-0.908736
	6.780000	-0.786249
	6.785000	-0.792696
	6.790000	-0.911960
	6.795000	-0.915183
	6.800000	-0.792696
	6.805000	-0.789472
	6.810000	-0.911960
	6.815000	-0.908736
	6.820000	-0.789472
	6.825000	-0.792696
	6.830000	-0.915183
	6.835000	-0.908736
	6.840000	-0.795919
	6.845000	-0.792696
	6.850000	-0.911960
	6.855000	-0.902290
	6.860000	-0.792696
	6.865000	-0.795919
	6.870000	-0.915183
	6.875000	-0.905513
	6.880000	-0.792696
	6.885000	-0.799142
	6.890000	-0.905513
	6.895000	-0.905513
	6.900000	-0.792696
	6.905000	-0.792696
	6.910000	-0.918407
	6.915000	-0.902290
	6.920000	-0.786249
	6.925000	-0.799142
	6.930000	-0.915183
	6.935000	-0.915183
	6.940000	-0.789472
	6.945000	-0.792696
	6.950000	-0.915183
	6.955000	-0.908736
	6.960000	-0.789472
	6.965000	-0.799142
	6.970000	-0.918407
	6.975000	-0.908736
	6.980000	-0.783025
	6.985000	-0.795919
	6.990000	-0.911960
	6.995000	-0.902290
	7.000000	-0.789472
	7.005000	-0.792696
	7.010000	-0.911960
	7.015000	-0.902290
	7.020000	-0.789472
	7.025000	-0.795919
	7.030000	-0.911960
	7.035000	-0.905513
	7.040000	-0.789472
	7.045000	-0.792696
	7.050000	-0.911960
	7.055000	-0.902290
	7.060000	-0.786249
	7.065000	-0.792696
	7.070000	-0.915183
	7.075000	-0.902290
	7.080000	-0.789472
	7.085000	-0.792696
	7.090000	-0.908736
	7.095000	-0.905513
	7.100000	-0.783025
	7.105000	-0.795919
	7.110000	-0.908736
	7.115000	-0.905513
	7.120000	-0.786249
	7.125000	-0.795919
	7.130000	-0.908736
	7.135000	-0.899066
	7.140000	-0.786249
	7.145000	-0.795919
	7.150000	-0.918407
	7.155000	-0.902290
	7.160000	-0.783025
	7.165000	-0.799142
	7.170000	-0.908736
	7.175000	-0.895843
	7.180000	-0.789472
	7.185000	-0.795919
	7.190000	-0.908736
	7.195000	-0.895843
	7.200000	-0.786249
	7.205000	-0.799142
	7.210000	-0.915183
	7.215000	-0.902290
	7.220000	-0.779802
	7.225000	-0.799142
	7.230000	-0.918407
	7.235000	-0.895843
	7.240000	-0.786249
	7.245000	-0.795919
	7.250000	-0.915183
	7.255000	-0.899066
	7.260000	-0.783025
	7.265000	-0.802366
	7.270000	-0.908736
	7.275000	-0.902290
	7.280000	-0.786249
	7.285000	-0.795919
	7.290000	-0.911960
	7.295000	-0.895843
	7.300000	-0.783025
	7.305000	-0.795919
	7.310000	-0.908736
	7.315000	-0.895843
	7.320000	-0.783025
	7.325000	-0.799142
	7.330000	-0.915183
	7.335000	-0.899066
	7.340000	-0.776579
	7.345000	-0.795919
	7.350000	-0.911960
	7.355000	-0.899066
	7.360000	-0.786249
	7.365000	-0.799142
	7.370000	-0.921630
	7.375000	-0.895843
	7.380000	-0.779802
	7.385000	-0.802366
	7.390000	-0.918407
	7.395000	-0.895843
	7.400000	-0.783025
	7.405000	-0.802366
	7.410000	-0.918407
	7.415000	-0.902290
	7.420000	-0.783025
	7.425000	-0.799142
	7.430000	-0.918407
	7.435000	-0.895843
	7.440000	-0.779802
	7.445000	-0.799142
	7.450000	-0.915183
	7.455000	-0.892620
	7.460000	-0.776579
	7.465000	-0.795919
	7.470000	-0.915183
	7.475000	-0.895843
	7.480000	-0.779802
	7.485000	-0.808812
	7.490000	-0.915183
	7.495000	-0.892620
	7.500000	-0.773355
	7.505000	-0.802366
	7.510000	-0.911960
	7.515000	-0.889396
	7.520000	-0.773355
	7.525000	-0.795919
	7.530000	-0.915183
	7.535000	-0.889396
	7.540000	-0.779802
	7.545000	-0.799142
	7.550000	-0.915183
	7.555000	-0.895843
	7.560000	-0.776579
	7.565000	-0.802366
	7.570000	-0.915183
	7.575000	-0.895843
	7.580000	-0.776579
	7.585000	-0.792696
	7.590000	-0.911960
	7.595000	-0.886173
	7.600000	-0.773355
	7.605000	-0.795919
	7.610000	-0.915183
	7.615000	-0.889396
	7.620000	-0.773355
	7.625000	-0.802366
	7.630000	-0.911960
	7.635000	-0.895843
	7.640000	-0.779802
	7.645000	-0.799142
	7.650000	-0.921630
	7.655000	-0.892620
	7.660000	-0.783025
	7.665000	-0.799142
	7.670000	-0.921630
	7.675000	-0.879726
	7.680000	-0.783025
	7.685000	-0.808812
	7.690000	-0.918407
	7.695000	-0.889396
	7.700000	-0.776579
	7.705000	-0.805589
	7.710000	-0.918407
	7.715000	-0.889396
	7.720000	-0.776579
	7.725000	-0.802366
	7.730000	-0.918407
	7.735000	-0.889396
	7.740000	-0.776579
	7.745000	-0.805589
	7.750000	-0.921630
	7.755000	-0.886173
	7.760000	-0.776579
	7.765000	-0.802366
	7.770000	-0.915183
	7.775000	-0.889396
	7.780000	-0.773355
	7.785000	-0.808812
	7.790000	-0.921630
	7.795000	-0.886173
	7.800000	-0.776579
	7.805000	-0.808812
	7.810000	-0.921630
	7.815000	-0.889396
	7.820000	-0.776579
	7.825000	-0.799142
	7.830000	-0.915183
	7.835000	-0.892620
	7.840000	-0.779802
	7.845000	-0.808812
	7.850000	-0.924853
	7.855000	-0.889396
	7.860000	-0.779802
	7.865000	-0.808812
	7.870000	-0.921630
	7.875000	-0.889396
	7.880000	-0.773355
	7.885000	-0.808812
	7.890000	-0.921630
	7.895000	-0.889396
	7.900000	-0.776579
	7.905000	-0.812036
	7.910000	-0.921630
	7.915000	-0.889396
	7.920000	-0.783025
	7.925000	-0.805589
	7.930000	-0.924853
	7.935000	-0.895843
	7.940000	-0.783025
	7.945000	-0.815259
	7.950000	-0.921630
	7.955000	-0.886173
	7.960000	-0.776579
	7.965000	-0.808812
	7.970000	-0.924853
	7.975000	-0.882950
	7.980000	-0.783025
	7.985000	-0.808812
	7.990000	-0.921630
	7.995000	-0.892620
	8.000000	-0.773355
	8.005000	-0.812036
	8.010000	-0.921630
	8.015000	-0.889396
	8.020000	-0.776579
	8.025000	-0.812036
	8.030000	-0.918407
	8.035000	-0.889396
	8.040000	-0.776579
	8.045000	-0.812036
	8.050000	-0.931300
	8.055000	-0.892620
	8.060000	-0.773355
	8.065000	-0.815259
	8.070000	-0.928077
	8.075000	-0.892620
	8.080000	-0.776579
	8.085000	-0.808812
	8.090000	-0.928077
	8.095000	-0.886173
	8.100000	-0.776579
	8.105000	-0.812036
	8.110000	-0.934523
	8.115000	-0.889396
	8.120000	-0.779802
	8.125000	-0.815259
	8.130000	-0.928077
	8.135000	-0.889396
	8.140000	-0.783025
	8.145000	-0.821706
	8.150000	-0.931300
	8.155000	-0.895843
	8.160000	-0.786249
	8.165000	-0.818482
	8.170000	-0.931300
	8.175000	-0.889396
	8.180000	-0.783025
	8.185000	-0.818482
	8.190000	-0.928077
	8.195000	-0.892620
	8.200000	-0.783025
	8.205000	-0.818482
	8.210000	-0.931300
	8.215000	-0.889396
	8.220000	-0.786249
	8.225000	-0.824929
	8.230000	-0.931300
	8.235000	-0.889396
	8.240000	-0.779802
	8.245000	-0.818482
	8.250000	-0.928077
	8.255000	-0.886173
	8.260000	-0.779802
	8.265000	-0.818482
	8.270000	-0.921630
	8.275000	-0.886173
	8.280000	-0.779802
	8.285000	-0.818482
	8.290000	-0.924853
	8.295000	-0.882950
	8.300000	-0.773355
	8.305000	-0.812036
	8.310000	-0.924853
	8.315000	-0.879726
	8.320000	-0.776579
	8.325000	-0.818482
	8.330000	-0.915183
	8.335000	-0.879726
	8.340000	-0.773355
	8.345000	-0.815259
	8.350000	-0.918407
	8.355000	-0.886173
	8.360000	-0.770132
	8.365000	-0.812036
	8.370000	-0.921630
	8.375000	-0.879726
	8.380000	-0.770132
	8.385000	-0.812036
	8.390000	-0.928077
	8.395000	-0.879726
	8.400000	-0.773355
	8.405000	-0.815259
	8.410000	-0.928077
	8.415000	-0.882950
	8.420000	-0.776579
	8.425000	-0.818482
	8.430000	-0.924853
	8.435000	-0.879726
	8.440000	-0.773355
	8.445000	-0.815259
	8.450000	-0.921630
	8.455000	-0.882950
	8.460000	-0.770132
	8.465000	-0.815259
	8.470000	-0.928077
	8.475000	-0.886173
	8.480000	-0.773355
	8.485000	-0.815259
	8.490000	-0.924853
	8.495000	-0.882950
	8.500000	-0.773355
	8.505000	-0.821706
	8.510000	-0.924853
	8.515000	-0.886173
	8.520000	-0.776579
	8.525000	-0.821706
	8.530000	-0.928077
	8.535000	-0.886173
	8.540000	-0.770132
	8.545000	-0.818482
	8.550000	-0.934523
	8.555000	-0.879726
	8.560000	-0.779802
	8.565000	-0.821706
	8.570000	-0.928077
	8.575000	-0.889396
	8.580000	-0.773355
	8.585000	-0.824929
	8.590000	-0.931300
	8.595000	-0.886173
	8.600000	-0.779802
	8.605000	-0.818482
	8.610000	-0.928077
	8.615000	-0.879726
	8.620000	-0.779802
	8.625000	-0.828152
	8.630000	-0.934523
	8.635000	-0.882950
	8.640000	-0.776579
	8.645000	-0.828152
	8.650000	-0.934523
	8.655000	-0.889396
	8.660000	-0.776579
	8.665000	-0.821706
	8.670000	-0.934523
	8.675000	-0.879726
	8.680000	-0.789472
	8.685000	-0.828152
	8.690000	-0.931300
	8.695000	-0.879726
	8.700000	-0.776579
	8.705000	-0.824929
	8.710000	-0.937747
	8.715000	-0.882950
	8.720000	-0.776579
	8.725000	-0.824929
	8.730000	-0.931300
	8.735000	-0.879726
	8.740000	-0.773355
	8.745000	-0.818482
	8.750000	-0.921630
	8.755000	-0.870056
	8.760000	-0.763685
	8.765000	-0.799142
	8.770000	-0.908736
	8.775000	-0.853939
	8.780000	-0.747569
	8.785000	-0.795919
	8.790000	-0.886173
	8.795000	-0.831376
	8.800000	-0.728228
	8.805000	-0.763685
	8.810000	-0.863609
	8.815000	-0.808812
	8.820000	-0.705665
	8.825000	-0.747569
	8.830000	-0.847493
	8.835000	-0.786249
	8.840000	-0.679878
	8.845000	-0.725005
	8.850000	-0.821706
	8.855000	-0.766909
	8.860000	-0.670208
	8.865000	-0.715335
	8.870000	-0.805589
	8.875000	-0.757239
	8.880000	-0.657314
	8.885000	-0.705665
	8.890000	-0.799142
	8.895000	-0.747569
	8.900000	-0.647644
	8.905000	-0.695995
	8.910000	-0.795919
	8.915000	-0.747569
	8.920000	-0.644421
	8.925000	-0.692771
	8.930000	-0.789472
	8.935000	-0.747569
	8.940000	-0.644421
	8.945000	-0.692771
	8.950000	-0.792696
	8.955000	-0.754015
	8.960000	-0.647644
	8.965000	-0.699218
	8.970000	-0.795919
	8.975000	-0.750792
	8.980000	-0.647644
	8.985000	-0.702441
	8.990000	-0.799142
	8.995000	-0.747569
	9.000000	-0.654091
	9.005000	-0.702441
	9.010000	-0.802366
	9.015000	-0.750792
	9.020000	-0.657314
	9.025000	-0.705665
	9.030000	-0.805589
	9.035000	-0.750792
	9.040000	-0.670208
	9.045000	-0.718558
	9.050000	-0.815259
	9.055000	-0.766909
	9.060000	-0.663761
	9.065000	-0.731452
	9.070000	-0.821706
	9.075000	-0.770132
	9.080000	-0.683101
	9.085000	-0.741122
	9.090000	-0.837823
	9.095000	-0.786249
	9.100000	-0.695995
	9.105000	-0.760462
	9.110000	-0.850716
	9.115000	-0.802366
	9.120000	-0.712112
	9.125000	-0.766909
	9.130000	-0.866833
	9.135000	-0.818482
	9.140000	-0.721782
	9.145000	-0.783025
	9.150000	-0.882950
	9.155000	-0.828152
	9.160000	-0.731452
	9.165000	-0.789472
	9.170000	-0.889396
	9.175000	-0.837823
	9.180000	-0.741122
	9.185000	-0.799142
	9.190000	-0.902290
	9.195000	-0.837823
	9.200000	-0.747569
	9.205000	-0.802366
	9.210000	-0.899066
	9.215000	-0.844269
	9.220000	-0.747569
	9.225000	-0.805589
	9.230000	-0.902290
	9.235000	-0.844269
	9.240000	-0.747569
	9.245000	-0.805589
	9.250000	-0.902290
	9.255000	-0.844269
	9.260000	-0.750792
	9.265000	-0.805589
	9.270000	-0.908736
	9.275000	-0.844269
	9.280000	-0.747569
	9.285000	-0.805589
	9.290000	-0.902290
	9.295000	-0.850716
	9.300000	-0.754015
	9.305000	-0.808812
	9.310000	-0.908736
	9.315000	-0.850716
	9.320000	-0.754015
	9.325000	-0.812036
	9.330000	-0.905513
	9.335000	-0.853939
	9.340000	-0.754015
	9.345000	-0.821706
	9.350000	-0.915183
	9.355000	-0.853939
	9.360000	-0.750792
	9.365000	-0.815259
	9.370000	-0.915183
	9.375000	-0.853939
	9.380000	-0.754015
	9.385000	-0.812036
	9.390000	-0.918407
	9.395000	-0.850716
	9.400000	-0.766909
	9.405000	-0.824929
	9.410000	-0.918407
	9.415000	-0.857163
	9.420000	-0.763685
	9.425000	-0.824929
	9.430000	-0.924853
	9.435000	-0.857163
	9.440000	-0.766909
	9.445000	-0.828152
	9.450000	-0.918407
	9.455000	-0.860386
	9.460000	-0.770132
	9.465000	-0.834599
	9.470000	-0.928077
	9.475000	-0.860386
	9.480000	-0.763685
	9.485000	-0.828152
	9.490000	-0.918407
	9.495000	-0.860386
	9.500000	-0.770132
	9.505000	-0.841046
	9.510000	-0.928077
	9.515000	-0.866833
	9.520000	-0.773355
	9.525000	-0.828152
	9.530000	-0.928077
	9.535000	-0.863609
	9.540000	-0.773355
	9.545000	-0.837823
	9.550000	-0.931300
	9.555000	-0.870056
	9.560000	-0.773355
	9.565000	-0.837823
	9.570000	-0.934523
	9.575000	-0.866833
	9.580000	-0.776579
	9.585000	-0.837823
	9.590000	-0.940970
	9.595000	-0.873280
	9.600000	-0.783025
	9.605000	-0.841046
	9.610000	-0.940970
	9.615000	-0.873280
	9.620000	-0.779802
	9.625000	-0.847493
	9.630000	-0.934523
	9.635000	-0.870056
	9.640000	-0.779802
	9.645000	-0.844269
	9.650000	-0.937747
	9.655000	-0.873280
	9.660000	-0.776579
	9.665000	-0.857163
	9.670000	-0.937747
	9.675000	-0.870056
	9.680000	-0.776579
	9.685000	-0.844269
	9.690000	-0.934523
	9.695000	-0.866833
	9.700000	-0.783025
	9.705000	-0.847493
	9.710000	-0.934523
	9.715000	-0.876503
	9.720000	-0.773355
	9.725000	-0.844269
	9.730000	-0.931300
	9.735000	-0.866833
	9.740000	-0.773355
	9.745000	-0.841046
	9.750000	-0.931300
	9.755000	-0.860386
	9.760000	-0.773355
	9.765000	-0.841046
	9.770000	-0.934523
	9.775000	-0.853939
	9.780000	-0.773355
	9.785000	-0.841046
	9.790000	-0.931300
	9.795000	-0.866833
	9.800000	-0.773355
	9.805000	-0.837823
	9.810000	-0.934523
	9.815000	-0.863609
	9.820000	-0.773355
	9.825000	-0.837823
	9.830000	-0.934523
	9.835000	-0.857163
	9.840000	-0.770132
	9.845000	-0.844269
	9.850000	-0.940970
	9.855000	-0.860386
	9.860000	-0.773355
	9.865000	-0.844269
	9.870000	-0.937747
	9.875000	-0.860386
	9.880000	-0.770132
	9.885000	-0.837823
	9.890000	-0.928077
	9.895000	-0.863609
	9.900000	-0.766909
	9.905000	-0.841046
	9.910000	-0.931300
	9.915000	-0.857163
	9.920000	-0.766909
	9.925000	-0.841046
	9.930000	-0.928077
	9.935000	-0.857163
	9.940000	-0.770132
	9.945000	-0.841046
	9.950000	-0.931300
	9.955000	-0.860386
	9.960000	-0.773355
	9.965000	-0.834599
	9.970000	-0.928077
	9.975000	-0.857163
	9.980000	-0.770132
	9.985000	-0.834599
	9.990000	-0.934523
	9.995000	-0.857163
	10.000000	-0.773355
	10.005000	-0.847493
	10.010000	-0.940970
	10.015000	-0.857163
	10.020000	-0.766909
	10.025000	-0.841046
	10.030000	-0.934523
	10.035000	-0.857163
	10.040000	-0.770132
	10.045000	-0.844269
	10.050000	-0.931300
	10.055000	-0.860386
	10.060000	-0.773355
	10.065000	-0.850716
	10.070000	-0.940970
	10.075000	-0.857163
	10.080000	-0.773355
	10.085000	-0.850716
	10.090000	-0.937747
	10.095000	-0.863609
	10.100000	-0.770132
	10.105000	-0.847493
	10.110000	-0.937747
	10.115000	-0.857163
	10.120000	-0.770132
	10.125000	-0.841046
	10.130000	-0.934523
	10.135000	-0.857163
	10.140000	-0.773355
	10.145000	-0.841046
	10.150000	-0.928077
	10.155000	-0.857163
	10.160000	-0.773355
	10.165000	-0.844269
	10.170000	-0.931300
	10.175000	-0.857163
	10.180000	-0.770132
	10.185000	-0.844269
	10.190000	-0.928077
	10.195000	-0.853939
	10.200000	-0.763685
	10.205000	-0.844269
	10.210000	-0.924853
	10.215000	-0.853939
	10.220000	-0.770132
	10.225000	-0.841046
	10.230000	-0.921630
	10.235000	-0.844269
	10.240000	-0.766909
	10.245000	-0.834599
	10.250000	-0.921630
	10.255000	-0.844269
	10.260000	-0.763685
	10.265000	-0.841046
	10.270000	-0.918407
	10.275000	-0.847493
	10.280000	-0.754015
	10.285000	-0.841046
	10.290000	-0.918407
	10.295000	-0.844269
	10.300000	-0.757239
	10.305000	-0.834599
	10.310000	-0.918407
	10.315000	-0.837823
	10.320000	-0.750792
	10.325000	-0.834599
	10.330000	-0.918407
	10.335000	-0.837823
	10.340000	-0.757239
	10.345000	-0.834599
	10.350000	-0.921630
	10.355000	-0.844269
	10.360000	-0.760462
	10.365000	-0.837823
	10.370000	-0.921630
	10.375000	-0.844269
	10.380000	-0.757239
	10.385000	-0.837823
	10.390000	-0.921630
	10.395000	-0.837823
	10.400000	-0.757239
	10.405000	-0.834599
	10.410000	-0.915183
	10.415000	-0.834599
	10.420000	-0.754015
	10.425000	-0.834599
	10.430000	-0.915183
	10.435000	-0.831376
	10.440000	-0.754015
	10.445000	-0.834599
	10.450000	-0.924853
	10.455000	-0.828152
	10.460000	-0.754015
	10.465000	-0.831376
	10.470000	-0.915183
	10.475000	-0.834599
	10.480000	-0.747569
	10.485000	-0.831376
	10.490000	-0.915183
	10.495000	-0.834599
	10.500000	-0.754015
	10.505000	-0.834599
	10.510000	-0.915183
	10.515000	-0.831376
	10.520000	-0.750792
	10.525000	-0.828152
	10.530000	-0.908736
	10.535000	-0.834599
	10.540000	-0.754015
	10.545000	-0.831376
	10.550000	-0.908736
	10.555000	-0.824929
	10.560000	-0.754015
	10.565000	-0.834599
	10.570000	-0.908736
	10.575000	-0.828152
	10.580000	-0.750792
	10.585000	-0.834599
	10.590000	-0.911960
	10.595000	-0.831376
	10.600000	-0.750792
	10.605000	-0.828152
	10.610000	-0.908736
	10.615000	-0.824929
	10.620000	-0.747569
	10.625000	-0.828152
	10.630000	-0.911960
	10.635000	-0.828152
	10.640000	-0.754015
	10.645000	-0.824929
	10.650000	-0.911960
	10.655000	-0.831376
	10.660000	-0.754015
	10.665000	-0.831376
	10.670000	-0.911960
	10.675000	-0.828152
	10.680000	-0.744345
	10.685000	-0.831376
	10.690000	-0.915183
	10.695000	-0.824929
	10.700000	-0.741122
	10.705000	-0.834599
	10.710000	-0.911960
	10.715000	-0.828152
	10.720000	-0.750792
	10.725000	-0.828152
	10.730000	-0.911960
	10.735000	-0.824929
	10.740000	-0.747569
	10.745000	-0.828152
	10.750000	-0.908736
	10.755000	-0.821706
	10.760000	-0.750792
	10.765000	-0.831376
	10.770000	-0.908736
	10.775000	-0.824929
	10.780000	-0.747569
	10.785000	-0.834599
	10.790000	-0.908736
	10.795000	-0.824929
	10.800000	-0.750792
	10.805000	-0.834599
	10.810000	-0.908736
	10.815000	-0.821706
	10.820000	-0.750792
	10.825000	-0.834599
	10.830000	-0.908736
	10.835000	-0.824929
	10.840000	-0.744345
	10.845000	-0.834599
	10.850000	-0.905513
	10.855000	-0.824929
	10.860000	-0.750792
	10.865000	-0.834599
	10.870000	-0.905513
	10.875000	-0.821706
	10.880000	-0.747569
	10.885000	-0.837823
	10.890000	-0.902290
	10.895000	-0.818482
	10.900000	-0.747569
	10.905000	-0.834599
	10.910000	-0.911960
	10.915000	-0.815259
	10.920000	-0.744345
	10.925000	-0.834599
	10.930000	-0.908736
	10.935000	-0.821706
	10.940000	-0.747569
	10.945000	-0.834599
	10.950000	-0.905513
	10.955000	-0.818482
	10.960000	-0.747569
	10.965000	-0.834599
	10.970000	-0.911960
	10.975000	-0.834599
	10.980000	-0.760462
	10.985000	-0.853939
	10.990000	-0.924853
	10.995000	-0.841046
	11.000000	-0.773355
	11.005000	-0.870056
	11.010000	-0.947417
	11.015000	-0.857163
	11.020000	-0.786249
	11.025000	-0.882950
	11.030000	-0.950640
	11.035000	-0.866833
	11.040000	-0.789472
	11.045000	-0.889396
	11.050000	-0.963534
	11.055000	-0.870056
	11.060000	-0.795919
	11.065000	-0.892620
	11.070000	-0.969980
	11.075000	-0.873280
	11.080000	-0.802366
	11.085000	-0.899066
	11.090000	-0.973204
	11.095000	-0.879726
	11.100000	-0.805589
	11.105000	-0.899066
	11.110000	-0.969980
	11.115000	-0.879726
	11.120000	-0.805589
	11.125000	-0.899066
	11.130000	-0.976427
	11.135000	-0.876503
	11.140000	-0.808812
	11.145000	-0.892620
	11.150000	-0.966757
	11.155000	-0.876503
	11.160000	-0.805589
	11.165000	-0.892620
	11.170000	-0.963534
	11.175000	-0.866833
	11.180000	-0.795919
	11.185000	-0.889396
	11.190000	-0.957087
	11.195000	-0.857163
	11.200000	-0.783025
	11.205000	-0.873280
	11.210000	-0.937747
	11.215000	-0.844269
	11.220000	-0.770132
	11.225000	-0.857163
	11.230000	-0.921630
	11.235000	-0.831376
	11.240000	-0.763685
	11.245000	-0.844269
	11.250000	-0.908736
	11.255000	-0.818482
	11.260000	-0.747569
	11.265000	-0.837823
	11.270000	-0.902290
	11.275000	-0.799142
	11.280000	-0.731452
	11.285000	-0.821706
	11.290000	-0.876503
	11.295000	-0.786249
	11.300000	-0.721782
	11.305000	-0.799142
	11.310000	-0.860386
	11.315000	-0.770132
	11.320000	-0.705665
	11.325000	-0.779802
	11.330000	-0.844269
	11.335000	-0.750792
	11.340000	-0.686325
	11.345000	-0.773355
	11.350000	-0.837823
	11.355000	-0.741122
	11.360000	-0.673431
	11.365000	-0.763685
	11.370000	-0.831376
	11.375000	-0.737898
	11.380000	-0.670208
	11.385000	-0.763685
	11.390000	-0.821706
	11.395000	-0.725005
	11.400000	-0.673431
	11.405000	-0.760462
	11.410000	-0.821706
	11.415000	-0.728228
	11.420000	-0.670208
	11.425000	-0.760462
	11.430000	-0.812036
	11.435000	-0.725005
	11.440000	-0.663761
	11.445000	-0.744345
	11.450000	-0.818482
	11.455000	-0.718558
	11.460000	-0.657314
	11.465000	-0.747569
	11.470000	-0.812036
	11.475000	-0.715335
	11.480000	-0.650868
	11.485000	-0.750792
	11.490000	-0.802366
	11.495000	-0.718558
	11.500000	-0.657314
	11.505000	-0.747569
	11.510000	-0.808812
	11.515000	-0.725005
	11.520000	-0.660538
	11.525000	-0.754015
	11.530000	-0.805589
	11.535000	-0.728228
	11.540000	-0.663761
	11.545000	-0.754015
	11.550000	-0.818482
	11.555000	-0.734675
	11.560000	-0.676655
	11.565000	-0.766909
	11.570000	-0.821706
	11.575000	-0.741122
	11.580000	-0.686325
	11.585000	-0.773355
	11.590000	-0.837823
	11.595000	-0.747569
	11.600000	-0.695995
	11.605000	-0.789472
	11.610000	-0.853939
	11.615000	-0.760462
	11.620000	-0.708888
	11.625000	-0.812036
	11.630000	-0.870056
	11.635000	-0.779802
	11.640000	-0.728228
	11.645000	-0.828152
	11.650000	-0.889396
	11.655000	-0.792696
	11.660000	-0.734675
	11.665000	-0.828152
	11.670000	-0.892620
	11.675000	-0.795919
	11.680000	-0.741122
	11.685000	-0.837823
	11.690000	-0.895843
	11.695000	-0.802366
	11.700000	-0.750792
	11.705000	-0.844269
	11.710000	-0.899066
	11.715000	-0.802366
	11.720000	-0.747569
	11.725000	-0.853939
	11.730000	-0.908736
	11.735000	-0.818482
	11.740000	-0.760462
	11.745000	-0.853939
	11.750000	-0.915183
	11.755000	-0.812036
	11.760000	-0.757239
	11.765000	-0.853939
	11.770000	-0.915183
	11.775000	-0.812036
	11.780000	-0.757239
	11.785000	-0.857163
	11.790000	-0.911960
	11.795000	-0.818482
	11.800000	-0.760462
	11.805000	-0.860386
	11.810000	-0.911960
	11.815000	-0.818482
	11.820000	-0.766909
	11.825000	-0.857163
	11.830000	-0.911960
	11.835000	-0.815259
	11.840000	-0.763685
	11.845000	-0.863609
	11.850000	-0.915183
	11.855000	-0.818482
	11.860000	-0.770132
	11.865000	-0.863609
	11.870000	-0.918407
	11.875000	-0.821706
	11.880000	-0.770132
	11.885000	-0.870056
	11.890000	-0.918407
	11.895000	-0.821706
	11.900000	-0.773355
	11.905000	-0.863609
	11.910000	-0.928077
	11.915000	-0.831376
	11.920000	-0.773355
	11.925000	-0.876503
	11.930000	-0.934523
	11.935000	-0.831376
	11.940000	-0.779802
	11.945000	-0.882950
	11.950000	-0.928077
	11.955000	-0.834599
	11.960000	-0.779802
	11.965000	-0.882950
	11.970000	-0.934523
	11.975000	-0.834599
	11.980000	-0.783025
	11.985000	-0.879726
	11.990000	-0.940970
	11.995000	-0.837823
	12.000000	-0.786249
	12.005000	-0.882950
	12.010000	-0.937747
	12.015000	-0.834599
	12.020000	-0.779802
	12.025000	-0.886173
	12.030000	-0.937747
	12.035000	-0.837823
	12.040000	-0.779802
	12.045000	-0.882950
	12.050000	-0.934523
	12.055000	-0.834599
	12.060000	-0.786249
	12.065000	-0.886173
	12.070000	-0.937747
	12.075000	-0.834599
	12.080000	-0.786249
	12.085000	-0.886173
	12.090000	-0.937747
	12.095000	-0.837823
	12.100000	-0.783025
	12.105000	-0.882950
	12.110000	-0.931300
	12.115000	-0.834599
	12.120000	-0.783025
	12.125000	-0.882950
	12.130000	-0.940970
	12.135000	-0.831376
	12.140000	-0.783025
	12.145000	-0.882950
	12.150000	-0.934523
	12.155000	-0.834599
	12.160000	-0.786249
	12.165000	-0.879726
	12.170000	-0.928077
	12.175000	-0.824929
	12.180000	-0.779802
	12.185000	-0.892620
	12.190000	-0.931300
	12.195000	-0.828152
	12.200000	-0.786249
	12.205000	-0.882950
	12.210000	-0.931300
	12.215000	-0.831376
	12.220000	-0.783025
	12.225000	-0.879726
	12.230000	-0.934523
	12.235000	-0.828152
	12.240000	-0.779802
	12.245000	-0.889396
	12.250000	-0.931300
	12.255000	-0.824929
	12.260000	-0.779802
	12.265000	-0.882950
	12.270000	-0.937747
	12.275000	-0.824929
	12.280000	-0.783025
	12.285000	-0.886173
	12.290000	-0.931300
	12.295000	-0.824929
	12.300000	-0.783025
	12.305000	-0.892620
	12.310000	-0.934523
	12.315000	-0.834599
	12.320000	-0.776579
	12.325000	-0.879726
	12.330000	-0.934523
	12.335000	-0.828152
	12.340000	-0.786249
	12.345000	-0.892620
	12.350000	-0.934523
	12.355000	-0.831376
	12.360000	-0.779802
	12.365000	-0.889396
	12.370000	-0.937747
	12.375000	-0.828152
	12.380000	-0.786249
	12.385000	-0.889396
	12.390000	-0.934523
	12.395000	-0.831376
	12.400000	-0.789472
	12.405000	-0.889396
	12.410000	-0.937747
	12.415000	-0.834599
	12.420000	-0.786249
	12.425000	-0.895843
	12.430000	-0.937747
	12.435000	-0.824929
	12.440000	-0.783025
	12.445000	-0.889396
	12.450000	-0.928077
	12.455000	-0.831376
	12.460000	-0.779802
	12.465000	-0.889396
	12.470000	-0.937747
	12.475000	-0.828152
	12.480000	-0.786249
	12.485000	-0.889396
	12.490000	-0.928077
	12.495000	-0.821706
	12.500000	-0.786249
	12.505000	-0.889396
	12.510000	-0.928077
	12.515000	-0.824929
	12.520000	-0.776579
	12.525000	-0.886173
	12.530000	-0.924853
	12.535000	-0.821706
	12.540000	-0.779802
	12.545000	-0.889396
	12.550000	-0.928077
	12.555000	-0.818482
	12.560000	-0.783025
	12.565000	-0.886173
	12.570000	-0.928077
	12.575000	-0.821706
	12.580000	-0.776579
	12.585000	-0.886173
	12.590000	-0.928077
	12.595000	-0.821706
	12.600000	-0.779802
	12.605000	-0.879726
	12.610000	-0.928077
	12.615000	-0.824929
	12.620000	-0.776579
	12.625000	-0.886173
	12.630000	-0.928077
	12.635000	-0.824929
	12.640000	-0.783025
	12.645000	-0.889396
	12.650000	-0.931300
	12.655000	-0.818482
	12.660000	-0.783025
	12.665000	-0.895843
	12.670000	-0.928077
	12.675000	-0.824929
	12.680000	-0.783025
	12.685000	-0.892620
	12.690000	-0.931300
	12.695000	-0.821706
	12.700000	-0.789472
	12.705000	-0.895843
	12.710000	-0.934523
	12.715000	-0.821706
	12.720000	-0.783025
	12.725000	-0.892620
	12.730000	-0.934523
	12.735000	-0.824929
	12.740000	-0.779802
	12.745000	-0.895843
	12.750000	-0.931300
	12.755000	-0.821706
	12.760000	-0.786249
	12.765000	-0.902290
	12.770000	-0.928077
	12.775000	-0.824929
	12.780000	-0.789472
	12.785000	-0.899066
	12.790000	-0.928077
	12.795000	-0.828152
	12.800000	-0.789472
	12.805000	-0.899066
	12.810000	-0.928077
	12.815000	-0.828152
	12.820000	-0.789472
	12.825000	-0.899066
	12.830000	-0.934523
	12.835000	-0.828152
	12.840000	-0.792696
	12.845000	-0.899066
	12.850000	-0.937747
	12.855000	-0.824929
	12.860000	-0.786249
	12.865000	-0.899066
	12.870000	-0.934523
	12.875000	-0.815259
	12.880000	-0.795919
	12.885000	-0.895843
	12.890000	-0.928077
	12.895000	-0.821706
	12.900000	-0.786249
	12.905000	-0.892620
	12.910000	-0.934523
	12.915000	-0.815259
	12.920000	-0.792696
	12.925000	-0.899066
	12.930000	-0.931300
	12.935000	-0.828152
	12.940000	-0.792696
	12.945000	-0.905513
	12.950000	-0.934523
	12.955000	-0.828152
	12.960000	-0.783025
	12.965000	-0.902290
	12.970000	-0.931300
	12.975000	-0.828152
	12.980000	-0.792696
	12.985000	-0.908736
	12.990000	-0.931300
	12.995000	-0.818482
	13.000000	-0.795919
	13.005000	-0.905513
	13.010000	-0.934523
	13.015000	-0.824929
	13.020000	-0.795919
	13.025000	-0.902290
	13.030000	-0.928077
	13.035000	-0.824929
	13.040000	-0.792696
	13.045000	-0.899066
	13.050000	-0.934523
	13.055000	-0.821706
	13.060000	-0.792696
	13.065000	-0.902290
	13.070000	-0.934523
	13.075000	-0.821706
	13.080000	-0.789472
	13.085000	-0.895843
	13.090000	-0.934523
	13.095000	-0.818482
	13.100000	-0.795919
	13.105000	-0.905513
	13.110000	-0.934523
	13.115000	-0.824929
	13.120000	-0.792696
	13.125000	-0.908736
	13.130000	-0.937747
	13.135000	-0.824929
	13.140000	-0.795919
	13.145000	-0.908736
	13.150000	-0.934523
	13.155000	-0.824929
	13.160000	-0.795919
	13.165000	-0.908736
	13.170000	-0.934523
	13.175000	-0.828152
	13.180000	-0.802366
	13.185000	-0.911960
	13.190000	-0.937747
	13.195000	-0.828152
	13.200000	-0.802366
	13.205000	-0.915183
	13.210000	-0.937747
	13.215000	-0.834599
	13.220000	-0.805589
	13.225000	-0.915183
	13.230000	-0.940970
	13.235000	-0.824929
	13.240000	-0.799142
	13.245000	-0.911960
	13.250000	-0.944193
	13.255000	-0.824929
	13.260000	-0.802366
	13.265000	-0.918407
	13.270000	-0.934523
	13.275000	-0.828152
	13.280000	-0.805589
	13.285000	-0.911960
	13.290000	-0.944193
	13.295000	-0.824929
	13.300000	-0.805589
	13.305000	-0.924853
	13.310000	-0.940970
	13.315000	-0.824929
	13.320000	-0.802366
	13.325000	-0.915183
	13.330000	-0.947417
	13.335000	-0.834599
	13.340000	-0.812036
	13.345000	-0.918407
	13.350000	-0.934523
	13.355000	-0.824929
	13.360000	-0.805589
	13.365000	-0.918407
	13.370000	-0.940970
	13.375000	-0.828152
	13.380000	-0.799142
	13.385000	-0.921630
	13.390000	-0.934523
	13.395000	-0.824929
	13.400000	-0.808812
	13.405000	-0.908736
	13.410000	-0.937747
	13.415000	-0.831376
	13.420000	-0.805589
	13.425000	-0.924853
	13.430000	-0.934523
	13.435000	-0.828152
	13.440000	-0.802366
	13.445000	-0.921630
	13.450000	-0.947417
	13.455000	-0.828152
	13.460000	-0.802366
	13.465000	-0.918407
	13.470000	-0.937747
	13.475000	-0.821706
	13.480000	-0.805589
	13.485000	-0.921630
	13.490000	-0.934523
	13.495000	-0.818482
	13.500000	-0.808812
	13.505000	-0.918407
	13.510000	-0.931300
	13.515000	-0.815259
	13.520000	-0.799142
	13.525000	-0.908736
	13.530000	-0.921630
	13.535000	-0.808812
	13.540000	-0.792696
	13.545000	-0.899066
	13.550000	-0.902290
	13.555000	-0.786249
	13.560000	-0.770132
	13.565000	-0.876503
	13.570000	-0.886173
	13.575000	-0.773355
	13.580000	-0.757239
	13.585000	-0.866833
	13.590000	-0.873280
	13.595000	-0.766909
	13.600000	-0.741122
	13.605000	-0.847493
	13.610000	-0.863609
	13.615000	-0.757239
	13.620000	-0.734675
	13.625000	-0.834599
	13.630000	-0.850716
	13.635000	-0.741122
	13.640000	-0.725005
	13.645000	-0.831376
	13.650000	-0.844269
	13.655000	-0.734675
	13.660000	-0.718558
	13.665000	-0.821706
	13.670000	-0.834599
	13.675000	-0.721782
	13.680000	-0.712112
	13.685000	-0.824929
	13.690000	-0.821706
	13.695000	-0.721782
	13.700000	-0.699218
	13.705000	-0.805589
	13.710000	-0.821706
	13.715000	-0.708888
	13.720000	-0.699218
	13.725000	-0.805589
	13.730000	-0.815259
	13.735000	-0.699218
	13.740000	-0.692771
	13.745000	-0.799142
	13.750000	-0.808812
	13.755000	-0.695995
	13.760000	-0.686325
	13.765000	-0.789472
	13.770000	-0.802366
	13.775000	-0.692771
	13.780000	-0.679878
	13.785000	-0.789472
	13.790000	-0.795919
	13.795000	-0.686325
	13.800000	-0.679878
	13.805000	-0.786249
	13.810000	-0.792696
	13.815000	-0.683101
	13.820000	-0.670208
	13.825000	-0.776579
	13.830000	-0.789472
	13.835000	-0.689548
	13.840000	-0.666985
	13.845000	-0.773355
	13.850000	-0.792696
	13.855000	-0.676655
	13.860000	-0.670208
	13.865000	-0.779802
	13.870000	-0.786249
	13.875000	-0.686325
	13.880000	-0.673431
	13.885000	-0.773355
	13.890000	-0.779802
	13.895000	-0.679878
	13.900000	-0.666985
	13.905000	-0.779802
	13.910000	-0.786249
	13.915000	-0.676655
	13.920000	-0.673431
	13.925000	-0.779802
	13.930000	-0.786249
	13.935000	-0.683101
	13.940000	-0.676655
	13.945000	-0.792696
	13.950000	-0.799142
	13.955000	-0.695995
	13.960000	-0.689548
	13.965000	-0.805589
	13.970000	-0.815259
	13.975000	-0.708888
	13.980000	-0.708888
	13.985000	-0.818482
	13.990000	-0.828152
	13.995000	-0.721782
	14.000000	-0.718558
	14.005000	-0.831376
	14.010000	-0.841046
	14.015000	-0.734675
	14.020000	-0.728228
	14.025000	-0.844269
	14.030000	-0.857163
	14.035000	-0.750792
	14.040000	-0.744345
	14.045000	-0.847493
	14.050000	-0.860386
	14.055000	-0.747569
	14.060000	-0.747569
	14.065000	-0.870056
	14.070000	-0.870056
	14.075000	-0.766909
	14.080000	-0.763685
	14.085000	-0.876503
	14.090000	-0.882950
	14.095000	-0.776579
	14.100000	-0.766909
	14.105000	-0.882950
	14.110000	-0.889396
	14.115000	-0.779802
	14.120000	-0.776579
	14.125000	-0.895843
	14.130000	-0.895843
	14.135000	-0.786249
	14.140000	-0.786249
	14.145000	-0.899066
	14.150000	-0.902290
	14.155000	-0.789472
	14.160000	-0.792696
	14.165000	-0.899066
	14.170000	-0.908736
	14.175000	-0.792696
	14.180000	-0.789472
	14.185000	-0.899066
	14.190000	-0.902290
	14.195000	-0.799142
	14.200000	-0.792696
	14.205000	-0.915183
	14.210000	-0.911960
	14.215000	-0.802366
	14.220000	-0.799142
	14.225000	-0.915183
	14.230000	-0.915183
	14.235000	-0.805589
	14.240000	-0.799142
	14.245000	-0.911960
	14.250000	-0.918407
	14.255000	-0.805589
	14.260000	-0.795919
	14.265000	-0.918407
	14.270000	-0.918407
	14.275000	-0.808812
	14.280000	-0.802366
	14.285000	-0.924853
	14.290000	-0.918407
	14.295000	-0.805589
	14.300000	-0.808812
	14.305000	-0.924853
	14.310000	-0.918407
	14.315000	-0.805589
	14.320000	-0.805589
	14.325000	-0.921630
	14.330000	-0.928077
	14.335000	-0.812036
	14.340000	-0.821706
	14.345000	-0.921630
	14.350000	-0.924853
	14.355000	-0.812036
	14.360000	-0.815259
	14.365000	-0.924853
	14.370000	-0.921630
	14.375000	-0.815259
	14.380000	-0.821706
	14.385000	-0.937747
	14.390000	-0.924853
	14.395000	-0.824929
	14.400000	-0.821706
	14.405000	-0.937747
	14.410000	-0.931300
	14.415000	-0.818482
	14.420000	-0.818482
	14.425000	-0.940970
	14.430000	-0.937747
	14.435000	-0.824929
	14.440000	-0.828152
	14.445000	-0.937747
	14.450000	-0.931300
	14.455000	-0.828152
	14.460000	-0.828152
	14.465000	-0.944193
	14.470000	-0.937747
	14.475000	-0.821706
	14.480000	-0.828152
	14.485000	-0.944193
	14.490000	-0.940970
	14.495000	-0.831376
	14.500000	-0.831376
	14.505000	-0.944193
	14.510000	-0.937747
	14.515000	-0.828152
	14.520000	-0.831376
	14.525000	-0.944193
	14.530000	-0.940970
	14.535000	-0.824929
	14.540000	-0.834599
	14.545000	-0.947417
	14.550000	-0.931300
	14.555000	-0.828152
	14.560000	-0.828152
	14.565000	-0.944193
	14.570000	-0.944193
	14.575000	-0.821706
	14.580000	-0.831376
	14.585000	-0.944193
	14.590000	-0.937747
	14.595000	-0.821706
	14.600000	-0.834599
	14.605000	-0.944193
	14.610000	-0.940970
	14.615000	-0.828152
	14.620000	-0.828152
	14.625000	-0.937747
	14.630000	-0.934523
	14.635000	-0.815259
	14.640000	-0.824929
	14.645000	-0.944193
	14.650000	-0.928077
	14.655000	-0.818482
	14.660000	-0.818482
	14.665000	-0.940970
	14.670000	-0.934523
	14.675000	-0.815259
	14.680000	-0.828152
	14.685000	-0.944193
	14.690000	-0.924853
	14.695000	-0.815259
	14.700000	-0.828152
	14.705000	-0.940970
	14.710000	-0.928077
	14.715000	-0.815259
	14.720000	-0.824929
	14.725000	-0.947417
	14.730000	-0.928077
	14.735000	-0.818482
	14.740000	-0.828152
	14.745000	-0.937747
	14.750000	-0.924853
	14.755000	-0.818482
	14.760000	-0.828152
	14.765000	-0.940970
	14.770000	-0.928077
	14.775000	-0.815259
	14.780000	-0.831376
	14.785000	-0.940970
	14.790000	-0.928077
	14.795000	-0.815259
	14.800000	-0.824929
	14.805000	-0.940970
	14.810000	-0.931300
	14.815000	-0.815259
	14.820000	-0.828152
	14.825000	-0.947417
	14.830000	-0.928077
	14.835000	-0.815259
	14.840000	-0.828152
	14.845000	-0.937747
	14.850000	-0.924853
	14.855000	-0.818482
	14.860000	-0.831376
	14.865000	-0.947417
	14.870000	-0.928077
	14.875000	-0.818482
	14.880000	-0.834599
	14.885000	-0.940970
	14.890000	-0.934523
	14.895000	-0.812036
	14.900000	-0.828152
	14.905000	-0.944193
	14.910000	-0.928077
	14.915000	-0.821706
	14.920000	-0.837823
	14.925000	-0.950640
	14.930000	-0.934523
	14.935000	-0.824929
	14.940000	-0.824929
	14.945000	-0.944193
	14.950000	-0.924853
	14.955000	-0.815259
	14.960000	-0.828152
	14.965000	-0.950640
	14.970000	-0.921630
	14.975000	-0.818482
	14.980000	-0.828152
	14.985000	-0.947417
	14.990000	-0.921630
	14.995000	-0.812036
	15.000000	-0.828152
	15.005000	-0.950640
	15.010000	-0.931300
	15.015000	-0.812036
	15.020000	-0.834599
	15.025000	-0.947417
	15.030000	-0.921630
	15.035000	-0.815259
	15.040000	-0.834599
	15.045000	-0.947417
	15.050000	-0.924853
	15.055000	-0.815259
	15.060000	-0.828152
	15.065000	-0.940970
	15.070000	-0.924853
	15.075000	-0.805589
	15.080000	-0.828152
	15.085000	-0.947417
	15.090000	-0.924853
	15.095000	-0.808812
	15.100000	-0.834599
	15.105000	-0.940970
	15.110000	-0.928077
	15.115000	-0.812036
	15.120000	-0.831376
	15.125000	-0.947417
	15.130000	-0.921630
	15.135000	-0.808812
	15.140000	-0.831376
	15.145000	-0.940970
	15.150000	-0.928077
	15.155000	-0.805589
	15.160000	-0.828152
	15.165000	-0.934523
	15.170000	-0.921630
	15.175000	-0.805589
	15.180000	-0.824929
	15.185000	-0.944193
	15.190000	-0.918407
	15.195000	-0.802366
	15.200000	-0.824929
	15.205000	-0.934523
	15.210000	-0.905513
	15.215000	-0.802366
	15.220000	-0.828152
	15.225000	-0.931300
	15.230000	-0.911960
	15.235000	-0.795919
	15.240000	-0.818482
	15.245000	-0.934523
	15.250000	-0.911960
	15.255000	-0.792696
	15.260000	-0.815259
	15.265000	-0.928077
	15.270000	-0.902290
	15.275000	-0.799142
	15.280000	-0.812036
	15.285000	-0.928077
	15.290000	-0.902290
	15.295000	-0.792696
	15.300000	-0.818482
	15.305000	-0.928077
	15.310000	-0.902290
	15.315000	-0.786249
	15.320000	-0.812036
	15.325000	-0.931300
	15.330000	-0.895843
	15.335000	-0.786249
	15.340000	-0.818482
	15.345000	-0.928077
	15.350000	-0.902290
	15.355000	-0.795919
	15.360000	-0.824929
	15.365000	-0.934523
	15.370000	-0.905513
	15.375000	-0.799142
	15.380000	-0.818482
	15.385000	-0.944193
	15.390000	-0.905513
	15.395000	-0.799142
	15.400000	-0.821706
	15.405000	-0.937747
	15.410000	-0.905513
	15.415000	-0.799142
	15.420000	-0.824929
	15.425000	-0.937747
	15.430000	-0.915183
	15.435000	-0.799142
	15.440000	-0.828152
	15.445000	-0.940970
	15.450000	-0.908736
	15.455000	-0.799142
	15.460000	-0.824929
	15.465000	-0.944193
	15.470000	-0.908736
	15.475000	-0.799142
	15.480000	-0.824929
	15.485000	-0.944193
	15.490000	-0.911960
	15.495000	-0.805589
	15.500000	-0.828152
	15.505000	-0.944193
	15.510000	-0.908736
	15.515000	-0.802366
	15.520000	-0.828152
	15.525000	-0.940970
	15.530000	-0.911960
	15.535000	-0.802366
	15.540000	-0.828152
	15.545000	-0.937747
	15.550000	-0.905513
	15.555000	-0.795919
	15.560000	-0.824929
	15.565000	-0.944193
	15.570000	-0.908736
	15.575000	-0.799142
	15.580000	-0.834599
	15.585000	-0.940970
	15.590000	-0.908736
	15.595000	-0.799142
	15.600000	-0.834599
	15.605000	-0.944193
	15.610000	-0.908736
	15.615000	-0.799142
	15.620000	-0.828152
	15.625000	-0.944193
	15.630000	-0.908736
	15.635000	-0.792696
	15.640000	-0.831376
	15.645000	-0.940970
	15.650000	-0.908736
	15.655000	-0.792696
	15.660000	-0.828152
	15.665000	-0.940970
	15.670000	-0.902290
	15.675000	-0.792696
	15.680000	-0.828152
	15.685000	-0.937747
	15.690000	-0.905513
	15.695000	-0.802366
	15.700000	-0.821706
	15.705000	-0.940970
	15.710000	-0.908736
	15.715000	-0.795919
	15.720000	-0.837823
	15.725000	-0.944193
	15.730000	-0.902290
	15.735000	-0.802366
	15.740000	-0.837823
	15.745000	-0.944193
	15.750000	-0.908736
	15.755000	-0.795919
	15.760000	-0.834599
	15.765000	-0.950640
	15.770000	-0.908736
	15.775000	-0.799142
	15.780000	-0.831376
	15.785000	-0.947417
	15.790000	-0.911960
	15.795000	-0.795919
	15.800000	-0.834599
	15.805000	-0.944193
	15.810000	-0.905513
	15.815000	-0.795919
	15.820000	-0.837823
	15.825000	-0.940970
	15.830000	-0.902290
	15.835000	-0.795919
	15.840000	-0.824929
	15.845000	-0.944193
	15.850000	-0.905513
	15.855000	-0.792696
	15.860000	-0.824929
	15.865000	-0.931300
	15.870000	-0.892620
	15.875000	-0.779802
	15.880000	-0.812036
	15.885000	-0.928077
	15.890000	-0.876503
	15.895000	-0.773355
	15.900000	-0.805589
	15.905000	-0.915183
	15.910000	-0.876503
	15.915000	-0.763685
	15.920000	-0.799142
	15.925000	-0.905513
	15.930000	-0.863609
	15.935000	-0.754015
	15.940000	-0.783025
	15.945000	-0.892620
	15.950000	-0.853939
	15.955000	-0.741122
	15.960000	-0.779802
	15.965000	-0.889396
	15.970000	-0.844269
	15.975000	-0.741122
	15.980000	-0.779802
	15.985000	-0.886173
	15.990000	-0.837823
	15.995000	-0.744345
	16.000000	-0.773355
	16.005000	-0.876503
	16.010000	-0.831376
	16.015000	-0.731452
	16.020000	-0.773355
	16.025000	-0.863609
	16.030000	-0.824929
	16.035000	-0.721782
	16.040000	-0.763685
	16.045000	-0.863609
	16.050000	-0.818482
	16.055000	-0.712112
	16.060000	-0.754015
	16.065000	-0.850716
	16.070000	-0.812036
	16.075000	-0.702441
	16.080000	-0.750792
	16.085000	-0.850716
	16.090000	-0.808812
	16.095000	-0.702441
	16.100000	-0.737898
	16.105000	-0.844269
	16.110000	-0.802366
	16.115000	-0.699218
	16.120000	-0.737898
	16.125000	-0.841046
	16.130000	-0.799142
	16.135000	-0.692771
	16.140000	-0.737898
	16.145000	-0.841046
	16.150000	-0.799142
	16.155000	-0.695995
	16.160000	-0.737898
	16.165000	-0.841046
	16.170000	-0.799142
	16.175000	-0.702441
	16.180000	-0.744345
	16.185000	-0.841046
	16.190000	-0.795919
	16.195000	-0.702441
	16.200000	-0.750792
	16.205000	-0.850716
	16.210000	-0.812036
	16.215000	-0.712112
	16.220000	-0.757239
	16.225000	-0.860386
	16.230000	-0.821706
	16.235000	-0.721782
	16.240000	-0.773355
	16.245000	-0.876503
	16.250000	-0.828152
	16.255000	-0.734675
	16.260000	-0.783025
	16.265000	-0.882950
	16.270000	-0.837823
	16.275000	-0.747569
	16.280000	-0.792696
	16.285000	-0.899066
	16.290000	-0.853939
	16.295000	-0.760462
	16.300000	-0.805589
	16.305000	-0.908736
	16.310000	-0.863609
	16.315000	-0.770132
	16.320000	-0.821706
	16.325000	-0.918407
	16.330000	-0.876503
	16.335000	-0.783025
	16.340000	-0.824929
	16.345000	-0.934523
	16.350000	-0.886173
	16.355000	-0.786249
	16.360000	-0.841046
	16.365000	-0.944193
	16.370000	-0.889396
	16.375000	-0.789472
	16.380000	-0.837823
	16.385000	-0.944193
	16.390000	-0.889396
	16.395000	-0.795919
	16.400000	-0.844269
	16.405000	-0.940970
	16.410000	-0.892620
	16.415000	-0.792696
	16.420000	-0.847493
	16.425000	-0.947417
	16.430000	-0.895843
	16.435000	-0.795919
	16.440000	-0.847493
	16.445000	-0.953863
	16.450000	-0.902290
	16.455000	-0.799142
	16.460000	-0.847493
	16.465000	-0.947417
	16.470000	-0.895843
	16.475000	-0.795919
	16.480000	-0.847493
	16.485000	-0.944193
	16.490000	-0.902290
	16.495000	-0.792696
	16.500000	-0.844269
	16.505000	-0.940970
	16.510000	-0.892620
	16.515000	-0.789472
	16.520000	-0.844269
	16.525000	-0.940970
	16.530000	-0.892620
	16.535000	-0.786249
	16.540000	-0.837823
	16.545000	-0.931300
	16.550000	-0.889396
	16.555000	-0.789472
	16.560000	-0.837823
	16.565000	-0.931300
	16.570000	-0.876503
	16.575000	-0.779802
	16.580000	-0.831376
	16.585000	-0.931300
	16.590000	-0.876503
	16.595000	-0.776579
	16.600000	-0.828152
	16.605000	-0.931300
	16.610000	-0.870056
	16.615000	-0.766909
	16.620000	-0.824929
	16.625000	-0.918407
	16.630000	-0.873280
	16.635000	-0.763685
	16.640000	-0.821706
	16.645000	-0.924853
	16.650000	-0.873280
	16.655000	-0.773355
	16.660000	-0.828152
	16.665000	-0.928077
	16.670000	-0.876503
	16.675000	-0.773355
	16.680000	-0.824929
	16.685000	-0.928077
	16.690000	-0.873280
	16.695000	-0.779802
	16.700000	-0.837823
	16.705000	-0.934523
	16.710000	-0.882950
	16.715000	-0.779802
	16.720000	-0.841046
	16.725000	-0.937747
	16.730000	-0.886173
	16.735000	-0.786249
	16.740000	-0.841046
	16.745000	-0.947417
	16.750000	-0.892620
	16.755000	-0.792696
	16.760000	-0.857163
	16.765000	-0.957087
	16.770000	-0.895843
	16.775000	-0.805589
	16.780000	-0.860386
	16.785000	-0.963534
	16.790000	-0.899066
	16.795000	-0.812036
	16.800000	-0.866833
	16.805000	-0.963534
	16.810000	-0.905513
	16.815000	-0.805589
	16.820000	-0.870056
	16.825000	-0.966757
	16.830000	-0.905513
	16.835000	-0.812036
	16.840000	-0.866833
	16.845000	-0.973204
	16.850000	-0.905513
	16.855000	-0.818482
	16.860000	-0.873280
	16.865000	-0.963534
	16.870000	-0.902290
	16.875000	-0.805589
	16.880000	-0.870056
	16.885000	-0.963534
	16.890000	-0.902290
	16.895000	-0.808812
	16.900000	-0.863609
	16.905000	-0.963534
	16.910000	-0.902290
	16.915000	-0.805589
	16.920000	-0.866833
	16.925000	-0.966757
	16.930000	-0.902290
	16.935000	-0.799142
	16.940000	-0.873280
	16.945000	-0.966757
	16.950000	-0.899066
	16.955000	-0.802366
	16.960000	-0.863609
	16.965000	-0.960310
	16.970000	-0.902290
	16.975000	-0.802366
	16.980000	-0.870056
	16.985000	-0.963534
	16.990000	-0.905513
	16.995000	-0.799142
	17.000000	-0.870056
	17.005000	-0.963534
	17.010000	-0.899066
	17.015000	-0.805589
	17.020000	-0.866833
	17.025000	-0.966757
	17.030000	-0.902290
	17.035000	-0.802366
	17.040000	-0.873280
	17.045000	-0.960310
	17.050000	-0.899066
	17.055000	-0.808812
	17.060000	-0.870056
	17.065000	-0.960310
	17.070000	-0.899066
	17.075000	-0.805589
	17.080000	-0.870056
	17.085000	-0.960310
	17.090000	-0.895843
	17.095000	-0.799142
	17.100000	-0.873280
	17.105000	-0.963534
	17.110000	-0.899066
	17.115000	-0.808812
	17.120000	-0.866833
	17.125000	-0.969980
	17.130000	-0.899066
	17.135000	-0.808812
	17.140000	-0.876503
	17.145000	-0.966757
	17.150000	-0.895843
	17.155000	-0.802366
	17.160000	-0.873280
	17.165000	-0.966757
	17.170000	-0.899066
	17.175000	-0.805589
	17.180000	-0.876503
	17.185000	-0.966757
	17.190000	-0.892620
	17.195000	-0.799142
	17.200000	-0.870056
	17.205000	-0.963534
	17.210000	-0.895843
	17.215000	-0.802366
	17.220000	-0.870056
	17.225000	-0.960310
	17.230000	-0.892620
	17.235000	-0.805589
	17.240000	-0.870056
	17.245000	-0.960310
	17.250000	-0.889396
	17.255000	-0.802366
	17.260000	-0.863609
	17.265000	-0.957087
	17.270000	-0.889396
	17.275000	-0.792696
	17.280000	-0.863609
	17.285000	-0.957087
	17.290000	-0.889396
	17.295000	-0.799142
	17.300000	-0.870056
	17.305000	-0.960310
	17.310000	-0.892620
	17.315000	-0.799142
	17.320000	-0.866833
	17.325000	-0.960310
	17.330000	-0.889396
	17.335000	-0.799142
	17.340000	-0.873280
	17.345000	-0.963534
	17.350000	-0.892620
	17.355000	-0.802366
	17.360000	-0.870056
	17.365000	-0.960310
	17.370000	-0.889396
	17.375000	-0.799142
	17.380000	-0.873280
	17.385000	-0.963534
	17.390000	-0.889396
	17.395000	-0.805589
	17.400000	-0.876503
	17.405000	-0.963534
	17.410000	-0.889396
	17.415000	-0.805589
	17.420000	-0.873280
	17.425000	-0.960310
	17.430000	-0.889396
	17.435000	-0.802366
	17.440000	-0.870056
	17.445000	-0.960310
	17.450000	-0.889396
	17.455000	-0.805589
	17.460000	-0.873280
	17.465000	-0.960310
	17.470000	-0.889396
	17.475000	-0.799142
	17.480000	-0.876503
	17.485000	-0.963534
	17.490000	-0.886173
	17.495000	-0.799142
	17.500000	-0.870056
	17.505000	-0.966757
	17.510000	-0.882950
	17.515000	-0.792696
	17.520000	-0.866833
	17.525000	-0.957087
	17.530000	-0.889396
	17.535000	-0.795919
	17.540000	-0.870056
	17.545000	-0.960310
	17.550000	-0.879726
	17.555000	-0.795919
	17.560000	-0.873280
	17.565000	-0.960310
	17.570000	-0.889396
	17.575000	-0.792696
	17.580000	-0.870056
	17.585000	-0.957087
	17.590000	-0.879726
	17.595000	-0.792696
	17.600000	-0.870056
	17.605000	-0.957087
	17.610000	-0.879726
	17.615000	-0.795919
	17.620000	-0.866833
	17.625000	-0.953863
	17.630000	-0.879726
	17.635000	-0.792696
	17.640000	-0.866833
	17.645000	-0.957087
	17.650000	-0.886173
	17.655000	-0.792696
	17.660000	-0.870056
	17.665000	-0.953863
	17.670000	-0.876503
	17.675000	-0.786249
	17.680000	-0.860386
	17.685000	-0.947417
	17.690000	-0.879726
	17.695000	-0.789472
	17.700000	-0.873280
	17.705000	-0.947417
	17.710000	-0.870056
	17.715000	-0.786249
	17.720000	-0.870056
	17.725000	-0.947417
	17.730000	-0.873280
	17.735000	-0.789472
	17.740000	-0.863609
	17.745000	-0.957087
	17.750000	-0.870056
	17.755000	-0.789472
	17.760000	-0.866833
	17.765000	-0.947417
	17.770000	-0.866833
	17.775000	-0.783025
	17.780000	-0.870056
	17.785000	-0.947417
	17.790000	-0.866833
	17.795000	-0.789472
	17.800000	-0.863609
	17.805000	-0.947417
	17.810000	-0.863609
	17.815000	-0.789472
	17.820000	-0.863609
	17.825000	-0.944193
	17.830000	-0.873280
	17.835000	-0.789472
	17.840000	-0.863609
	17.845000	-0.950640
	17.850000	-0.870056
	17.855000	-0.786249
	17.860000	-0.870056
	17.865000	-0.947417
	17.870000	-0.866833
	17.875000	-0.789472
	17.880000	-0.866833
	17.885000	-0.953863
	17.890000	-0.870056
	17.895000	-0.786249
	17.900000	-0.876503
	17.905000	-0.953863
	17.910000	-0.873280
	17.915000	-0.792696
	17.920000	-0.876503
	17.925000	-0.960310
	17.930000	-0.876503
	17.935000	-0.795919
	17.940000	-0.876503
	17.945000	-0.960310
	17.950000	-0.876503
	17.955000	-0.799142
	17.960000	-0.882950
	17.965000	-0.957087
	17.970000	-0.870056
	17.975000	-0.805589
	17.980000	-0.879726
	17.985000	-0.960310
	17.990000	-0.879726
	17.995000	-0.799142
	18.000000	-0.879726
	18.005000	-0.963534
	18.010000	-0.876503
	18.015000	-0.802366
	18.020000	-0.886173
	18.025000	-0.963534
	18.030000	-0.876503
	18.035000	-0.799142
	18.040000	-0.879726
	18.045000	-0.957087
	18.050000	-0.876503
	18.055000	-0.802366
	18.060000	-0.882950
	18.065000	-0.966757
	18.070000	-0.879726
	18.075000	-0.799142
	18.080000	-0.882950
	18.085000	-0.960310
	18.090000	-0.876503
	18.095000	-0.802366
	18.100000	-0.879726
	18.105000	-0.960310
	18.110000	-0.870056
	18.115000	-0.799142
	18.120000	-0.879726
	18.125000	-0.953863
	18.130000	-0.876503
	18.135000	-0.795919
	18.140000	-0.879726
	18.145000	-0.953863
	18.150000	-0.866833
	18.155000	-0.786249
	18.160000	-0.870056
	18.165000	-0.940970
	18.170000	-0.863609
	18.175000	-0.783025
	18.180000	-0.863609
	18.185000	-0.937747
	18.190000	-0.850716
	18.195000	-0.776579
	18.200000	-0.857163
	18.205000	-0.931300
	18.210000	-0.850716
	18.215000	-0.773355
	18.220000	-0.850716
	18.225000	-0.931300
	18.230000	-0.831376
	18.235000	-0.763685
	18.240000	-0.850716
	18.245000	-0.915183
	18.250000	-0.821706
	18.255000	-0.750792
	18.260000	-0.831376
	18.265000	-0.899066
	18.270000	-0.812036
	18.275000	-0.734675
	18.280000	-0.818482
	18.285000	-0.889396
	18.290000	-0.792696
	18.295000	-0.718558
	18.300000	-0.802366
	18.305000	-0.870056
	18.310000	-0.779802
	18.315000	-0.705665
	18.320000	-0.786249
	18.325000	-0.857163
	18.330000	-0.776579
	18.335000	-0.695995
	18.340000	-0.783025
	18.345000	-0.850716
	18.350000	-0.766909
	18.355000	-0.695995
	18.360000	-0.783025
	18.365000	-0.844269
	18.370000	-0.760462
	18.375000	-0.692771
	18.380000	-0.776579
	18.385000	-0.847493
	18.390000	-0.757239
	18.395000	-0.692771
	18.400000	-0.779802
	18.405000	-0.841046
	18.410000	-0.754015
	18.415000	-0.689548
	18.420000	-0.770132
	18.425000	-0.834599
	18.430000	-0.754015
	18.435000	-0.679878
	18.440000	-0.770132
	18.445000	-0.841046
	18.450000	-0.760462
	18.455000	-0.689548
	18.460000	-0.776579
	18.465000	-0.844269
	18.470000	-0.757239
	18.475000	-0.692771
	18.480000	-0.770132
	18.485000	-0.837823
	18.490000	-0.754015
	18.495000	-0.689548
	18.500000	-0.779802
	18.505000	-0.847493
	18.510000	-0.760462
	18.515000	-0.702441
	18.520000	-0.783025
	18.525000	-0.847493
	18.530000	-0.760462
	18.535000	-0.695995
	18.540000	-0.786249
	18.545000	-0.850716
	18.550000	-0.763685
	18.555000	-0.705665
	18.560000	-0.792696
	18.565000	-0.850716
	18.570000	-0.766909
	18.575000	-0.708888
	18.580000	-0.802366
	18.585000	-0.863609
	18.590000	-0.783025
	18.595000	-0.721782
	18.600000	-0.808812
	18.605000	-0.876503
	18.610000	-0.789472
	18.615000	-0.734675
	18.620000	-0.824929
	18.625000	-0.889396
	18.630000	-0.802366
	18.635000	-0.747569
	18.640000	-0.834599
	18.645000	-0.908736
	18.650000	-0.818482
	18.655000	-0.757239
	18.660000	-0.850716
	18.665000	-0.915183
	18.670000	-0.824929
	18.675000	-0.766909
	18.680000	-0.860386
	18.685000	-0.921630
	18.690000	-0.831376
	18.695000	-0.776579
	18.700000	-0.863609
	18.705000	-0.924853
	18.710000	-0.837823
	18.715000	-0.773355
	18.720000	-0.870056
	18.725000	-0.934523
	18.730000	-0.844269
	18.735000	-0.783025
	18.740000	-0.866833
	18.745000	-0.937747
	18.750000	-0.847493
	18.755000	-0.779802
	18.760000	-0.873280
	18.765000	-0.940970
	18.770000	-0.844269
	18.775000	-0.779802
	18.780000	-0.870056
	18.785000	-0.940970
	18.790000	-0.847493
	18.795000	-0.783025
	18.800000	-0.876503
	18.805000	-0.937747
	18.810000	-0.841046
	18.815000	-0.786249
	18.820000	-0.879726
	18.825000	-0.940970
	18.830000	-0.841046
	18.835000	-0.786249
	18.840000	-0.879726
	18.845000	-0.937747
	18.850000	-0.844269
	18.855000	-0.786249
	18.860000	-0.889396
	18.865000	-0.940970
	18.870000	-0.844269
	18.875000	-0.783025
	18.880000	-0.882950
	18.885000	-0.950640
	18.890000	-0.853939
	18.895000	-0.789472
	18.900000	-0.889396
	18.905000	-0.950640
	18.910000	-0.853939
	18.915000	-0.789472
	18.920000	-0.889396
	18.925000	-0.957087
	18.930000	-0.850716
	18.935000	-0.795919
	18.940000	-0.892620
	18.945000	-0.944193
	18.950000	-0.857163
	18.955000	-0.792696
	18.960000	-0.895843
	18.965000	-0.950640
	18.970000	-0.850716
	18.975000	-0.795919
	18.980000	-0.889396
	18.985000	-0.953863
	18.990000	-0.850716
	18.995000	-0.792696
	19.000000	-0.895843
	19.005000	-0.947417
	19.010000	-0.847493
	19.015000	-0.792696
	19.020000	-0.899066
	19.025000	-0.944193
	19.030000	-0.847493
	19.035000	-0.795919
	19.040000	-0.889396
	19.045000	-0.947417
	19.050000	-0.853939
	19.055000	-0.802366
	19.060000	-0.899066
	19.065000	-0.947417
	19.070000	-0.853939
	19.075000	-0.799142
	19.080000	-0.895843
	19.085000	-0.947417
	19.090000	-0.850716
	19.095000	-0.795919
	19.100000	-0.895843
	19.105000	-0.950640
	19.110000	-0.850716
	19.115000	-0.802366
	19.120000	-0.895843
	19.125000	-0.944193
	19.130000	-0.850716
	19.135000	-0.789472
	19.140000	-0.892620
	19.145000	-0.944193
	19.150000	-0.844269
	19.155000	-0.792696
	19.160000	-0.895843
	19.165000	-0.937747
	19.170000	-0.844269
	19.175000	-0.789472
	19.180000	-0.892620
	19.185000	-0.947417
	19.190000	-0.847493
	19.195000	-0.783025
	19.200000	-0.895843
	19.205000	-0.940970
	19.210000	-0.844269
	19.215000	-0.786249
	19.220000	-0.889396
	19.225000	-0.940970
	19.230000	-0.841046
	19.235000	-0.786249
	19.240000	-0.886173
	19.245000	-0.947417
	19.250000	-0.841046
	19.255000	-0.789472
	19.260000	-0.892620
	19.265000	-0.944193
	19.270000	-0.837823
	19.275000	-0.786249
	19.280000	-0.895843
	19.285000	-0.937747
	19.290000	-0.837823
	19.295000	-0.792696
	19.300000	-0.889396
	19.305000	-0.944193
	19.310000	-0.841046
	19.315000	-0.783025
	19.320000	-0.889396
	19.325000	-0.940970
	19.330000	-0.844269
	19.335000	-0.786249
	19.340000	-0.889396
	19.345000	-0.940970
	19.350000	-0.841046
	19.355000	-0.789472
	19.360000	-0.889396
	19.365000	-0.937747
	19.370000	-0.834599
	19.375000	-0.789472
	19.380000	-0.892620
	19.385000	-0.944193
	19.390000	-0.844269
	19.395000	-0.792696
	19.400000	-0.895843
	19.405000	-0.940970
	19.410000	-0.837823
	19.415000	-0.795919
	19.420000	-0.895843
	19.425000	-0.940970
	19.430000	-0.844269
	19.435000	-0.789472
	19.440000	-0.895843
	19.445000	-0.944193
	19.450000	-0.841046
	19.455000	-0.792696
	19.460000	-0.899066
	19.465000	-0.944193
	19.470000	-0.837823
	19.475000	-0.789472
	19.480000	-0.899066
	19.485000	-0.944193
	19.490000	-0.837823
	19.495000	-0.792696
	19.500000	-0.895843
	19.505000	-0.944193
	19.510000	-0.837823
	19.515000	-0.789472
	19.520000	-0.895843
	19.525000	-0.947417
	19.530000	-0.837823
	19.535000	-0.783025
	19.540000	-0.889396
	19.545000	-0.940970
	19.550000	-0.834599
	19.555000	-0.792696
	19.560000	-0.902290
	19.565000	-0.940970
	19.570000	-0.834599
	19.575000	-0.792696
	19.580000	-0.899066
	19.585000	-0.944193
	19.590000	-0.834599
	19.595000	-0.792696
	19.600000	-0.905513
	19.605000	-0.940970
	19.610000	-0.837823
	19.615000	-0.799142
	19.620000	-0.902290
	19.625000	-0.940970
	19.630000	-0.834599
	19.635000	-0.799142
	19.640000	-0.908736
	19.645000	-0.944193
	19.650000	-0.841046
	19.655000	-0.799142
	19.660000	-0.905513
	19.665000	-0.947417
	19.670000	-0.844269
	19.675000	-0.802366
	19.680000	-0.905513
	19.685000	-0.953863
	19.690000	-0.844269
	19.695000	-0.802366
	19.700000	-0.908736
	19.705000	-0.953863
	19.710000	-0.841046
	19.715000	-0.802366
	19.720000	-0.911960
	19.725000	-0.953863
	19.730000	-0.841046
	19.735000	-0.802366
	19.740000	-0.908736
	19.745000	-0.953863
	19.750000	-0.841046
	19.755000	-0.802366
	19.760000	-0.908736
	19.765000	-0.953863
	19.770000	-0.841046
	19.775000	-0.805589
	19.780000	-0.908736
	19.785000	-0.957087
	19.790000	-0.834599
	19.795000	-0.802366
	19.800000	-0.908736
	19.805000	-0.947417
	19.810000	-0.844269
	19.815000	-0.802366
	19.820000	-0.911960
	19.825000	-0.950640
	19.830000	-0.847493
	19.835000	-0.805589
	19.840000	-0.915183
	19.845000	-0.944193
	19.850000	-0.844269
	19.855000	-0.805589
	19.860000	-0.915183
	19.865000	-0.944193
	19.870000	-0.844269
	19.875000	-0.802366
	19.880000	-0.908736
	19.885000	-0.944193
	19.890000	-0.837823
	19.895000	-0.802366
	19.900000	-0.911960
	19.905000	-0.937747
	19.910000	-0.834599
	19.915000	-0.795919
	19.920000	-0.908736
	19.925000	-0.950640
	19.930000	-0.837823
	19.935000	-0.795919
	19.940000	-0.905513
	19.945000	-0.940970
	19.950000	-0.834599
	19.955000	-0.795919
	19.960000	-0.905513
	19.965000	-0.944193
	19.970000	-0.828152
	19.975000	-0.799142
	19.980000	-0.911960
	19.985000	-0.940970
	19.990000	-0.837823
	19.995000	-0.802366
	20.000000	-0.911960
	20.005000	-0.940970
	20.010000	-0.828152
	20.015000	-0.799142
	20.020000	-0.911960
	20.025000	-0.940970
	20.030000	-0.828152
	20.035000	-0.799142
	20.040000	-0.908736
	20.045000	-0.937747
	20.050000	-0.828152
	20.055000	-0.799142
	20.060000	-0.908736
	20.065000	-0.940970
	20.070000	-0.831376
	20.075000	-0.799142
	20.080000	-0.905513
	20.085000	-0.940970
	20.090000	-0.831376
	20.095000	-0.799142
	20.100000	-0.911960
	20.105000	-0.944193
	20.110000	-0.834599
	20.115000	-0.799142
	20.120000	-0.915183
	20.125000	-0.950640
	20.130000	-0.837823
	20.135000	-0.802366
	20.140000	-0.918407
	20.145000	-0.950640
	20.150000	-0.837823
	20.155000	-0.808812
	20.160000	-0.921630
	20.165000	-0.944193
	20.170000	-0.831376
	20.175000	-0.808812
	20.180000	-0.918407
	20.185000	-0.950640
	20.190000	-0.841046
	20.195000	-0.805589
	20.200000	-0.921630
	20.205000	-0.957087
	20.210000	-0.841046
	20.215000	-0.812036
	20.220000	-0.924853
	20.225000	-0.947417
	20.230000	-0.834599
	20.235000	-0.805589
	20.240000	-0.924853
	20.245000	-0.953863
	20.250000	-0.837823
	20.255000	-0.812036
	20.260000	-0.924853
	20.265000	-0.950640
	20.270000	-0.841046
	20.275000	-0.812036
	20.280000	-0.928077
	20.285000	-0.960310
	20.290000	-0.837823
	20.295000	-0.812036
	20.300000	-0.924853
	20.305000	-0.947417
	20.310000	-0.837823
	20.315000	-0.815259
	20.320000	-0.928077
	20.325000	-0.953863
	20.330000	-0.841046
	20.335000	-0.815259
	20.340000	-0.931300
	20.345000	-0.950640
	20.350000	-0.837823
	20.355000	-0.815259
	20.360000	-0.931300
	20.365000	-0.957087
	20.370000	-0.841046
	20.375000	-0.818482
	20.380000	-0.924853
	20.385000	-0.950640
	20.390000	-0.837823
	20.395000	-0.815259
	20.400000	-0.928077
	20.405000	-0.947417
	20.410000	-0.837823
	20.415000	-0.821706
	20.420000	-0.921630
	20.425000	-0.953863
	20.430000	-0.834599
	20.435000	-0.808812
	20.440000	-0.928077
	20.445000	-0.947417
	20.450000	-0.834599
	20.455000	-0.821706
	20.460000	-0.928077
	20.465000	-0.944193
	20.470000	-0.834599
	20.475000	-0.818482
	20.480000	-0.934523
	20.485000	-0.953863
	20.490000	-0.841046
	20.495000	-0.815259
	20.500000	-0.928077
	20.505000	-0.947417
	20.510000	-0.834599
	20.515000	-0.812036
	20.520000	-0.931300
	20.525000	-0.947417
	20.530000	-0.834599
	20.535000	-0.812036
	20.540000	-0.924853
	20.545000	-0.944193
	20.550000	-0.831376
	20.555000	-0.802366
	20.560000	-0.911960
	20.565000	-0.937747
	20.570000	-0.818482
	20.575000	-0.795919
	20.580000	-0.915183
	20.585000	-0.928077
	20.590000	-0.815259
	20.595000	-0.792696
	20.600000	-0.899066
	20.605000	-0.918407
	20.610000	-0.799142
	20.615000	-0.776579
	20.620000	-0.889396
	20.625000	-0.908736
	20.630000	-0.786249
	20.635000	-0.776579
	20.640000	-0.889396
	20.645000	-0.899066
	20.650000	-0.786249
	20.655000	-0.776579
	20.660000	-0.882950
	20.665000	-0.889396
	20.670000	-0.779802
	20.675000	-0.757239
	20.680000	-0.866833
	20.685000	-0.882950
	20.690000	-0.763685
	20.695000	-0.747569
	20.700000	-0.850716
	20.705000	-0.866833
	20.710000	-0.754015
	20.715000	-0.734675
	20.720000	-0.837823
	20.725000	-0.853939
	20.730000	-0.741122
	20.735000	-0.721782
	20.740000	-0.828152
	20.745000	-0.831376
	20.750000	-0.728228
	20.755000	-0.712112
	20.760000	-0.818482
	20.765000	-0.821706
	20.770000	-0.715335
	20.775000	-0.702441
	20.780000	-0.805589
	20.785000	-0.815259
	20.790000	-0.712112
	20.795000	-0.692771
	20.800000	-0.799142
	20.805000	-0.805589
	20.810000	-0.689548
	20.815000	-0.686325
	20.820000	-0.786249
	20.825000	-0.792696
	20.830000	-0.689548
	20.835000	-0.676655
	20.840000	-0.783025
	20.845000	-0.789472
	20.850000	-0.683101
	20.855000	-0.676655
	20.860000	-0.786249
	20.865000	-0.792696
	20.870000	-0.686325
	20.875000	-0.676655
	20.880000	-0.786249
	20.885000	-0.802366
	20.890000	-0.689548
	20.895000	-0.676655
	20.900000	-0.795919
	20.905000	-0.799142
	20.910000	-0.695995
	20.915000	-0.686325
	20.920000	-0.795919
	20.925000	-0.808812
	20.930000	-0.699218
	20.935000	-0.695995
	20.940000	-0.805589
	20.945000	-0.818482
	20.950000	-0.712112
	20.955000	-0.708888
	20.960000	-0.821706
	20.965000	-0.831376
	20.970000	-0.728228
	20.975000	-0.718558
	20.980000	-0.831376
	20.985000	-0.844269
	20.990000	-0.734675
	20.995000	-0.737898
	21.000000	-0.844269
	21.005000	-0.853939
	21.010000	-0.750792
	21.015000	-0.750792
	21.020000	-0.853939
	21.025000	-0.873280
	21.030000	-0.757239
	21.035000	-0.757239
	21.040000	-0.873280
	21.045000	-0.889396
	21.050000	-0.773355
	21.055000	-0.776579
	21.060000	-0.892620
	21.065000	-0.892620
	21.070000	-0.792696
	21.075000	-0.786249
	21.080000	-0.905513
	21.085000	-0.911960
	21.090000	-0.802366
	21.095000	-0.802366
	21.100000	-0.911960
	21.105000	-0.918407
	21.110000	-0.808812
	21.115000	-0.802366
	21.120000	-0.915183
	21.125000	-0.921630
	21.130000	-0.802366
	21.135000	-0.808812
	21.140000	-0.918407
	21.145000	-0.911960
	21.150000	-0.805589
	21.155000	-0.799142
	21.160000	-0.915183
	21.165000	-0.915183
	21.170000	-0.799142
	21.175000	-0.802366
	21.180000	-0.911960
	21.185000	-0.911960
	21.190000	-0.805589
	21.195000	-0.802366
	21.200000	-0.908736
	21.205000	-0.915183
	21.210000	-0.799142
	21.215000	-0.799142
	21.220000	-0.908736
	21.225000	-0.915183
	21.230000	-0.799142
	21.235000	-0.802366
	21.240000	-0.908736
	21.245000	-0.908736
	21.250000	-0.799142
	21.255000	-0.792696
	21.260000	-0.911960
	21.265000	-0.908736
	21.270000	-0.799142
	21.275000	-0.799142
	21.280000	-0.915183
	21.285000	-0.915183
	21.290000	-0.795919
	21.295000	-0.799142
	21.300000	-0.908736
	21.305000	-0.908736
	21.310000	-0.799142
	21.315000	-0.802366
	21.320000	-0.911960
	21.325000	-0.915183
	21.330000	-0.805589
	21.335000	-0.812036
	21.340000	-0.911960
	21.345000	-0.911960
	21.350000	-0.805589
	21.355000	-0.802366
	21.360000	-0.915183
	21.365000	-0.921630
	21.370000	-0.802366
	21.375000	-0.802366
	21.380000	-0.915183
	21.385000	-0.915183
	21.390000	-0.802366
	21.395000	-0.808812
	21.400000	-0.924853
	21.405000	-0.915183
	21.410000	-0.808812
	21.415000	-0.808812
	21.420000	-0.921630
	21.425000	-0.918407
	21.430000	-0.805589
	21.435000	-0.808812
	21.440000	-0.928077
	21.445000	-0.918407
	21.450000	-0.812036
	21.455000	-0.808812
	21.460000	-0.921630
	21.465000	-0.918407
	21.470000	-0.805589
	21.475000	-0.815259
	21.480000	-0.924853
	21.485000	-0.924853
	21.490000	-0.808812
	21.495000	-0.821706
	21.500000	-0.928077
	21.505000	-0.928077
	21.510000	-0.812036
	21.515000	-0.821706
	21.520000	-0.931300
	21.525000	-0.928077
	21.530000	-0.812036
	21.535000	-0.824929
	21.540000	-0.937747
	21.545000	-0.928077
	21.550000	-0.818482
	21.555000	-0.824929
	21.560000	-0.944193
	21.565000	-0.934523
	21.570000	-0.818482
	21.575000	-0.831376
	21.580000	-0.944193
	21.585000	-0.934523
	21.590000	-0.818482
	21.595000	-0.831376
	21.600000	-0.944193
	21.605000	-0.931300
	21.610000	-0.821706
	21.615000	-0.828152
	21.620000	-0.950640
	21.625000	-0.934523
	21.630000	-0.828152
	21.635000	-0.834599
	21.640000	-0.950640
	21.645000	-0.937747
	21.650000	-0.828152
	21.655000	-0.831376
	21.660000	-0.950640
	21.665000	-0.934523
	21.670000	-0.824929
	21.675000	-0.834599
	21.680000	-0.953863
	21.685000	-0.947417
	21.690000	-0.831376
	21.695000	-0.834599
	21.700000	-0.957087
	21.705000	-0.944193
	21.710000	-0.831376
	21.715000	-0.844269
	21.720000	-0.963534
	21.725000	-0.944193
	21.730000	-0.831376
	21.735000	-0.841046
	21.740000	-0.960310
	21.745000	-0.947417
	21.750000	-0.831376
	21.755000	-0.850716
	21.760000	-0.966757
	21.765000	-0.950640
	21.770000	-0.837823
	21.775000	-0.850716
	21.780000	-0.966757
	21.785000	-0.950640
	21.790000	-0.844269
	21.795000	-0.850716
	21.800000	-0.973204
	21.805000	-0.953863
	21.810000	-0.847493
	21.815000	-0.853939
	21.820000	-0.969980
	21.825000	-0.953863
	21.830000	-0.844269
	21.835000	-0.850716
	21.840000	-0.969980
	21.845000	-0.957087
	21.850000	-0.841046
	21.855000	-0.857163
	21.860000	-0.976427
	21.865000	-0.963534
	21.870000	-0.841046
	21.875000	-0.863609
	21.880000	-0.976427
	21.885000	-0.960310
	21.890000	-0.841046
	21.895000	-0.860386
	21.900000	-0.973204
	21.905000	-0.963534
	21.910000	-0.841046
	21.915000	-0.863609
	21.920000	-0.973204
	21.925000	-0.953863
	21.930000	-0.841046
	21.935000	-0.860386
	21.940000	-0.976427
	21.945000	-0.960310
	21.950000	-0.844269
	21.955000	-0.863609
	21.960000	-0.976427
	21.965000	-0.960310
	21.970000	-0.844269
	21.975000	-0.857163
	21.980000	-0.973204
	21.985000	-0.957087
	21.990000	-0.837823
	21.995000	-0.866833
	22.000000	-0.973204
	22.005000	-0.957087
	22.010000	-0.841046
	22.015000	-0.860386
	22.020000	-0.976427
	22.025000	-0.957087
	22.030000	-0.837823
	22.035000	-0.866833
	22.040000	-0.979650
	22.045000	-0.957087
	22.050000	-0.837823
	22.055000	-0.857163
	22.060000	-0.976427
	22.065000	-0.953863
	22.070000	-0.837823
	22.075000	-0.860386
	22.080000	-0.982874
	22.085000	-0.950640
	22.090000	-0.837823
	22.095000	-0.863609
	22.100000	-0.976427
	22.105000	-0.957087
	22.110000	-0.837823
	22.115000	-0.866833
	22.120000	-0.976427
	22.125000	-0.950640
	22.130000	-0.844269
	22.135000	-0.857163
	22.140000	-0.979650
	22.145000	-0.953863
	22.150000	-0.841046
	22.155000	-0.863609
	22.160000	-0.979650
	22.165000	-0.957087
	22.170000	-0.841046
	22.175000	-0.860386
	22.180000	-0.979650
	22.185000	-0.950640
	22.190000	-0.847493
	22.195000	-0.863609
	22.200000	-0.986097
	22.205000	-0.947417
	22.210000	-0.847493
	22.215000	-0.857163
	22.220000	-0.976427
	22.225000	-0.950640
	22.230000	-0.837823
	22.235000	-0.863609
	22.240000	-0.979650
	22.245000	-0.947417
	22.250000	-0.837823
	22.255000	-0.866833
	22.260000	-0.979650
	22.265000	-0.953863
	22.270000	-0.834599
	22.275000	-0.863609
	22.280000	-0.973204
	22.285000	-0.950640
	22.290000	-0.834599
	22.295000	-0.866833
	22.300000	-0.979650
	22.305000	-0.944193
	22.310000	-0.841046
	22.315000	-0.860386
	22.320000	-0.979650
	22.325000	-0.947417
	22.330000	-0.834599
	22.335000	-0.866833
	22.340000	-0.979650
	22.345000	-0.950640
	22.350000	-0.837823
	22.355000	-0.863609
	22.360000	-0.982874
	22.365000	-0.947417
	22.370000	-0.837823
	22.375000	-0.853939
	22.380000	-0.973204
	22.385000	-0.947417
	22.390000	-0.834599
	22.395000	-0.870056
	22.400000	-0.969980
	22.405000	-0.950640
	22.410000	-0.834599
	22.415000	-0.860386
	22.420000	-0.979650
	22.425000	-0.947417
	22.430000	-0.837823
	22.435000	-0.866833
	22.440000	-0.982874
	22.445000	-0.950640
	22.450000	-0.837823
	22.455000	-0.873280
	22.460000	-0.973204
	22.465000	-0.953863
	22.470000	-0.837823
	22.475000	-0.870056
	22.480000	-0.973204
	22.485000	-0.944193
	22.490000	-0.837823
	22.495000	-0.866833
	22.500000	-0.979650
	22.505000	-0.950640
	22.510000	-0.837823
	22.515000	-0.873280
	22.520000	-0.982874
	22.525000	-0.947417
	22.530000	-0.841046
	22.535000	-0.870056
	22.540000	-0.986097
	22.545000	-0.947417
	22.550000	-0.834599
	22.555000	-0.873280
	22.560000	-0.982874
	22.565000	-0.953863
	22.570000	-0.844269
	22.575000	-0.873280
	22.580000	-0.979650
	22.585000	-0.950640
	22.590000	-0.844269
	22.595000	-0.870056
	22.600000	-0.982874
	22.605000	-0.947417
	22.610000	-0.837823
	22.615000	-0.873280
	22.620000	-0.986097
	22.625000	-0.953863
	22.630000	-0.841046
	22.635000	-0.870056
	22.640000	-0.986097
	22.645000	-0.947417
	22.650000	-0.841046
	22.655000	-0.870056
	22.660000	-0.986097
	22.665000	-0.947417
	22.670000	-0.837823
	22.675000	-0.873280
	22.680000	-0.989320
	22.685000	-0.947417
	22.690000	-0.837823
	22.695000	-0.873280
	22.700000	-0.989320
	22.705000	-0.950640
	22.710000	-0.837823
	22.715000	-0.876503
	22.720000	-0.979650
	22.725000	-0.944193
	22.730000	-0.831376
	22.735000	-0.876503
	22.740000	-0.979650
	22.745000	-0.947417
	22.750000	-0.831376
	22.755000	-0.873280
	22.760000	-0.986097
	22.765000	-0.944193
	22.770000	-0.834599
	22.775000	-0.876503
	22.780000	-0.986097
	22.785000	-0.953863
	22.790000	-0.834599
	22.795000	-0.876503
	22.800000	-0.979650
	22.805000	-0.944193
	22.810000	-0.834599
	22.815000	-0.879726
	22.820000	-0.986097
	22.825000	-0.947417
	22.830000	-0.834599
	22.835000	-0.879726
	22.840000	-0.986097
	22.845000	-0.940970
	22.850000	-0.834599
	22.855000	-0.873280
	22.860000	-0.979650
	22.865000	-0.944193
	22.870000	-0.834599
	22.875000	-0.876503
	22.880000	-0.982874
	22.885000	-0.940970
	22.890000	-0.834599
	22.895000	-0.876503
	22.900000	-0.982874
	22.905000	-0.947417
	22.910000	-0.831376
	22.915000	-0.876503
	22.920000	-0.979650
	22.925000	-0.940970
	22.930000	-0.837823
	22.935000	-0.870056
	22.940000	-0.982874
	22.945000	-0.940970
	22.950000	-0.831376
	22.955000	-0.873280
	22.960000	-0.982874
	22.965000	-0.940970
	22.970000	-0.834599
	22.975000	-0.870056
	22.980000	-0.979650
	22.985000	-0.934523
	22.990000	-0.828152
	22.995000	-0.873280
	23.000000	-0.986097
	23.005000	-0.934523
	23.010000	-0.834599
	23.015000	-0.876503
	23.020000	-0.976427
	23.025000	-0.937747
	23.030000	-0.834599
	23.035000	-0.876503
	23.040000	-0.979650
	23.045000	-0.934523
	23.050000	-0.824929
	23.055000	-0.876503
	23.060000	-0.979650
	23.065000	-0.934523
	23.070000	-0.824929
	23.075000	-0.870056
	23.080000	-0.973204
	23.085000	-0.928077
	23.090000	-0.828152
	23.095000	-0.870056
	23.100000	-0.973204
	23.105000	-0.924853
	23.110000	-0.818482
	23.115000	-0.857163
	23.120000	-0.963534
	23.125000	-0.921630
	23.130000	-0.815259
	23.135000	-0.853939
	23.140000	-0.960310
	23.145000	-0.918407
	23.150000	-0.805589
	23.155000	-0.853939
	23.160000	-0.944193
	23.165000	-0.899066
	23.170000	-0.795919
	23.175000	-0.831376
	23.180000	-0.947417
	23.185000	-0.892620
	23.190000	-0.786249
	23.195000	-0.824929
	23.200000	-0.928077
	23.205000	-0.876503
	23.210000	-0.776579
	23.215000	-0.815259
	23.220000	-0.911960
	23.225000	-0.863609
	23.230000	-0.763685
	23.235000	-0.808812
	23.240000	-0.915183
	23.245000	-0.853939
	23.250000	-0.760462
	23.255000	-0.795919
	23.260000	-0.895843
	23.265000	-0.844269
	23.270000	-0.744345
	23.275000	-0.786249
	23.280000	-0.889396
	23.285000	-0.837823
	23.290000	-0.737898
	23.295000	-0.783025
	23.300000	-0.879726
	23.305000	-0.831376
	23.310000	-0.731452
	23.315000	-0.783025
	23.320000	-0.876503
	23.325000	-0.824929
	23.330000	-0.725005
	23.335000	-0.770132
	23.340000	-0.870056
	23.345000	-0.815259
	23.350000	-0.731452
	23.355000	-0.770132
	23.360000	-0.870056
	23.365000	-0.818482
	23.370000	-0.725005
	23.375000	-0.773355
	23.380000	-0.866833
	23.385000	-0.821706
	23.390000	-0.721782
	23.395000	-0.773355
	23.400000	-0.870056
	23.405000	-0.818482
	23.410000	-0.728228
	23.415000	-0.773355
	23.420000	-0.876503
	23.425000	-0.828152
	23.430000	-0.734675
	23.435000	-0.786249
	23.440000	-0.882950
	23.445000	-0.841046
	23.450000	-0.744345
	23.455000	-0.802366
	23.460000	-0.892620
	23.465000	-0.850716
	23.470000	-0.760462
	23.475000	-0.812036
	23.480000	-0.918407
	23.485000	-0.860386
	23.490000	-0.763685
	23.495000	-0.821706
	23.500000	-0.924853
	23.505000	-0.879726
	23.510000	-0.783025
	23.515000	-0.841046
	23.520000	-0.937747
	23.525000	-0.892620
	23.530000	-0.795919
	23.535000	-0.857163
	23.540000	-0.957087
	23.545000	-0.899066
	23.550000	-0.815259
	23.555000	-0.873280
	23.560000	-0.969980
	23.565000	-0.911960
	23.570000	-0.815259
	23.575000	-0.873280
	23.580000	-0.973204
	23.585000	-0.921630
	23.590000	-0.828152
	23.595000	-0.889396
	23.600000	-0.986097
	23.605000	-0.937747
	23.610000	-0.834599
	23.615000	-0.892620
	23.620000	-0.989320
	23.625000	-0.934523
	23.630000	-0.844269
	23.635000	-0.889396
	23.640000	-0.989320
	23.645000	-0.928077
	23.650000	-0.837823
	23.655000	-0.895843
	23.660000	-0.995767
	23.665000	-0.931300
	23.670000	-0.831376
	23.675000	-0.895843
	23.680000	-0.998991
	23.685000	-0.934523
	23.690000	-0.837823
	23.695000	-0.889396
	23.700000	-0.992544
	23.705000	-0.931300
	23.710000	-0.834599
	23.715000	-0.895843
	23.720000	-0.992544
	23.725000	-0.931300
	23.730000	-0.831376
	23.735000	-0.889396
	23.740000	-0.986097
	23.745000	-0.928077
	23.750000	-0.834599
	23.755000	-0.892620
	23.760000	-0.989320
	23.765000	-0.928077
	23.770000	-0.824929
	23.775000	-0.889396
	23.780000	-0.982874
	23.785000	-0.928077
	23.790000	-0.831376
	23.795000	-0.895843
	23.800000	-0.982874
	23.805000	-0.928077
	23.810000	-0.831376
	23.815000	-0.889396
	23.820000	-0.989320
	23.825000	-0.931300
	23.830000	-0.831376
	23.835000	-0.892620
	23.840000	-0.992544
	23.845000	-0.931300
	23.850000	-0.834599
	23.855000	-0.889396
	23.860000	-0.979650
	23.865000	-0.928077
	23.870000	-0.834599
	23.875000	-0.889396
	23.880000	-0.992544
	23.885000	-0.924853
	23.890000	-0.828152
	23.895000	-0.889396
	23.900000	-0.979650
	23.905000	-0.921630
	23.910000	-0.831376
	23.915000	-0.882950
	23.920000	-0.979650
	23.925000	-0.915183
	23.930000	-0.818482
	23.935000	-0.886173
	23.940000	-0.982874
	23.945000	-0.915183
	23.950000	-0.821706
	23.955000	-0.876503
	23.960000	-0.979650
	23.965000	-0.908736
	23.970000	-0.821706
	23.975000	-0.876503
	23.980000	-0.973204
	23.985000	-0.915183
	23.990000	-0.821706
	23.995000	-0.879726
	24.000000	-0.976427
	24.005000	-0.908736
	24.010000	-0.815259
	24.015000	-0.879726
	24.020000	-0.973204
	24.025000	-0.908736
	24.030000	-0.815259
	24.035000	-0.879726
	24.040000	-0.976427
	24.045000	-0.908736
	24.050000	-0.818482
	24.055000	-0.882950
	24.060000	-0.979650
	24.065000	-0.908736
	24.070000	-0.812036
	24.075000	-0.882950
	24.080000	-0.976427
	24.085000	-0.902290
	24.090000	-0.812036
	24.095000	-0.879726
	24.100000	-0.973204
	24.105000	-0.911960
	24.110000	-0.815259
	24.115000	-0.886173
	24.120000	-0.973204
	24.125000	-0.902290
	24.130000	-0.815259
	24.135000	-0.879726
	24.140000	-0.973204
	24.145000	-0.905513
	24.150000	-0.805589
	24.155000	-0.876503
	24.160000	-0.969980
	24.165000	-0.902290
	24.170000	-0.808812
	24.175000	-0.882950
	24.180000	-0.969980
	24.185000	-0.905513
	24.190000	-0.808812
	24.195000	-0.882950
	24.200000	-0.966757
	24.205000	-0.902290
	24.210000	-0.805589
	24.215000	-0.882950
	24.220000	-0.973204
	24.225000	-0.899066
	24.230000	-0.808812
	24.235000	-0.879726
	24.240000	-0.969980
	24.245000	-0.908736
	24.250000	-0.812036
	24.255000	-0.879726
	24.260000	-0.966757
	24.265000	-0.899066
	24.270000	-0.808812
	24.275000	-0.876503
	24.280000	-0.966757
	24.285000	-0.902290
	24.290000	-0.815259
	24.295000	-0.882950
	24.300000	-0.969980
	24.305000	-0.899066
	24.310000	-0.808812
	24.315000	-0.879726
	24.320000	-0.966757
	24.325000	-0.899066
	24.330000	-0.805589
	24.335000	-0.882950
	24.340000	-0.966757
	24.345000	-0.892620
	24.350000	-0.805589
	24.355000	-0.879726
	24.360000	-0.969980
	24.365000	-0.892620
	24.370000	-0.802366
	24.375000	-0.876503
	24.380000	-0.966757
	24.385000	-0.895843
	24.390000	-0.812036
	24.395000	-0.879726
	24.400000	-0.963534
	24.405000	-0.892620
	24.410000	-0.802366
	24.415000	-0.876503
	24.420000	-0.969980
	24.425000	-0.895843
	24.430000	-0.805589
	24.435000	-0.876503
	24.440000	-0.966757
	24.445000	-0.889396
	24.450000	-0.808812
	24.455000	-0.879726
	24.460000	-0.966757
	24.465000	-0.892620
	24.470000	-0.802366
	24.475000	-0.882950
	24.480000	-0.963534
	24.485000	-0.895843
	24.490000	-0.805589
	24.495000	-0.876503
	24.500000	-0.973204
	24.505000	-0.892620
	24.510000	-0.808812
	24.515000	-0.879726
	24.520000	-0.969980
	24.525000	-0.892620
	24.530000	-0.802366
	24.535000	-0.886173
	24.540000	-0.973204
	24.545000	-0.899066
	24.550000	-0.802366
	24.555000	-0.882950
	24.560000	-0.969980
	24.565000	-0.889396
	24.570000	-0.808812
	24.575000	-0.886173
	24.580000	-0.966757
	24.585000	-0.889396
	24.590000	-0.805589
	24.595000	-0.876503
	24.600000	-0.973204
	24.605000	-0.892620
	24.610000	-0.808812
	24.615000	-0.882950
	24.620000	-0.966757
	24.625000	-0.886173
	24.630000	-0.805589
	24.635000	-0.882950
	24.640000	-0.973204
	24.645000	-0.892620
	24.650000	-0.805589
	24.655000	-0.889396
	24.660000	-0.969980
	24.665000	-0.892620
	24.670000	-0.805589
	24.675000	-0.882950
	24.680000	-0.973204
	24.685000	-0.889396
	24.690000	-0.805589
	24.695000	-0.879726
	24.700000	-0.973204
	24.705000	-0.889396
	24.710000	-0.805589
	24.715000	-0.889396
	24.720000	-0.973204
	24.725000	-0.892620
	24.730000	-0.802366
	24.735000	-0.886173
	24.740000	-0.973204
	24.745000	-0.892620
	24.750000	-0.802366
	24.755000	-0.886173
	24.760000	-0.963534
	24.765000	-0.892620
	24.770000	-0.812036
	24.775000	-0.886173
	24.780000	-0.966757
	24.785000	-0.895843
	24.790000	-0.808812
	24.795000	-0.892620
	24.800000	-0.969980
	24.805000	-0.892620
	24.810000	-0.805589
	24.815000	-0.892620
	24.820000	-0.969980
	24.825000	-0.892620
	24.830000	-0.805589
	24.835000	-0.882950
	24.840000	-0.969980
	24.845000	-0.892620
	24.850000	-0.815259
	24.855000	-0.889396
	24.860000	-0.963534
	24.865000	-0.889396
	24.870000	-0.808812
	24.875000	-0.886173
	24.880000	-0.973204
	24.885000	-0.889396
	24.890000	-0.808812
	24.895000	-0.889396
	24.900000	-0.969980
	24.905000	-0.882950
	24.910000	-0.808812
	24.915000	-0.892620
	24.920000	-0.966757
	24.925000	-0.889396
	24.930000	-0.808812
	24.935000	-0.889396
	24.940000	-0.973204
	24.945000	-0.889396
	24.950000	-0.802366
	24.955000	-0.886173
	24.960000	-0.973204
	24.965000	-0.892620
	24.970000	-0.805589
	24.975000	-0.895843
	24.980000	-0.973204
	24.985000	-0.889396
	24.990000	-0.808812
	24.995000	-0.892620
	25.000000	-0.973204
	25.005000	-0.892620
	25.010000	-0.815259
	25.015000	-0.892620
	25.020000	-0.979650
	25.025000	-0.889396
	25.030000	-0.815259
	25.035000	-0.902290
	25.040000	-0.976427
	25.045000	-0.892620
	25.050000	-0.818482
	25.055000	-0.905513
	25.060000	-0.976427
	25.065000	-0.892620
	25.070000	-0.812036
	25.075000	-0.902290
	25.080000	-0.976427
	25.085000	-0.895843
	25.090000	-0.815259
	25.095000	-0.905513
	25.100000	-0.979650
	25.105000	-0.895843
	25.110000	-0.821706
	25.115000	-0.908736
	25.120000	-0.979650
	25.125000	-0.895843
	25.130000	-0.818482
	25.135000	-0.902290
	25.140000	-0.979650
	25.145000	-0.892620
	25.150000	-0.818482
	25.155000	-0.905513
	25.160000	-0.979650
	25.165000	-0.892620
	25.170000	-0.821706
	25.175000	-0.902290
	25.180000	-0.986097
	25.185000	-0.899066
	25.190000	-0.818482
	25.195000	-0.908736
	25.200000	-0.982874
	25.205000	-0.895843
	25.210000	-0.815259
	25.215000	-0.905513
	25.220000	-0.982874
	25.225000	-0.895843
	25.230000	-0.818482
	25.235000	-0.908736
	25.240000	-0.982874
	25.245000	-0.895843
	25.250000	-0.815259
	25.255000	-0.905513
	25.260000	-0.979650
	25.265000	-0.892620
	25.270000	-0.818482
	25.275000	-0.908736
	25.280000	-0.982874
	25.285000	-0.892620
	25.290000	-0.821706
	25.295000	-0.905513
	25.300000	-0.979650
	25.305000	-0.889396
	25.310000	-0.821706
	25.315000	-0.905513
	25.320000	-0.982874
	25.325000	-0.889396
	25.330000	-0.812036
	25.335000	-0.908736
	25.340000	-0.982874
	25.345000	-0.892620
	25.350000	-0.815259
	25.355000	-0.902290
	25.360000	-0.973204
	25.365000	-0.895843
	25.370000	-0.818482
	25.375000	-0.915183
	25.380000	-0.976427
	25.385000	-0.886173
	25.390000	-0.818482
	25.395000	-0.905513
	25.400000	-0.979650
	25.405000	-0.889396
	25.410000	-0.818482
	25.415000	-0.911960
	25.420000	-0.973204
	25.425000	-0.882950
	25.430000	-0.818482
	25.435000	-0.905513
	25.440000	-0.976427
	25.445000	-0.882950
	25.450000	-0.815259
	25.455000	-0.899066
	25.460000	-0.969980
	25.465000	-0.879726
	25.470000	-0.802366
	25.475000	-0.889396
	25.480000	-0.960310
	25.485000	-0.863609
	25.490000	-0.795919
	25.495000	-0.886173
	25.500000	-0.947417
	25.505000	-0.857163
	25.510000	-0.783025
	25.515000	-0.876503
	25.520000	-0.934523
	25.525000	-0.841046
	25.530000	-0.773355
	25.535000	-0.866833
	25.540000	-0.928077
	25.545000	-0.831376
	25.550000	-0.766909
	25.555000	-0.860386
	25.560000	-0.918407
	25.565000	-0.824929
	25.570000	-0.757239
	25.575000	-0.850716
	25.580000	-0.911960
	25.585000	-0.821706
	25.590000	-0.760462
	25.595000	-0.844269
	25.600000	-0.915183
	25.605000	-0.821706
	25.610000	-0.760462
	25.615000	-0.841046
	25.620000	-0.905513
	25.625000	-0.805589
	25.630000	-0.750792
	25.635000	-0.841046
	25.640000	-0.902290
	25.645000	-0.815259
	25.650000	-0.750792
	25.655000	-0.828152
	25.660000	-0.892620
	25.665000	-0.805589
	25.670000	-0.741122
	25.675000	-0.834599
	25.680000	-0.892620
	25.685000	-0.799142
	25.690000	-0.744345
	25.695000	-0.834599
	25.700000	-0.889396
	25.705000	-0.795919
	25.710000	-0.734675
	25.715000	-0.831376
	25.720000	-0.892620
	25.725000	-0.792696
	25.730000	-0.734675
	25.735000	-0.824929
	25.740000	-0.889396
	25.745000	-0.792696
	25.750000	-0.731452
	25.755000	-0.824929
	25.760000	-0.879726
	25.765000	-0.792696
	25.770000	-0.744345
	25.775000	-0.821706
	25.780000	-0.873280
	25.785000	-0.789472
	25.790000	-0.721782
	25.795000	-0.818482
	25.800000	-0.876503
	25.805000	-0.776579
	25.810000	-0.725005
	25.815000	-0.818482
	25.820000	-0.876503
	25.825000	-0.786249
	25.830000	-0.725005
	25.835000	-0.812036
	25.840000	-0.876503
	25.845000	-0.783025
	25.850000	-0.731452
	25.855000	-0.818482
	25.860000	-0.876503
	25.865000	-0.779802
	25.870000	-0.728228
	25.875000	-0.821706
	25.880000	-0.876503
	25.885000	-0.789472
	25.890000	-0.728228
	25.895000	-0.828152
	25.900000	-0.882950
	25.905000	-0.795919
	25.910000	-0.734675
	25.915000	-0.831376
	25.920000	-0.886173
	25.925000	-0.795919
	25.930000	-0.747569
	25.935000	-0.841046
	25.940000	-0.899066
	25.945000	-0.812036
	25.950000	-0.754015
	25.955000	-0.850716
	25.960000	-0.908736
	25.965000	-0.821706
	25.970000	-0.763685
	25.975000	-0.863609
	25.980000	-0.928077
	25.985000	-0.834599
	25.990000	-0.783025
	25.995000	-0.870056
	26.000000	-0.934523
	26.005000	-0.841046
	26.010000	-0.783025
	26.015000	-0.882950
	26.020000	-0.944193
	26.025000	-0.847493
	26.030000	-0.792696
	26.035000	-0.889396
	26.040000	-0.944193
	26.045000	-0.860386
	26.050000	-0.802366
	26.055000	-0.905513
	26.060000	-0.953863
	26.065000	-0.866833
	26.070000	-0.805589
	26.075000	-0.911960
	26.080000	-0.963534
	26.085000	-0.873280
	26.090000	-0.821706
	26.095000	-0.918407
	26.100000	-0.973204
	26.105000	-0.873280
	26.110000	-0.824929
	26.115000	-0.921630
	26.120000	-0.973204
	26.125000	-0.876503
	26.130000	-0.821706
	26.135000	-0.928077
	26.140000	-0.973204
	26.145000	-0.876503
	26.150000	-0.828152
	26.155000	-0.931300
	26.160000	-0.976427
	26.165000	-0.876503
	26.170000	-0.828152
	26.175000	-0.928077
	26.180000	-0.976427
	26.185000	-0.886173
	26.190000	-0.831376
	26.195000	-0.928077
	26.200000	-0.982874
	26.205000	-0.889396
	26.210000	-0.834599
	26.215000	-0.931300
	26.220000	-0.982874
	26.225000	-0.882950
	26.230000	-0.831376
	26.235000	-0.928077
	26.240000	-0.982874
	26.245000	-0.882950
	26.250000	-0.828152
	26.255000	-0.934523
	26.260000	-0.982874
	26.265000	-0.876503
	26.270000	-0.834599
	26.275000	-0.928077
	26.280000	-0.976427
	26.285000	-0.882950
	26.290000	-0.828152
	26.295000	-0.931300
	26.300000	-0.986097
	26.305000	-0.879726
	26.310000	-0.824929
	26.315000	-0.934523
	26.320000	-0.982874
	26.325000	-0.879726
	26.330000	-0.831376
	26.335000	-0.928077
	26.340000	-0.986097
	26.345000	-0.879726
	26.350000	-0.831376
	26.355000	-0.931300
	26.360000	-0.976427
	26.365000	-0.882950
	26.370000	-0.831376
	26.375000	-0.937747
	26.380000	-0.986097
	26.385000	-0.882950
	26.390000	-0.834599
	26.395000	-0.940970
	26.400000	-0.986097
	26.405000	-0.876503
	26.410000	-0.831376
	26.415000	-0.934523
	26.420000	-0.982874
	26.425000	-0.879726
	26.430000	-0.831376
	26.435000	-0.934523
	26.440000	-0.986097
	26.445000	-0.876503
	26.450000	-0.831376
	26.455000	-0.934523
	26.460000	-0.979650
	26.465000	-0.873280
	26.470000	-0.824929
	26.475000	-0.934523
	26.480000	-0.976427
	26.485000	-0.873280
	26.490000	-0.824929
	26.495000	-0.928077
	26.500000	-0.976427
	26.505000	-0.873280
	26.510000	-0.828152
	26.515000	-0.934523
	26.520000	-0.973204
	26.525000	-0.870056
	26.530000	-0.821706
	26.535000	-0.928077
	26.540000	-0.979650
	26.545000	-0.863609
	26.550000	-0.824929
	26.555000	-0.924853
	26.560000	-0.973204
	26.565000	-0.870056
	26.570000	-0.828152
	26.575000	-0.924853
	26.580000	-0.973204
	26.585000	-0.866833
	26.590000	-0.821706
	26.595000	-0.931300
	26.600000	-0.973204
	26.605000	-0.866833
	26.610000	-0.824929
	26.615000	-0.928077
	26.620000	-0.969980
	26.625000	-0.866833
	26.630000	-0.831376
	26.635000	-0.937747
	26.640000	-0.973204
	26.645000	-0.863609
	26.650000	-0.821706
	26.655000	-0.931300
	26.660000	-0.973204
	26.665000	-0.870056
	26.670000	-0.824929
	26.675000	-0.934523
	26.680000	-0.976427
	26.685000	-0.866833
	26.690000	-0.828152
	26.695000	-0.937747
	26.700000	-0.976427
	26.705000	-0.870056
	26.710000	-0.834599
	26.715000	-0.937747
	26.720000	-0.982874
	26.725000	-0.879726
	26.730000	-0.837823
	26.735000	-0.950640
	26.740000	-0.982874
	26.745000	-0.873280
	26.750000	-0.844269
	26.755000	-0.947417
	26.760000	-0.986097
	26.765000	-0.876503
	26.770000	-0.837823
	26.775000	-0.947417
	26.780000	-0.992544
	26.785000	-0.876503
	26.790000	-0.837823
	26.795000	-0.940970
	26.800000	-0.979650
	26.805000	-0.870056
	26.810000	-0.831376
	26.815000	-0.940970
	26.820000	-0.976427
	26.825000	-0.863609
	26.830000	-0.821706
	26.835000	-0.931300
	26.840000	-0.966757
	26.845000	-0.857163
	26.850000	-0.818482
	26.855000	-0.924853
	26.860000	-0.966757
	26.865000	-0.853939
	26.870000	-0.812036
	26.875000	-0.921630
	26.880000	-0.957087
	26.885000	-0.850716
	26.890000	-0.805589
	26.895000	-0.915183
	26.900000	-0.957087
	26.905000	-0.837823
	26.910000	-0.805589
	26.915000	-0.911960
	26.920000	-0.950640
	26.925000	-0.847493
	26.930000	-0.805589
	26.935000	-0.911960
	26.940000	-0.947417
	26.945000	-0.831376
	26.950000	-0.795919
	26.955000	-0.911960
	26.960000	-0.950640
	26.965000	-0.828152
	26.970000	-0.795919
	26.975000	-0.921630
	26.980000	-0.950640
	26.985000	-0.831376
	26.990000	-0.799142
	26.995000	-0.905513
	27.000000	-0.944193
	27.005000	-0.831376
	27.010000	-0.799142
	27.015000	-0.908736
	27.020000	-0.944193
	27.025000	-0.831376
	27.030000	-0.799142
	27.035000	-0.915183
	27.040000	-0.947417
	27.045000	-0.841046
	27.050000	-0.805589
	27.055000	-0.921630
	27.060000	-0.953863
	27.065000	-0.850716
	27.070000	-0.815259
	27.075000	-0.931300
	27.080000	-0.966757
	27.085000	-0.857163
	27.090000	-0.821706
	27.095000	-0.940970
	27.100000	-0.969980
	27.105000	-0.866833
	27.110000	-0.828152
	27.115000	-0.950640
	27.120000	-0.976427
	27.125000	-0.866833
	27.130000	-0.841046
	27.135000	-0.950640
	27.140000	-0.986097
	27.145000	-0.876503
	27.150000	-0.841046
	27.155000	-0.957087
	27.160000	-0.982874
	27.165000	-0.873280
	27.170000	-0.844269
	27.175000	-0.957087
	27.180000	-0.986097
	27.185000	-0.876503
	27.190000	-0.841046
	27.195000	-0.957087
	27.200000	-0.986097
	27.205000	-0.876503
	27.210000	-0.844269
	27.215000	-0.953863
	27.220000	-0.982874
	27.225000	-0.873280
	27.230000	-0.844269
	27.235000	-0.953863
	27.240000	-0.986097
	27.245000	-0.876503
	27.250000	-0.837823
	27.255000	-0.953863
	27.260000	-0.979650
	27.265000	-0.870056
	27.270000	-0.847493
	27.275000	-0.950640
	27.280000	-0.986097
	27.285000	-0.870056
	27.290000	-0.844269
	27.295000	-0.953863
	27.300000	-0.979650
	27.305000	-0.870056
	27.310000	-0.837823
	27.315000	-0.953863
	27.320000	-0.986097
	27.325000	-0.866833
	27.330000	-0.834599
	27.335000	-0.953863
	27.340000	-0.979650
	27.345000	-0.866833
	27.350000	-0.837823
	27.355000	-0.947417
	27.360000	-0.976427
	27.365000	-0.873280
	27.370000	-0.847493
	27.375000	-0.950640
	27.380000	-0.979650
	27.385000	-0.870056
	27.390000	-0.847493
	27.395000	-0.963534
	27.400000	-0.989320
	27.405000	-0.873280
	27.410000	-0.853939
	27.415000	-0.963534
	27.420000	-0.995767
	27.425000	-0.876503
	27.430000	-0.853939
	27.435000	-0.973204
	27.440000	-0.992544
	27.445000	-0.876503
	27.450000	-0.853939
	27.455000	-0.979650
	27.460000	-0.995767
	27.465000	-0.886173
	27.470000	-0.853939
	27.475000	-0.969980
	27.480000	-0.989320
	27.485000	-0.886173
	27.490000	-0.860386
	27.495000	-0.973204
	27.500000	-0.998991
	27.505000	-0.879726
	27.510000	-0.863609
	27.515000	-0.976427
	27.520000	-0.998991
	27.525000	-0.886173
	27.530000	-0.853939
	27.535000	-0.976427
	27.540000	-0.995767
	27.545000	-0.879726
	27.550000	-0.860386
	27.555000	-0.969980
	27.560000	-0.995767
	27.565000	-0.886173
	27.570000	-0.870056
	27.575000	-0.976427
	27.580000	-0.995767
	27.585000	-0.882950
	27.590000	-0.866833
	27.595000	-0.979650
	27.600000	-1.002214
	27.605000	-0.873280
	27.610000	-0.860386
	27.615000	-0.976427
	27.620000	-0.998991
	27.625000	-0.886173
	27.630000	-0.863609
	27.635000	-0.979650
	27.640000	-0.998991
	27.645000	-0.886173
	27.650000	-0.866833
	27.655000	-0.976427
	27.660000	-0.992544
	27.665000	-0.876503
	27.670000	-0.860386
	27.675000	-0.976427
	27.680000	-0.998991
	27.685000	-0.879726
	27.690000	-0.863609
	27.695000	-0.979650
	27.700000	-0.998991
	27.705000	-0.882950
	27.710000	-0.863609
	27.715000	-0.979650
	27.720000	-0.992544
	27.725000	-0.879726
	27.730000	-0.863609
	27.735000	-0.982874
	27.740000	-1.002214
	27.745000	-0.882950
	27.750000	-0.863609
	27.755000	-0.986097
	27.760000	-0.998991
	27.765000	-0.879726
	27.770000	-0.866833
	27.775000	-0.979650
	27.780000	-0.998991
	27.785000	-0.879726
	27.790000	-0.860386
	27.795000	-0.976427
	27.800000	-0.989320
	27.805000	-0.870056
	27.810000	-0.857163
	27.815000	-0.973204
	27.820000	-0.982874
	27.825000	-0.876503
	27.830000	-0.853939
	27.835000	-0.969980
	27.840000	-0.979650
	27.845000	-0.866833
	27.850000	-0.853939
	27.855000	-0.973204
	27.860000	-0.976427
	27.865000	-0.866833
	27.870000	-0.857163
	27.875000	-0.966757
	27.880000	-0.973204
	27.885000	-0.860386
	27.890000	-0.853939
	27.895000	-0.960310
	27.900000	-0.976427
	27.905000	-0.860386
	27.910000	-0.847493
	27.915000	-0.963534
	27.920000	-0.973204
	27.925000	-0.857163
	27.930000	-0.850716
	27.935000	-0.963534
	27.940000	-0.966757
	27.945000	-0.860386
	27.950000	-0.841046
	27.955000	-0.963534
	27.960000	-0.973204
	27.965000	-0.853939
	27.970000	-0.847493
	27.975000	-0.960310
	27.980000	-0.966757
	27.985000	-0.857163
	27.990000	-0.841046
	27.995000	-0.960310
	28.000000	-0.973204
	28.005000	-0.857163
	28.010000	-0.847493
	28.015000	-0.966757
	28.020000	-0.966757
	28.025000	-0.857163
	28.030000	-0.850716
	28.035000	-0.963534
	28.040000	-0.969980
	28.045000	-0.860386
	28.050000	-0.850716
	28.055000	-0.966757
	28.060000	-0.973204
	28.065000	-0.860386
	28.070000	-0.853939
	28.075000	-0.966757
	28.080000	-0.973204
	28.085000	-0.860386
	28.090000	-0.850716
	28.095000	-0.966757
	28.100000	-0.973204
	28.105000	-0.857163
	28.110000	-0.844269
	28.115000	-0.963534
	28.120000	-0.973204
	28.125000	-0.857163
	28.130000	-0.847493
	28.135000	-0.969980
	28.140000	-0.973204
	28.145000	-0.850716
	28.150000	-0.853939
	28.155000	-0.966757
	28.160000	-0.973204
	28.165000	-0.853939
	28.170000	-0.847493
	28.175000	-0.966757
	28.180000	-0.969980
	28.185000	-0.850716
	28.190000	-0.850716
	28.195000	-0.966757
	28.200000	-0.973204
	28.205000	-0.860386
	28.210000	-0.857163
	28.215000	-0.966757
	28.220000	-0.966757
	28.225000	-0.853939
	28.230000	-0.847493
	28.235000	-0.973204
	28.240000	-0.973204
	28.245000	-0.857163
	28.250000	-0.850716
	28.255000	-0.966757
	28.260000	-0.969980
	28.265000	-0.853939
	28.270000	-0.853939
	28.275000	-0.966757
	28.280000	-0.969980
	28.285000	-0.850716
	28.290000	-0.850716
	28.295000	-0.966757
	28.300000	-0.966757
	28.305000	-0.853939
	28.310000	-0.844269
	28.315000	-0.963534
	28.320000	-0.957087
	28.325000	-0.844269
	28.330000	-0.844269
	28.335000	-0.957087
	28.340000	-0.940970
	28.345000	-0.831376
	28.350000	-0.828152
	28.355000	-0.934523
	28.360000	-0.934523
	28.365000	-0.821706
	28.370000	-0.815259
	28.375000	-0.921630
	28.380000	-0.918407
	28.385000	-0.802366
	28.390000	-0.799142
	28.395000	-0.915183
	28.400000	-0.905513
	28.405000	-0.789472
	28.410000	-0.789472
	28.415000	-0.895843
	28.420000	-0.892620
	28.425000	-0.786249
	28.430000	-0.776579
	28.435000	-0.889396
	28.440000	-0.886173
	28.445000	-0.773355
	28.450000	-0.773355
	28.455000	-0.879726
	28.460000	-0.873280
	28.465000	-0.763685
	28.470000	-0.770132
	28.475000	-0.876503
	28.480000	-0.866833
	28.485000	-0.763685
	28.490000	-0.763685
	28.495000	-0.876503
	28.500000	-0.866833
	28.505000	-0.760462
	28.510000	-0.763685
	28.515000	-0.866833
	28.520000	-0.870056
	28.525000	-0.754015
	28.530000	-0.757239
	28.535000	-0.863609
	28.540000	-0.866833
	28.545000	-0.750792
	28.550000	-0.760462
	28.555000	-0.866833
	28.560000	-0.866833
	28.565000	-0.744345
	28.570000	-0.754015
	28.575000	-0.866833
	28.580000	-0.850716
	28.585000	-0.747569
	28.590000	-0.754015
	28.595000	-0.863609
	28.600000	-0.850716
	28.605000	-0.747569
	28.610000	-0.757239
	28.615000	-0.857163
	28.620000	-0.853939
	28.625000	-0.744345
	28.630000	-0.757239
	28.635000	-0.860386
	28.640000	-0.857163
	28.645000	-0.750792
	28.650000	-0.760462
	28.655000	-0.857163
	28.660000	-0.860386
	28.665000	-0.750792
	28.670000	-0.766909
	28.675000	-0.870056
	28.680000	-0.866833
	28.685000	-0.760462
	28.690000	-0.770132
	28.695000	-0.882950
	28.700000	-0.876503
	28.705000	-0.773355
	28.710000	-0.779802
	28.715000	-0.892620
	28.720000	-0.886173
	28.725000	-0.786249
	28.730000	-0.792696
	28.735000	-0.911960
	28.740000	-0.899066
	28.745000	-0.799142
	28.750000	-0.812036
	28.755000	-0.921630
	28.760000	-0.911960
	28.765000	-0.799142
	28.770000	-0.818482
	28.775000	-0.928077
	28.780000	-0.918407
	28.785000	-0.815259
	28.790000	-0.818482
	28.795000	-0.934523
	28.800000	-0.928077
	28.805000	-0.821706
	28.810000	-0.831376
	28.815000	-0.944193
	28.820000	-0.934523
	28.825000	-0.821706
	28.830000	-0.834599
	28.835000	-0.950640
	28.840000	-0.944193
	28.845000	-0.834599
	28.850000	-0.837823
	28.855000	-0.947417
	28.860000	-0.940970
	28.865000	-0.828152
	28.870000	-0.834599
	28.875000	-0.957087
	28.880000	-0.937747
	28.885000	-0.831376
	28.890000	-0.841046
	28.895000	-0.950640
	28.900000	-0.937747
	28.905000	-0.831376
	28.910000	-0.844269
	28.915000	-0.953863
	28.920000	-0.944193
	28.925000	-0.834599
	28.930000	-0.844269
	28.935000	-0.963534
	28.940000	-0.944193
	28.945000	-0.841046
	28.950000	-0.857163
	28.955000	-0.960310
	28.960000	-0.947417
	28.965000	-0.841046
	28.970000	-0.853939
	28.975000	-0.969980
	28.980000	-0.957087
	28.985000	-0.844269
	28.990000	-0.857163
	28.995000	-0.973204
	29.000000	-0.963534
	29.005000	-0.850716
	29.010000	-0.863609
	29.015000	-0.976427
	29.020000	-0.963534
	29.025000	-0.857163
	29.030000	-0.873280
	29.035000	-0.989320
	29.040000	-0.969980
	29.045000	-0.853939
	29.050000	-0.873280
	29.055000	-0.986097
	29.060000	-0.969980
	29.065000	-0.860386
	29.070000	-0.873280
	29.075000	-0.982874
	29.080000	-0.963534
	29.085000	-0.857163
	29.090000	-0.870056
	29.095000	-0.989320
	29.100000	-0.966757
	29.105000	-0.860386
	29.110000	-0.873280
	29.115000	-0.982874
	29.120000	-0.973204
	29.125000	-0.857163
	29.130000	-0.873280
	29.135000	-0.986097
	29.140000	-0.963534
	29.145000	-0.857163
	29.150000	-0.873280
	29.155000	-0.986097
	29.160000	-0.973204
	29.165000	-0.857163
	29.170000	-0.876503
	29.175000	-0.992544
	29.180000	-0.973204
	29.185000	-0.857163
	29.190000	-0.882950
	29.195000	-0.982874
	29.200000	-0.963534
	29.205000	-0.857163
	29.210000	-0.879726
	29.215000	-0.995767
	29.220000	-0.973204
	29.225000	-0.860386
	29.230000	-0.879726
	29.235000	-0.989320
	29.240000	-0.969980
	29.245000	-0.863609
	29.250000	-0.876503
	29.255000	-0.992544
	29.260000	-0.976427
	29.265000	-0.860386
	29.270000	-0.879726
	29.275000	-0.998991
	29.280000	-0.976427
	29.285000	-0.853939
	29.290000	-0.876503
	29.295000	-0.986097
	29.300000	-0.966757
	29.305000	-0.870056
	29.310000	-0.879726
	29.315000	-0.995767
	29.320000	-0.969980
	29.325000	-0.857163
	29.330000	-0.879726
	29.335000	-0.995767
	29.340000	-0.973204
	29.345000	-0.863609
	29.350000	-0.879726
	29.355000	-0.992544
	29.360000	-0.973204
	29.365000	-0.860386
	29.370000	-0.882950
	29.375000	-0.998991
	29.380000	-0.969980
	29.385000	-0.857163
	29.390000	-0.882950
	29.395000	-0.992544
	29.400000	-0.973204
	29.405000	-0.857163
	29.410000	-0.873280
	29.415000	-0.986097
	29.420000	-0.957087
	29.425000	-0.850716
	29.430000	-0.870056
	29.435000	-0.986097
	29.440000	-0.960310
	29.445000	-0.850716
	29.450000	-0.876503
	29.455000	-0.995767
	29.460000	-0.960310
	29.465000	-0.850716
	29.470000	-0.879726
	29.475000	-0.992544
	29.480000	-0.969980
	29.485000	-0.853939
	29.490000	-0.876503
	29.495000	-0.992544
	29.500000	-0.966757
	29.505000	-0.853939
	29.510000	-0.876503
	29.515000	-0.992544
	29.520000	-0.960310
	29.525000	-0.850716
	29.530000	-0.876503
	29.535000	-0.989320
	29.540000	-0.963534
	29.545000	-0.850716
	29.550000	-0.876503
	29.555000	-0.995767
	29.560000	-0.960310
	29.565000	-0.853939
	29.570000	-0.879726
	29.575000	-0.992544
	29.580000	-0.963534
	29.585000	-0.853939
	29.590000	-0.882950
	29.595000	-0.989320
	29.600000	-0.957087
	29.605000	-0.857163
	29.610000	-0.879726
	29.615000	-0.992544
	29.620000	-0.963534
	29.625000	-0.844269
	29.630000	-0.876503
	29.635000	-0.986097
	29.640000	-0.966757
	29.645000	-0.847493
	29.650000	-0.882950
	29.655000	-0.992544
	29.660000	-0.963534
	29.665000	-0.850716
	29.670000	-0.876503
	29.675000	-0.998991
	29.680000	-0.960310
	29.685000	-0.850716
	29.690000	-0.876503
	29.695000	-0.995767
	29.700000	-0.960310
	29.705000	-0.850716
	29.710000	-0.882950
	29.715000	-0.986097
	29.720000	-0.957087
	29.725000	-0.844269
	29.730000	-0.882950
	29.735000	-0.986097
	29.740000	-0.957087
	29.745000	-0.844269
	29.750000	-0.873280
	29.755000	-0.986097
	29.760000	-0.957087
	29.765000	-0.837823
	29.770000	-0.866833
	29.775000	-0.979650
	29.780000	-0.940970
	29.785000	-0.837823
	29.790000	-0.876503
	29.795000	-0.979650
	29.800000	-0.944193
	29.805000	-0.831376
	29.810000	-0.863609
	29.815000	-0.973204
	29.820000	-0.944193
	29.825000	-0.828152
	29.830000	-0.863609
	29.835000	-0.979650
	29.840000	-0.944193
	29.845000	-0.828152
	29.850000	-0.863609
	29.855000	-0.986097
	29.860000	-0.944193
	29.865000	-0.831376
	29.870000	-0.870056
	29.875000	-0.979650
	29.880000	-0.950640
	29.885000	-0.841046
	29.890000	-0.876503
	29.895000	-0.986097
	29.900000	-0.950640
	29.905000	-0.844269
	29.910000	-0.879726
	29.915000	-0.986097
	29.920000	-0.947417
	29.925000	-0.837823
	29.930000	-0.873280
	29.935000	-0.989320
	29.940000	-0.947417
	29.945000	-0.847493
	29.950000	-0.876503
	29.955000	-0.989320
	29.960000	-0.950640
	29.965000	-0.837823
	29.970000	-0.876503
	29.975000	-0.986097
	29.980000	-0.947417
	29.985000	-0.841046
	29.990000	-0.873280
	29.995000	-0.982874
	30.000000	-0.940970
	30.005000	-0.844269
	30.010000	-0.873280
	30.015000	-0.982874
	30.020000	-0.944193
	30.025000	-0.834599
	30.030000	-0.876503
	30.035000	-0.982874
	30.040000	-0.950640
	30.045000	-0.831376
	30.050000	-0.873280
	30.055000	-0.979650
	30.060000	-0.950640
	30.065000	-0.834599
	30.070000	-0.876503
	30.075000	-0.986097
	30.080000	-0.947417
	30.085000	-0.834599
	30.090000	-0.876503
	30.095000	-0.992544
	30.100000	-0.947417
	30.105000	-0.831376
	30.110000	-0.876503
	30.115000	-0.986097
	30.120000	-0.944193
	30.125000	-0.834599
	30.130000	-0.873280
	30.135000	-0.986097
	30.140000	-0.940970
	30.145000	-0.834599
	30.150000	-0.879726
	30.155000	-0.986097
	30.160000	-0.944193
	30.165000	-0.828152
	30.170000	-0.876503
	30.175000	-0.982874
	30.180000	-0.937747
	30.185000	-0.834599
	30.190000	-0.876503
	30.195000	-0.979650
	30.200000	-0.937747
	30.205000	-0.831376
	30.210000	-0.870056
	30.215000	-0.989320
	30.220000	-0.940970
	30.225000	-0.831376
	30.230000	-0.876503
	30.235000	-0.989320
	30.240000	-0.947417
	30.245000	-0.837823
	30.250000	-0.879726
	30.255000	-0.989320
	30.260000	-0.944193
	30.265000	-0.841046
	30.270000	-0.879726
	30.275000	-0.998991
	30.280000	-0.950640
	30.285000	-0.837823
	30.290000	-0.889396
	30.295000	-0.998991
	30.300000	-0.950640
	30.305000	-0.847493
	30.310000	-0.886173
	30.315000	-0.998991
	30.320000	-0.953863
	30.325000	-0.841046
	30.330000	-0.892620
	30.335000	-0.995767
	30.340000	-0.953863
	30.345000	-0.841046
	30.350000	-0.886173
	30.355000	-0.992544
	30.360000	-0.947417
	30.365000	-0.844269
	30.370000	-0.889396
	30.375000	-0.998991
	30.380000	-0.947417
	30.385000	-0.831376
	30.390000	-0.886173
	30.395000	-0.989320
	30.400000	-0.947417
	30.405000	-0.841046
	30.410000	-0.892620
	30.415000	-0.989320
	30.420000	-0.940970
	30.425000	-0.837823
	30.430000	-0.882950
	30.435000	-0.992544
	30.440000	-0.944193
	30.445000	-0.834599
	30.450000	-0.889396
	30.455000	-0.992544
	30.460000	-0.947417
	30.465000	-0.837823
	30.470000	-0.882950
	30.475000	-0.986097
	30.480000	-0.937747
	30.485000	-0.837823
	30.490000	-0.886173
	30.495000	-0.986097
	30.500000	-0.947417
	30.505000	-0.844269
	30.510000	-0.892620
	30.515000	-0.992544
	30.520000	-0.944193
	30.525000	-0.834599
	30.530000	-0.886173
	30.535000	-0.995767
	30.540000	-0.944193
	30.545000	-0.837823
	30.550000	-0.889396
	30.555000	-0.995767
	30.560000	-0.947417
	30.565000	-0.841046
	30.570000	-0.889396
	30.575000	-0.986097
	30.580000	-0.944193
	30.585000	-0.847493
	30.590000	-0.892620
	30.595000	-0.992544
	30.600000	-0.937747
	30.605000	-0.837823
	30.610000	-0.889396
	30.615000	-0.995767
	30.620000	-0.947417
	30.625000	-0.837823
	30.630000	-0.892620
	30.635000	-0.995767
	30.640000	-0.947417
	30.645000	-0.847493
	30.650000	-0.886173
	30.655000	-0.998991
	30.660000	-0.947417
	30.665000	-0.847493
	30.670000	-0.895843
	30.675000	-0.998991
	30.680000	-0.950640
	30.685000	-0.844269
	30.690000	-0.889396
	30.695000	-0.998991
	30.700000	-0.944193
	30.705000	-0.847493
	30.710000	-0.899066
	30.715000	-0.998991
	30.720000	-0.953863
	30.725000	-0.847493
	30.730000	-0.899066
	30.735000	-1.011884
	30.740000	-0.953863
	30.745000	-0.860386
	30.750000	-0.908736
	30.755000	-1.005437
	30.760000	-0.960310
	30.765000	-0.857163
	30.770000	-0.915183
	30.775000	-1.015107
	30.780000	-0.963534
	30.785000	-0.863609
	30.790000	-0.921630
	30.795000	-1.021554
	30.800000	-0.969980
	30.805000	-0.866833
	30.810000	-0.921630
	30.815000	-1.021554
	30.820000	-0.969980
	30.825000	-0.870056
	30.830000	-0.918407
	30.835000	-1.018331
	30.840000	-0.963534
	30.845000	-0.863609
	30.850000	-0.915183
	30.855000	-1.008661
	30.860000	-0.950640
	30.865000	-0.850716
	30.870000	-0.908736
	30.875000	-1.002214
	30.880000	-0.934523
	30.885000	-0.841046
	30.890000	-0.886173
	30.895000	-0.982874
	30.900000	-0.924853
	30.905000	-0.821706
	30.910000	-0.866833
	30.915000	-0.969980
	30.920000	-0.908736
	30.925000	-0.805589
	30.930000	-0.860386
	30.935000	-0.960310
	30.940000	-0.895843
	30.945000	-0.786249
	30.950000	-0.844269
	30.955000	-0.940970
	30.960000	-0.879726
	30.965000	-0.779802
	30.970000	-0.824929
	30.975000	-0.921630
	30.980000	-0.866833
	30.985000	-0.763685
	30.990000	-0.808812
	30.995000	-0.905513
	31.000000	-0.850716
	31.005000	-0.750792
	31.010000	-0.799142
	31.015000	-0.889396
	31.020000	-0.831376
	31.025000	-0.734675
	31.030000	-0.786249
	31.035000	-0.879726
	31.040000	-0.818482
	31.045000	-0.728228
	31.050000	-0.776579
	31.055000	-0.873280
	31.060000	-0.812036
	31.065000	-0.718558
	31.070000	-0.773355
	31.075000	-0.870056
	31.080000	-0.805589
	31.085000	-0.712112
	31.090000	-0.770132
	31.095000	-0.860386
	31.100000	-0.799142
	31.105000	-0.705665
	31.110000	-0.760462
	31.115000	-0.860386
	31.120000	-0.802366
	31.125000	-0.708888
	31.130000	-0.763685
	31.135000	-0.857163
	31.140000	-0.799142
	31.145000	-0.705665
	31.150000	-0.766909
	31.155000	-0.850716
	31.160000	-0.789472
	31.165000	-0.702441
	31.170000	-0.757239
	31.175000	-0.850716
	31.180000	-0.795919
	31.185000	-0.695995
	31.190000	-0.763685
	31.195000	-0.853939
	31.200000	-0.802366
	31.205000	-0.708888
	31.210000	-0.763685
	31.215000	-0.857163
	31.220000	-0.799142
	31.225000	-0.712112
	31.230000	-0.766909
	31.235000	-0.857163
	31.240000	-0.805589
	31.245000	-0.715335
	31.250000	-0.773355
	31.255000	-0.866833
	31.260000	-0.808812
	31.265000	-0.718558
	31.270000	-0.776579
	31.275000	-0.870056
	31.280000	-0.818482
	31.285000	-0.725005
	31.290000	-0.786249
	31.295000	-0.882950
	31.300000	-0.821706
	31.305000	-0.737898
	31.310000	-0.799142
	31.315000	-0.889396
	31.320000	-0.828152
	31.325000	-0.750792
	31.330000	-0.805589
	31.335000	-0.899066
	31.340000	-0.841046
	31.345000	-0.754015
	31.350000	-0.815259
	31.355000	-0.908736
	31.360000	-0.853939
	31.365000	-0.766909
	31.370000	-0.821706
	31.375000	-0.921630
	31.380000	-0.863609
	31.385000	-0.776579
	31.390000	-0.831376
	31.395000	-0.928077
	31.400000	-0.866833
	31.405000	-0.776579
	31.410000	-0.837823
	31.415000	-0.931300
	31.420000	-0.870056
	31.425000	-0.779802
	31.430000	-0.847493
	31.435000	-0.937747
	31.440000	-0.870056
	31.445000	-0.786249
	31.450000	-0.853939
	31.455000	-0.940970
	31.460000	-0.879726
	31.465000	-0.783025
	31.470000	-0.850716
	31.475000	-0.937747
	31.480000	-0.879726
	31.485000	-0.789472
	31.490000	-0.857163
	31.495000	-0.947417
	31.500000	-0.886173
	31.505000	-0.789472
	31.510000	-0.860386
	31.515000	-0.947417
	31.520000	-0.879726
	31.525000	-0.795919
	31.530000	-0.857163
	31.535000	-0.953863
	31.540000	-0.886173
	31.545000	-0.795919
	31.550000	-0.860386
	31.555000	-0.953863
	31.560000	-0.892620
	31.565000	-0.795919
	31.570000	-0.863609
	31.575000	-0.957087
	31.580000	-0.895843
	31.585000	-0.795919
	31.590000	-0.866833
	31.595000	-0.960310
	31.600000	-0.895843
	31.605000	-0.802366
	31.610000	-0.873280
	31.615000	-0.966757
	31.620000	-0.895843
	31.625000	-0.815259
	31.630000	-0.882950
	31.635000	-0.976427
	31.640000	-0.908736
	31.645000	-0.808812
	31.650000	-0.882950
	31.655000	-0.976427
	31.660000	-0.911960
	31.665000	-0.824929
	31.670000	-0.895843
	31.675000	-0.986097
	31.680000	-0.915183
	31.685000	-0.824929
	31.690000	-0.899066
	31.695000	-0.989320
	31.700000	-0.924853
	31.705000	-0.837823
	31.710000	-0.895843
	31.715000	-0.995767
	31.720000	-0.924853
	31.725000	-0.828152
	31.730000	-0.902290
	31.735000	-0.992544
	31.740000	-0.924853
	31.745000	-0.828152
	31.750000	-0.905513
	31.755000	-0.995767
	31.760000	-0.921630
	31.765000	-0.834599
	31.770000	-0.915183
	31.775000	-0.989320
	31.780000	-0.921630
	31.785000	-0.831376
	31.790000	-0.902290
	31.795000	-0.992544
	31.800000	-0.931300
	31.805000	-0.837823
	31.810000	-0.905513
	31.815000	-0.998991
	31.820000	-0.924853
	31.825000	-0.834599
	31.830000	-0.905513
	31.835000	-0.995767
	31.840000	-0.928077
	31.845000	-0.834599
	31.850000	-0.911960
	31.855000	-0.995767
	31.860000	-0.921630
	31.865000	-0.841046
	31.870000	-0.915183
	31.875000	-0.995767
	31.880000	-0.928077
	31.885000	-0.841046
	31.890000	-0.911960
	31.895000	-0.998991
	31.900000	-0.931300
	31.905000	-0.844269
	31.910000	-0.915183
	31.915000	-1.005437
	31.920000	-0.924853
	31.925000	-0.847493
	31.930000	-0.915183
	31.935000	-1.008661
	31.940000	-0.931300
	31.945000	-0.844269
	31.950000	-0.918407
	31.955000	-1.005437
	31.960000	-0.934523
	31.965000	-0.847493
	31.970000	-0.928077
	31.975000	-1.011884
	31.980000	-0.931300
	31.985000	-0.847493
	31.990000	-0.924853
	31.995000	-1.002214
	32.000000	-0.931300
	32.005000	-0.841046
	32.010000	-0.915183
	32.015000	-0.998991
	32.020000	-0.934523
	32.025000	-0.841046
	32.030000	-0.918407
	32.035000	-1.002214
	32.040000	-0.921630
	32.045000	-0.841046
	32.050000	-0.908736
	32.055000	-0.995767
	32.060000	-0.924853
	32.065000	-0.831376
	32.070000	-0.908736
	32.075000	-0.995767
	32.080000	-0.918407
	32.085000	-0.831376
	32.090000	-0.915183
	32.095000	-0.989320
	32.100000	-0.924853
	32.105000	-0.834599
	32.110000	-0.902290
	32.115000	-0.992544
	32.120000	-0.911960
	32.125000	-0.831376
	32.130000	-0.905513
	32.135000	-0.992544
	32.140000	-0.911960
	32.145000	-0.824929
	32.150000	-0.895843
	32.155000	-0.986097
	32.160000	-0.908736
	32.165000	-0.831376
	32.170000	-0.902290
	32.175000	-0.982874
	32.180000	-0.915183
	32.185000	-0.821706
	32.190000	-0.899066
	32.195000	-0.986097
	32.200000	-0.908736
	32.205000	-0.821706
	32.210000	-0.895843
	32.215000	-0.979650
	32.220000	-0.905513
	32.225000	-0.821706
	32.230000	-0.895843
	32.235000	-0.973204
	32.240000	-0.902290
	32.245000	-0.815259
	32.250000	-0.889396
	32.255000	-0.976427
	32.260000	-0.899066
	32.265000	-0.812036
	32.270000	-0.892620
	32.275000	-0.966757
	32.280000	-0.895843
	32.285000	-0.815259
	32.290000	-0.895843
	32.295000	-0.973204
	32.300000	-0.895843
	32.305000	-0.808812
	32.310000	-0.899066
	32.315000	-0.982874
	32.320000	-0.895843
	32.325000	-0.818482
	32.330000	-0.899066
	32.335000	-0.979650
	32.340000	-0.902290
	32.345000	-0.818482
	32.350000	-0.902290
	32.355000	-0.982874
	32.360000	-0.902290
	32.365000	-0.821706
	32.370000	-0.905513
	32.375000	-0.989320
	32.380000	-0.905513
	32.385000	-0.824929
	32.390000	-0.908736
	32.395000	-0.982874
	32.400000	-0.905513
	32.405000	-0.828152
	32.410000	-0.902290
	32.415000	-0.992544
	32.420000	-0.905513
	32.425000	-0.828152
	32.430000	-0.905513
	32.435000	-0.986097
	32.440000	-0.905513
	32.445000	-0.824929
	32.450000	-0.902290
	32.455000	-0.986097
	32.460000	-0.902290
	32.465000	-0.824929
	32.470000	-0.908736
	32.475000	-0.986097
	32.480000	-0.902290
	32.485000	-0.821706
	32.490000	-0.908736
	32.495000	-0.979650
	32.500000	-0.899066
	32.505000	-0.824929
	32.510000	-0.899066
	32.515000	-0.979650
	32.520000	-0.892620
	32.525000	-0.812036
	32.530000	-0.899066
	32.535000	-0.979650
	32.540000	-0.892620
	32.545000	-0.812036
	32.550000	-0.889396
	32.555000	-0.973204
	32.560000	-0.889396
	32.565000	-0.812036
	32.570000	-0.892620
	32.575000	-0.973204
	32.580000	-0.882950
	32.585000	-0.812036
	32.590000	-0.899066
	32.595000	-0.973204
	32.600000	-0.889396
	32.605000	-0.815259
	32.610000	-0.902290
	32.615000	-0.969980
	32.620000	-0.889396
	32.625000	-0.805589
	32.630000	-0.892620
	32.635000	-0.973204
	32.640000	-0.892620
	32.645000	-0.805589
	32.650000	-0.895843
	32.655000	-0.976427
	32.660000	-0.882950
	32.665000	-0.808812
	32.670000	-0.892620
	32.675000	-0.969980
	32.680000	-0.886173
	32.685000	-0.812036
	32.690000	-0.895843
	32.695000	-0.973204
	32.700000	-0.886173
	32.705000	-0.815259
	32.710000	-0.899066
	32.715000	-0.973204
	32.720000	-0.882950
	32.725000	-0.812036
	32.730000	-0.905513
	32.735000	-0.979650
	32.740000	-0.892620
	32.745000	-0.818482
	32.750000	-0.902290
	32.755000	-0.982874
	32.760000	-0.895843
	32.765000	-0.812036
	32.770000	-0.905513
	32.775000	-0.979650
	32.780000	-0.886173
	32.785000	-0.815259
	32.790000	-0.902290
	32.795000	-0.979650
	32.800000	-0.882950
	32.805000	-0.818482
	32.810000	-0.902290
	32.815000	-0.976427
	32.820000	-0.889396
	32.825000	-0.818482
	32.830000	-0.908736
	32.835000	-0.976427
	32.840000	-0.895843
	32.845000	-0.818482
	32.850000	-0.911960
	32.855000	-0.976427
	32.860000	-0.892620
	32.865000	-0.824929
	32.870000	-0.905513
	32.875000	-0.982874
	32.880000	-0.892620
	32.885000	-0.821706
	32.890000	-0.911960
	32.895000	-0.989320
	32.900000	-0.892620
	32.905000	-0.818482
	32.910000	-0.908736
	32.915000	-0.986097
	32.920000	-0.892620
	32.925000	-0.821706
	32.930000	-0.908736
	32.935000	-0.986097
	32.940000	-0.889396
	32.945000	-0.818482
	32.950000	-0.908736
	32.955000	-0.976427
	32.960000	-0.892620
	32.965000	-0.821706
	32.970000	-0.915183
	32.975000	-0.982874
	32.980000	-0.892620
	32.985000	-0.821706
	32.990000	-0.915183
	32.995000	-0.989320
	33.000000	-0.902290
	33.005000	-0.828152
	33.010000	-0.921630
	33.015000	-0.986097
	33.020000	-0.899066
	33.025000	-0.834599
	33.030000	-0.921630
	33.035000	-0.989320
	33.040000	-0.902290
	33.045000	-0.831376
	33.050000	-0.921630
	33.055000	-0.992544
	33.060000	-0.905513
	33.065000	-0.834599
	33.070000	-0.921630
	33.075000	-0.989320
	33.080000	-0.902290
	33.085000	-0.837823
	33.090000	-0.918407
	33.095000	-0.992544
	33.100000	-0.902290
	33.105000	-0.831376
	33.110000	-0.928077
	33.115000	-0.992544
	33.120000	-0.902290
	33.125000	-0.837823
	33.130000	-0.928077
	33.135000	-0.995767
	33.140000	-0.895843
	33.145000	-0.834599
	33.150000	-0.928077
	33.155000	-0.992544
	33.160000	-0.905513
	33.165000	-0.834599
	33.170000	-0.928077
	33.175000	-0.998991
	33.180000	-0.902290
	33.185000	-0.834599
	33.190000	-0.931300
	33.195000	-1.002214
	33.200000	-0.902290
	33.205000	-0.837823
	33.210000	-0.928077
	33.215000	-0.992544
	33.220000	-0.905513
	33.225000	-0.837823
	33.230000	-0.934523
	33.235000	-0.998991
	33.240000	-0.905513
	33.245000	-0.841046
	33.250000	-0.934523
	33.255000	-1.002214
	33.260000	-0.902290
	33.265000	-0.837823
	33.270000	-0.934523
	33.275000	-0.995767
	33.280000	-0.905513
	33.285000	-0.837823
	33.290000	-0.931300
	33.295000	-1.002214
	33.300000	-0.905513
	33.305000	-0.841046
	33.310000	-0.934523
	33.315000	-1.002214
	33.320000	-0.902290
	33.325000	-0.841046
	33.330000	-0.931300
	33.335000	-0.992544
	33.340000	-0.905513
	33.345000	-0.844269
	33.350000	-0.931300
	33.355000	-0.995767
	33.360000	-0.905513
	33.365000	-0.841046
	33.370000	-0.928077
	33.375000	-0.998991
	33.380000	-0.902290
	33.385000	-0.844269
	33.390000	-0.937747
	33.395000	-0.998991
	33.400000	-0.902290
	33.405000	-0.844269
	33.410000	-0.931300
	33.415000	-0.992544
	33.420000	-0.899066
	33.425000	-0.837823
	33.430000	-0.934523
	33.435000	-0.998991
	33.440000	-0.899066
	33.445000	-0.837823
	33.450000	-0.937747
	33.455000	-0.995767
	33.460000	-0.899066
	33.465000	-0.834599
	33.470000	-0.937747
	33.475000	-0.995767
	33.480000	-0.889396
	33.485000	-0.844269
	33.490000	-0.934523
	33.495000	-0.998991
	33.500000	-0.905513
	33.505000	-0.834599
	33.510000	-0.934523
	33.515000	-0.995767
	33.520000	-0.895843
	33.525000	-0.831376
	33.530000	-0.937747
	33.535000	-0.992544
	33.540000	-0.892620
	33.545000	-0.841046
	33.550000	-0.928077
	33.555000	-0.992544
	33.560000	-0.899066
	33.565000	-0.837823
	33.570000	-0.928077
	33.575000	-0.995767
	33.580000	-0.902290
	33.585000	-0.841046
	33.590000	-0.937747
	33.595000	-0.998991
	33.600000	-0.902290
	33.605000	-0.837823
	33.610000	-0.931300
	33.615000	-0.995767
	33.620000	-0.892620
	33.625000	-0.837823
	33.630000	-0.931300
	33.635000	-0.989320
	33.640000	-0.895843
	33.645000	-0.834599
	33.650000	-0.940970
	33.655000	-0.989320
	33.660000	-0.889396
	33.665000	-0.841046
	33.670000	-0.931300
	33.675000	-0.992544
	33.680000	-0.892620
	33.685000	-0.834599
	33.690000	-0.931300
	33.695000	-0.992544
	33.700000	-0.895843
	33.705000	-0.831376
	33.710000	-0.934523
	33.715000	-0.989320
	33.720000	-0.892620
	33.725000	-0.828152
	33.730000	-0.928077
	33.735000	-0.992544
	33.740000	-0.892620
	33.745000	-0.837823
	33.750000	-0.937747
	33.755000	-0.989320
	33.760000	-0.889396
	33.765000	-0.828152
	33.770000	-0.940970
	33.775000	-0.992544
	33.780000	-0.892620
	33.785000	-0.834599
	33.790000	-0.937747
	33.795000	-0.989320
	33.800000	-0.895843
	33.805000	-0.837823
	33.810000	-0.937747
	33.815000	-0.992544
	33.820000	-0.892620
	33.825000	-0.834599
	33.830000	-0.937747
	33.835000	-0.995767
	33.840000	-0.886173
	33.845000	-0.834599
	33.850000	-0.934523
	33.855000	-0.989320
	33.860000	-0.892620
	33.865000	-0.841046
	33.870000	-0.934523
	33.875000	-0.995767
	33.880000	-0.892620
	33.885000	-0.837823
	33.890000	-0.934523
	33.895000	-0.986097
	33.900000	-0.879726
	33.905000	-0.824929
	33.910000	-0.918407
	33.915000	-0.966757
	33.920000	-0.870056
	33.925000	-0.805589
	33.930000	-0.902290
	33.935000	-0.960310
	33.940000	-0.850716
	33.945000	-0.802366
	33.950000	-0.899066
	33.955000	-0.940970
	33.960000	-0.841046
	33.965000	-0.789472
	33.970000	-0.882950
	33.975000	-0.921630
	33.980000	-0.824929
	33.985000	-0.773355
	33.990000	-0.863609
	33.995000	-0.915183
	34.000000	-0.812036
	34.005000	-0.760462
	34.010000	-0.857163
	34.015000	-0.902290
	34.020000	-0.799142
	34.025000	-0.754015
	34.030000	-0.847493
	34.035000	-0.895843
	34.040000	-0.792696
	34.045000	-0.744345
	34.050000	-0.844269
	34.055000	-0.889396
	34.060000	-0.786249
	34.065000	-0.741122
	34.070000	-0.837823
	34.075000	-0.886173
	34.080000	-0.792696
	34.085000	-0.734675
	34.090000	-0.831376
	34.095000	-0.886173
	34.100000	-0.783025
	34.105000	-0.741122
	34.110000	-0.831376
	34.115000	-0.876503
	34.120000	-0.786249
	34.125000	-0.737898
	34.130000	-0.837823
	34.135000	-0.879726
	34.140000	-0.783025
	34.145000	-0.734675
	34.150000	-0.834599
	34.155000	-0.882950
	34.160000	-0.786249
	34.165000	-0.737898
	34.170000	-0.837823
	34.175000	-0.889396
	34.180000	-0.795919
	34.185000	-0.747569
	34.190000	-0.844269
	34.195000	-0.892620
	34.200000	-0.802366
	34.205000	-0.754015
	34.210000	-0.860386
	34.215000	-0.908736
	34.220000	-0.815259
	34.225000	-0.770132
	34.230000	-0.873280
	34.235000	-0.921630
	34.240000	-0.818482
	34.245000	-0.789472
	34.250000	-0.886173
	34.255000	-0.934523
	34.260000	-0.831376
	34.265000	-0.805589
	34.270000	-0.902290
	34.275000	-0.944193
	34.280000	-0.841046
	34.285000	-0.802366
	34.290000	-0.911960
	34.295000	-0.957087
	34.300000	-0.866833
	34.305000	-0.821706
	34.310000	-0.924853
	34.315000	-0.966757
	34.320000	-0.866833
	34.325000	-0.824929
	34.330000	-0.931300
	34.335000	-0.976427
	34.340000	-0.873280
	34.345000	-0.834599
	34.350000	-0.940970
	34.355000	-0.986097
	34.360000	-0.882950
	34.365000	-0.837823
	34.370000	-0.944193
	34.375000	-0.982874
	34.380000	-0.892620
	34.385000	-0.850716
	34.390000	-0.957087
	34.395000	-0.995767
	34.400000	-0.892620
	34.405000	-0.853939
	34.410000	-0.950640
	34.415000	-1.002214
	34.420000	-0.895843
	34.425000	-0.860386
	34.430000	-0.957087
	34.435000	-0.998991
	34.440000	-0.899066
	34.445000	-0.857163
	34.450000	-0.960310
	34.455000	-0.998991
	34.460000	-0.899066
	34.465000	-0.853939
	34.470000	-0.966757
	34.475000	-1.005437
	34.480000	-0.895843
	34.485000	-0.857163
	34.490000	-0.960310
	34.495000	-1.002214
	34.500000	-0.899066
	34.505000	-0.853939
	34.510000	-0.963534
	34.515000	-0.992544
	34.520000	-0.895843
	34.525000	-0.853939
	34.530000	-0.966757
	34.535000	-1.002214
	34.540000	-0.892620
	34.545000	-0.863609
	34.550000	-0.969980
	34.555000	-1.005437
	34.560000	-0.899066
	34.565000	-0.863609
	34.570000	-0.976427
	34.575000	-1.011884
	34.580000	-0.902290
	34.585000	-0.863609
	34.590000	-0.966757
	34.595000	-1.008661
	34.600000	-0.895843
	34.605000	-0.870056
	34.610000	-0.973204
	34.615000	-1.005437
	34.620000	-0.902290
	34.625000	-0.863609
	34.630000	-0.969980
	34.635000	-1.002214
	34.640000	-0.899066
	34.645000	-0.863609
	34.650000	-0.973204
	34.655000	-1.008661
	34.660000	-0.895843
	34.665000	-0.853939
	34.670000	-0.966757
	34.675000	-1.002214
	34.680000	-0.892620
	34.685000	-0.857163
	34.690000	-0.963534
	34.695000	-0.998991
	34.700000	-0.889396
	34.705000	-0.857163
	34.710000	-0.966757
	34.715000	-0.998991
	34.720000	-0.889396
	34.725000	-0.857163
	34.730000	-0.963534
	34.735000	-0.998991
	34.740000	-0.895843
	34.745000	-0.853939
	34.750000	-0.960310
	34.755000	-0.995767
	34.760000	-0.882950
	34.765000	-0.853939
	34.770000	-0.960310
	34.775000	-0.995767
	34.780000	-0.886173
	34.785000	-0.850716
	34.790000	-0.963534
	34.795000	-0.998991
	34.800000	-0.892620
	34.805000	-0.853939
	34.810000	-0.960310
	34.815000	-1.002214
	34.820000	-0.886173
	34.825000	-0.850716
	34.830000	-0.963534
	34.835000	-0.998991
	34.840000	-0.889396
	34.845000	-0.857163
	34.850000	-0.969980
	34.855000	-0.995767
	34.860000	-0.892620
	34.865000	-0.853939
	34.870000	-0.966757
	34.875000	-1.005437
	34.880000	-0.892620
	34.885000	-0.863609
	34.890000	-0.976427
	34.895000	-1.005437
	34.900000	-0.889396
	34.905000	-0.860386
	34.910000	-0.976427
	34.915000	-1.005437
	34.920000	-0.899066
	34.925000	-0.866833
	34.930000	-0.973204
	34.935000	-1.005437
	34.940000	-0.895843
	34.945000	-0.863609
	34.950000	-0.973204
	34.955000	-1.002214
	34.960000	-0.892620
	34.965000	-0.863609
	34.970000	-0.969980
	34.975000	-0.998991
	34.980000	-0.889396
	34.985000	-0.857163
	34.990000	-0.966757
	34.995000	-0.989320
	35.000000	-0.889396
	35.005000	-0.857163
	35.010000	-0.966757
	35.015000	-0.992544
	35.020000	-0.882950
	35.025000	-0.850716
	35.030000	-0.963534
	35.035000	-0.986097
	35.040000	-0.882950
	35.045000	-0.853939
	35.050000	-0.963534
	35.055000	-0.992544
	35.060000	-0.882950
	35.065000	-0.844269
	35.070000	-0.963534
	35.075000	-0.989320
	35.080000	-0.876503
	35.085000	-0.847493
	35.090000	-0.960310
	35.095000	-0.979650
	35.100000	-0.879726
	35.105000	-0.850716
	35.110000	-0.960310
	35.115000	-0.986097
	35.120000	-0.879726
	35.125000	-0.847493
	35.130000	-0.960310
	35.135000	-0.986097
	35.140000	-0.876503
	35.145000	-0.847493
	35.150000	-0.960310
	35.155000	-0.989320
	35.160000	-0.876503
	35.165000	-0.850716
	35.170000	-0.960310
	35.175000	-0.989320
	35.180000	-0.876503
	35.185000	-0.857163
	35.190000	-0.966757
	35.195000	-0.986097
	35.200000	-0.879726
	35.205000	-0.850716
	35.210000	-0.963534
	35.215000	-0.989320
	35.220000	-0.876503
	35.225000	-0.850716
	35.230000	-0.966757
	35.235000	-0.989320
	35.240000	-0.873280
	35.245000	-0.850716
	35.250000	-0.960310
	35.255000	-0.986097
	35.260000	-0.876503
	35.265000	-0.857163
	35.270000	-0.963534
	35.275000	-0.986097
	35.280000	-0.876503
	35.285000	-0.853939
	35.290000	-0.960310
	35.295000	-0.986097
	35.300000	-0.873280
	35.305000	-0.853939
	35.310000	-0.963534
	35.315000	-0.982874
	35.320000	-0.873280
	35.325000	-0.850716
	35.330000	-0.960310
	35.335000	-0.982874
	35.340000	-0.873280
	35.345000	-0.844269
	35.350000	-0.969980
	35.355000	-0.986097
	35.360000	-0.873280
	35.365000	-0.857163
	35.370000	-0.969980
	35.375000	-0.989320
	35.380000	-0.873280
	35.385000	-0.850716
	35.390000	-0.966757
	35.395000	-0.992544
	35.400000	-0.873280
	35.405000	-0.857163
	35.410000	-0.973204
	35.415000	-0.992544
	35.420000	-0.876503
	35.425000	-0.853939
	35.430000	-0.969980
	35.435000	-0.979650
	35.440000	-0.876503
	35.445000	-0.853939
	35.450000	-0.969980
	35.455000	-0.986097
	35.460000	-0.873280
	35.465000	-0.860386
	35.470000	-0.969980
	35.475000	-0.982874
	35.480000	-0.870056
	35.485000	-0.847493
	35.490000	-0.966757
	35.495000	-0.986097
	35.500000	-0.870056
	35.505000	-0.860386
	35.510000	-0.973204
	35.515000	-0.982874
	35.520000	-0.870056
	35.525000	-0.857163
	35.530000	-0.973204
	35.535000	-0.982874
	35.540000	-0.860386
	35.545000	-0.850716
	35.550000	-0.966757
	35.555000	-0.982874
	35.560000	-0.866833
	35.565000	-0.850716
	35.570000	-0.960310
	35.575000	-0.973204
	35.580000	-0.863609
	35.585000	-0.844269
	35.590000	-0.966757
	35.595000	-0.976427
	35.600000	-0.866833
	35.605000	-0.847493
	35.610000	-0.957087
	35.615000	-0.973204
	35.620000	-0.863609
	35.625000	-0.850716
	35.630000	-0.963534
	35.635000	-0.973204
	35.640000	-0.863609
	35.645000	-0.844269
	35.650000	-0.966757
	35.655000	-0.973204
	35.660000	-0.866833
	35.665000	-0.847493
	35.670000	-0.963534
	35.675000	-0.976427
	35.680000	-0.860386
	35.685000	-0.850716
	35.690000	-0.963534
	35.695000	-0.973204
	35.700000	-0.860386
	35.705000	-0.847493
	35.710000	-0.966757
	35.715000	-0.976427
	35.720000	-0.857163
	35.725000	-0.841046
	35.730000	-0.963534
	35.735000	-0.976427
	35.740000	-0.863609
	35.745000	-0.850716
	35.750000	-0.963534
	35.755000	-0.969980
	35.760000	-0.860386
	35.765000	-0.853939
	35.770000	-0.966757
	35.775000	-0.973204
	35.780000	-0.863609
	35.785000	-0.844269
	35.790000	-0.969980
	35.795000	-0.973204
	35.800000	-0.860386
	35.805000	-0.853939
	35.810000	-0.963534
	35.815000	-0.979650
	35.820000	-0.857163
	35.825000	-0.857163
	35.830000	-0.969980
	35.835000	-0.976427
	35.840000	-0.863609
	35.845000	-0.853939
	35.850000	-0.966757
	35.855000	-0.979650
	35.860000	-0.860386
	35.865000	-0.850716
	35.870000	-0.966757
	35.875000	-0.976427
	35.880000	-0.857163
	35.885000	-0.853939
	35.890000	-0.969980
	35.895000	-0.976427
	35.900000	-0.866833
	35.905000	-0.853939
	35.910000	-0.973204
	35.915000	-0.979650
	35.920000	-0.860386
	35.925000	-0.853939
	35.930000	-0.969980
	35.935000	-0.976427
	35.940000	-0.860386
	35.945000	-0.853939
	35.950000	-0.969980
	35.955000	-0.976427
	35.960000	-0.857163
	35.965000	-0.850716
	35.970000	-0.969980
	35.975000	-0.969980
	35.980000	-0.860386
	35.985000	-0.853939
	35.990000	-0.966757
	35.995000	-0.973204
	36.000000	-0.863609
	36.005000	-0.860386
	36.010000	-0.966757
	36.015000	-0.973204
	36.020000	-0.860386
	36.025000	-0.853939
	36.030000	-0.973204
	36.035000	-0.973204
	36.040000	-0.860386
	36.045000	-0.860386
	36.050000	-0.966757
	36.055000	-0.976427
	36.060000	-0.866833
	36.065000	-0.860386
	36.070000	-0.976427
	36.075000	-0.979650
	36.080000	-0.866833
	36.085000	-0.866833
	36.090000	-0.986097
	36.095000	-0.986097
	36.100000	-0.863609
	36.105000	-0.866833
	36.110000	-0.979650
	36.115000	-0.982874
	36.120000	-0.870056
	36.125000	-0.866833
	36.130000	-0.989320
	36.135000	-0.989320
	36.140000	-0.879726
	36.145000	-0.863609
	36.150000	-0.989320
	36.155000	-0.982874
	36.160000	-0.873280
	36.165000	-0.866833
	36.170000	-0.979650
	36.175000	-0.986097
	36.180000	-0.870056
	36.185000	-0.870056
	36.190000	-0.986097
	36.195000	-0.986097
	36.200000	-0.870056
	36.205000	-0.870056
	36.210000	-0.982874
	36.215000	-0.989320
	36.220000	-0.866833
	36.225000	-0.870056
	36.230000	-0.989320
	36.235000	-0.986097
	36.240000	-0.870056
	36.245000	-0.870056
	36.250000	-0.982874
	36.255000	-0.986097
	36.260000	-0.873280
	36.265000	-0.870056
	36.270000	-0.986097
	36.275000	-0.982874
	36.280000	-0.870056
	36.285000	-0.870056
	36.290000	-0.982874
	36.295000	-0.979650
	36.300000	-0.870056
	36.305000	-0.866833
	36.310000	-0.982874
	36.315000	-0.979650
	36.320000	-0.860386
	36.325000	-0.870056
	36.330000	-0.979650
	36.335000	-0.979650
	36.340000	-0.870056
	36.345000	-0.866833
	36.350000	-0.982874
	36.355000	-0.979650
	36.360000	-0.866833
	36.365000	-0.873280
	36.370000	-0.986097
	36.375000	-0.982874
	36.380000	-0.866833
	36.385000	-0.866833
	36.390000	-0.986097
	36.395000	-0.989320
	36.400000	-0.873280
	36.405000	-0.876503
	36.410000	-0.995767
	36.415000	-0.979650
	36.420000	-0.870056
	36.425000	-0.866833
	36.430000	-0.986097
	36.435000	-0.976427
	36.440000	-0.866833
	36.445000	-0.870056
	36.450000	-0.989320
	36.455000	-0.979650
	36.460000	-0.870056
	36.465000	-0.873280
	36.470000	-0.979650
	36.475000	-0.979650
	36.480000	-0.863609
	36.485000	-0.870056
	36.490000	-0.986097
	36.495000	-0.986097
	36.500000	-0.866833
	36.505000	-0.873280
	36.510000	-0.986097
	36.515000	-0.982874
	36.520000	-0.863609
	36.525000	-0.866833
	36.530000	-0.986097
	36.535000	-0.986097
	36.540000	-0.863609
	36.545000	-0.876503
	36.550000	-0.982874
	36.555000	-0.979650
	36.560000	-0.863609
	36.565000	-0.873280
	36.570000	-0.989320
	36.575000	-0.979650
	36.580000	-0.860386
	36.585000	-0.873280
	36.590000	-0.989320
	36.595000	-0.973204
	36.600000	-0.863609
