2024/7/11 	 14:58:08 
 This file comes from Vt only measurement 	 1.000000E-1 
 Voltage Sensitivity 	 0.000000E+0 
 Sampling rate 	 200 
 Number of samples per channel 	 -1 
 No filter from Labview 	 	 	 
 	 
 ***End_of_Header*** 
 	 Time 	  Voltage 	 Filtered Voltage 	 
	0.000000	-0.151247
	0.005000	-0.173811
	0.010000	-0.086780
	0.015000	-0.060993
	0.020000	-0.151247
	0.025000	-0.170587
	0.030000	-0.090003
	0.035000	-0.060993
	0.040000	-0.154470
	0.045000	-0.173811
	0.050000	-0.083557
	0.055000	-0.057770
	0.060000	-0.148024
	0.065000	-0.170587
	0.070000	-0.080333
	0.075000	-0.064216
	0.080000	-0.151247
	0.085000	-0.170587
	0.090000	-0.080333
	0.095000	-0.060993
	0.100000	-0.148024
	0.105000	-0.167364
	0.110000	-0.083557
	0.115000	-0.057770
	0.120000	-0.148024
	0.125000	-0.170587
	0.130000	-0.080333
	0.135000	-0.057770
	0.140000	-0.144800
	0.145000	-0.170587
	0.150000	-0.080333
	0.155000	-0.057770
	0.160000	-0.151247
	0.165000	-0.167364
	0.170000	-0.077110
	0.175000	-0.060993
	0.180000	-0.148024
	0.185000	-0.167364
	0.190000	-0.077110
	0.195000	-0.054546
	0.200000	-0.144800
	0.205000	-0.164141
	0.210000	-0.077110
	0.215000	-0.054546
	0.220000	-0.141577
	0.225000	-0.157694
	0.230000	-0.077110
	0.235000	-0.051323
	0.240000	-0.148024
	0.245000	-0.164141
	0.250000	-0.077110
	0.255000	-0.054546
	0.260000	-0.144800
	0.265000	-0.167364
	0.270000	-0.077110
	0.275000	-0.051323
	0.280000	-0.141577
	0.285000	-0.167364
	0.290000	-0.070663
	0.295000	-0.054546
	0.300000	-0.144800
	0.305000	-0.164141
	0.310000	-0.077110
	0.315000	-0.054546
	0.320000	-0.148024
	0.325000	-0.170587
	0.330000	-0.077110
	0.335000	-0.054546
	0.340000	-0.148024
	0.345000	-0.160917
	0.350000	-0.083557
	0.355000	-0.057770
	0.360000	-0.151247
	0.365000	-0.167364
	0.370000	-0.073886
	0.375000	-0.057770
	0.380000	-0.151247
	0.385000	-0.167364
	0.390000	-0.073886
	0.395000	-0.060993
	0.400000	-0.151247
	0.405000	-0.164141
	0.410000	-0.070663
	0.415000	-0.051323
	0.420000	-0.148024
	0.425000	-0.160917
	0.430000	-0.073886
	0.435000	-0.048100
	0.440000	-0.144800
	0.445000	-0.157694
	0.450000	-0.073886
	0.455000	-0.057770
	0.460000	-0.141577
	0.465000	-0.164141
	0.470000	-0.067440
	0.475000	-0.057770
	0.480000	-0.148024
	0.485000	-0.160917
	0.490000	-0.073886
	0.495000	-0.057770
	0.500000	-0.151247
	0.505000	-0.160917
	0.510000	-0.073886
	0.515000	-0.057770
	0.520000	-0.148024
	0.525000	-0.164141
	0.530000	-0.073886
	0.535000	-0.060993
	0.540000	-0.151247
	0.545000	-0.157694
	0.550000	-0.067440
	0.555000	-0.057770
	0.560000	-0.151247
	0.565000	-0.164141
	0.570000	-0.067440
	0.575000	-0.057770
	0.580000	-0.144800
	0.585000	-0.167364
	0.590000	-0.070663
	0.595000	-0.057770
	0.600000	-0.144800
	0.605000	-0.160917
	0.610000	-0.073886
	0.615000	-0.054546
	0.620000	-0.151247
	0.625000	-0.160917
	0.630000	-0.070663
	0.635000	-0.054546
	0.640000	-0.144800
	0.645000	-0.160917
	0.650000	-0.067440
	0.655000	-0.054546
	0.660000	-0.144800
	0.665000	-0.160917
	0.670000	-0.067440
	0.675000	-0.054546
	0.680000	-0.148024
	0.685000	-0.160917
	0.690000	-0.060993
	0.695000	-0.054546
	0.700000	-0.144800
	0.705000	-0.154470
	0.710000	-0.064216
	0.715000	-0.051323
	0.720000	-0.138354
	0.725000	-0.157694
	0.730000	-0.060993
	0.735000	-0.054546
	0.740000	-0.144800
	0.745000	-0.160917
	0.750000	-0.064216
	0.755000	-0.057770
	0.760000	-0.148024
	0.765000	-0.157694
	0.770000	-0.067440
	0.775000	-0.060993
	0.780000	-0.151247
	0.785000	-0.154470
	0.790000	-0.060993
	0.795000	-0.054546
	0.800000	-0.144800
	0.805000	-0.164141
	0.810000	-0.064216
	0.815000	-0.051323
	0.820000	-0.141577
	0.825000	-0.154470
	0.830000	-0.060993
	0.835000	-0.044876
	0.840000	-0.144800
	0.845000	-0.154470
	0.850000	-0.060993
	0.855000	-0.057770
	0.860000	-0.141577
	0.865000	-0.148024
	0.870000	-0.060993
	0.875000	-0.057770
	0.880000	-0.138354
	0.885000	-0.151247
	0.890000	-0.060993
	0.895000	-0.051323
	0.900000	-0.135130
	0.905000	-0.144800
	0.910000	-0.044876
	0.915000	-0.031983
	0.920000	-0.122237
	0.925000	-0.122237
	0.930000	-0.025536
	0.935000	-0.015866
	0.940000	-0.099673
	0.945000	-0.102897
	0.950000	-0.006196
	0.955000	0.013144
	0.960000	-0.070663
	0.965000	-0.070663
	0.970000	0.019591
	0.975000	0.042154
	0.980000	-0.044876
	0.985000	-0.044876
	0.990000	0.055048
	0.995000	0.071165
	1.000000	-0.006196
	1.005000	-0.015866
	1.010000	0.087281
	1.015000	0.100175
	1.020000	0.013144
	1.025000	0.013144
	1.030000	0.106622
	1.035000	0.119515
	1.040000	0.035708
	1.045000	0.032484
	1.050000	0.122738
	1.055000	0.129185
	1.060000	0.042154
	1.065000	0.035708
	1.070000	0.122738
	1.075000	0.129185
	1.080000	0.048601
	1.085000	0.042154
	1.090000	0.132408
	1.095000	0.132408
	1.100000	0.042154
	1.105000	0.042154
	1.110000	0.122738
	1.115000	0.132408
	1.120000	0.045378
	1.125000	0.048601
	1.130000	0.129185
	1.135000	0.129185
	1.140000	0.042154
	1.145000	0.038931
	1.150000	0.125962
	1.155000	0.125962
	1.160000	0.038931
	1.165000	0.032484
	1.170000	0.122738
	1.175000	0.129185
	1.180000	0.038931
	1.185000	0.035708
	1.190000	0.122738
	1.195000	0.129185
	1.200000	0.035708
	1.205000	0.032484
	1.210000	0.116292
	1.215000	0.125962
	1.220000	0.038931
	1.225000	0.032484
	1.230000	0.119515
	1.235000	0.119515
	1.240000	0.035708
	1.245000	0.029261
	1.250000	0.109845
	1.255000	0.122738
	1.260000	0.032484
	1.265000	0.022814
	1.270000	0.109845
	1.275000	0.116292
	1.280000	0.026038
	1.285000	0.029261
	1.290000	0.116292
	1.295000	0.116292
	1.300000	0.022814
	1.305000	0.019591
	1.310000	0.103398
	1.315000	0.103398
	1.320000	0.013144
	1.325000	0.013144
	1.330000	0.103398
	1.335000	0.096952
	1.340000	0.009921
	1.345000	0.006697
	1.350000	0.090505
	1.355000	0.087281
	1.360000	0.000251
	1.365000	-0.006196
	1.370000	0.074388
	1.375000	0.074388
	1.380000	-0.022313
	1.385000	-0.025536
	1.390000	0.051825
	1.395000	0.051825
	1.400000	-0.048100
	1.405000	-0.054546
	1.410000	0.026038
	1.415000	0.019591
	1.420000	-0.073886
	1.425000	-0.086780
	1.430000	-0.009419
	1.435000	-0.009419
	1.440000	-0.099673
	1.445000	-0.115790
	1.450000	-0.035206
	1.455000	-0.041653
	1.460000	-0.135130
	1.465000	-0.138354
	1.470000	-0.060993
	1.475000	-0.064216
	1.480000	-0.157694
	1.485000	-0.160917
	1.490000	-0.070663
	1.495000	-0.073886
	1.500000	-0.167364
	1.505000	-0.170587
	1.510000	-0.080333
	1.515000	-0.080333
	1.520000	-0.167364
	1.525000	-0.167364
	1.530000	-0.073886
	1.535000	-0.080333
	1.540000	-0.167364
	1.545000	-0.164141
	1.550000	-0.073886
	1.555000	-0.080333
	1.560000	-0.167364
	1.565000	-0.164141
	1.570000	-0.070663
	1.575000	-0.067440
	1.580000	-0.160917
	1.585000	-0.154470
	1.590000	-0.060993
	1.595000	-0.064216
	1.600000	-0.157694
	1.605000	-0.154470
	1.610000	-0.057770
	1.615000	-0.060993
	1.620000	-0.148024
	1.625000	-0.148024
	1.630000	-0.057770
	1.635000	-0.054546
	1.640000	-0.141577
	1.645000	-0.141577
	1.650000	-0.054546
	1.655000	-0.051323
	1.660000	-0.144800
	1.665000	-0.135130
	1.670000	-0.048100
	1.675000	-0.051323
	1.680000	-0.138354
	1.685000	-0.128684
	1.690000	-0.038430
	1.695000	-0.041653
	1.700000	-0.135130
	1.705000	-0.122237
	1.710000	-0.038430
	1.715000	-0.038430
	1.720000	-0.138354
	1.725000	-0.122237
	1.730000	-0.031983
	1.735000	-0.035206
	1.740000	-0.125460
	1.745000	-0.122237
	1.750000	-0.031983
	1.755000	-0.038430
	1.760000	-0.125460
	1.765000	-0.115790
	1.770000	-0.025536
	1.775000	-0.031983
	1.780000	-0.125460
	1.785000	-0.119014
	1.790000	-0.031983
	1.795000	-0.038430
	1.800000	-0.128684
	1.805000	-0.119014
	1.810000	-0.035206
	1.815000	-0.035206
	1.820000	-0.135130
	1.825000	-0.119014
	1.830000	-0.028759
	1.835000	-0.044876
	1.840000	-0.131907
	1.845000	-0.119014
	1.850000	-0.025536
	1.855000	-0.031983
	1.860000	-0.128684
	1.865000	-0.119014
	1.870000	-0.025536
	1.875000	-0.035206
	1.880000	-0.125460
	1.885000	-0.115790
	1.890000	-0.025536
	1.895000	-0.031983
	1.900000	-0.122237
	1.905000	-0.109343
	1.910000	-0.019089
	1.915000	-0.031983
	1.920000	-0.122237
	1.925000	-0.112567
	1.930000	-0.022313
	1.935000	-0.038430
	1.940000	-0.119014
	1.945000	-0.109343
	1.950000	-0.022313
	1.955000	-0.025536
	1.960000	-0.115790
	1.965000	-0.106120
	1.970000	-0.012643
	1.975000	-0.019089
	1.980000	-0.122237
	1.985000	-0.102897
	1.990000	-0.012643
	1.995000	-0.025536
	2.000000	-0.115790
	2.005000	-0.109343
	2.010000	-0.012643
	2.015000	-0.022313
	2.020000	-0.119014
	2.025000	-0.099673
	2.030000	-0.012643
	2.035000	-0.022313
	2.040000	-0.112567
	2.045000	-0.102897
	2.050000	-0.012643
	2.055000	-0.022313
	2.060000	-0.109343
	2.065000	-0.099673
	2.070000	-0.009419
	2.075000	-0.019089
	2.080000	-0.112567
	2.085000	-0.096450
	2.090000	-0.009419
	2.095000	-0.012643
	2.100000	-0.112567
	2.105000	-0.099673
	2.110000	-0.009419
	2.115000	-0.022313
	2.120000	-0.109343
	2.125000	-0.102897
	2.130000	-0.006196
	2.135000	-0.015866
	2.140000	-0.109343
	2.145000	-0.106120
	2.150000	-0.006196
	2.155000	-0.015866
	2.160000	-0.106120
	2.165000	-0.090003
	2.170000	-0.002973
	2.175000	-0.009419
	2.180000	-0.109343
	2.185000	-0.090003
	2.190000	0.000251
	2.195000	-0.009419
	2.200000	-0.106120
	2.205000	-0.090003
	2.210000	0.000251
	2.215000	-0.012643
	2.220000	-0.099673
	2.225000	-0.086780
	2.230000	0.006697
	2.235000	-0.009419
	2.240000	-0.102897
	2.245000	-0.080333
	2.250000	0.009921
	2.255000	-0.002973
	2.260000	-0.096450
	2.265000	-0.077110
	2.270000	0.009921
	2.275000	-0.002973
	2.280000	-0.096450
	2.285000	-0.080333
	2.290000	0.013144
	2.295000	-0.006196
	2.300000	-0.093227
	2.305000	-0.077110
	2.310000	0.019591
	2.315000	-0.009419
	2.320000	-0.096450
	2.325000	-0.077110
	2.330000	0.013144
	2.335000	-0.002973
	2.340000	-0.099673
	2.345000	-0.077110
	2.350000	0.009921
	2.355000	-0.002973
	2.360000	-0.099673
	2.365000	-0.073886
	2.370000	0.016368
	2.375000	-0.002973
	2.380000	-0.093227
	2.385000	-0.073886
	2.390000	0.009921
	2.395000	-0.009419
	2.400000	-0.096450
	2.405000	-0.073886
	2.410000	0.013144
	2.415000	-0.009419
	2.420000	-0.090003
	2.425000	-0.073886
	2.430000	0.016368
	2.435000	-0.002973
	2.440000	-0.093227
	2.445000	-0.073886
	2.450000	0.016368
	2.455000	0.003474
	2.460000	-0.090003
	2.465000	-0.077110
	2.470000	0.019591
	2.475000	0.006697
	2.480000	-0.086780
	2.485000	-0.067440
	2.490000	0.019591
	2.495000	-0.002973
	2.500000	-0.083557
	2.505000	-0.067440
	2.510000	0.019591
	2.515000	0.000251
	2.520000	-0.083557
	2.525000	-0.060993
	2.530000	0.016368
	2.535000	0.000251
	2.540000	-0.090003
	2.545000	-0.064216
	2.550000	0.019591
	2.555000	-0.002973
	2.560000	-0.080333
	2.565000	-0.060993
	2.570000	0.022814
	2.575000	0.009921
	2.580000	-0.090003
	2.585000	-0.064216
	2.590000	0.026038
	2.595000	0.006697
	2.600000	-0.083557
	2.605000	-0.057770
	2.610000	0.026038
	2.615000	0.006697
	2.620000	-0.080333
	2.625000	-0.060993
	2.630000	0.029261
	2.635000	0.006697
	2.640000	-0.086780
	2.645000	-0.060993
	2.650000	0.029261
	2.655000	0.009921
	2.660000	-0.080333
	2.665000	-0.057770
	2.670000	0.032484
	2.675000	0.003474
	2.680000	-0.077110
	2.685000	-0.057770
	2.690000	0.038931
	2.695000	0.006697
	2.700000	-0.080333
	2.705000	-0.057770
	2.710000	0.032484
	2.715000	0.016368
	2.720000	-0.077110
	2.725000	-0.057770
	2.730000	0.029261
	2.735000	0.009921
	2.740000	-0.077110
	2.745000	-0.057770
	2.750000	0.035708
	2.755000	0.009921
	2.760000	-0.073886
	2.765000	-0.048100
	2.770000	0.042154
	2.775000	0.009921
	2.780000	-0.073886
	2.785000	-0.051323
	2.790000	0.032484
	2.795000	0.009921
	2.800000	-0.080333
	2.805000	-0.054546
	2.810000	0.035708
	2.815000	0.013144
	2.820000	-0.080333
	2.825000	-0.041653
	2.830000	0.032484
	2.835000	0.006697
	2.840000	-0.073886
	2.845000	-0.051323
	2.850000	0.038931
	2.855000	0.013144
	2.860000	-0.077110
	2.865000	-0.048100
	2.870000	0.038931
	2.875000	0.016368
	2.880000	-0.080333
	2.885000	-0.044876
	2.890000	0.042154
	2.895000	0.019591
	2.900000	-0.064216
	2.905000	-0.044876
	2.910000	0.038931
	2.915000	0.022814
	2.920000	-0.070663
	2.925000	-0.044876
	2.930000	0.045378
	2.935000	0.026038
	2.940000	-0.067440
	2.945000	-0.038430
	2.950000	0.048601
	2.955000	0.022814
	2.960000	-0.067440
	2.965000	-0.035206
	2.970000	0.051825
	2.975000	0.016368
	2.980000	-0.067440
	2.985000	-0.031983
	2.990000	0.055048
	2.995000	0.019591
	3.000000	-0.064216
	3.005000	-0.038430
	3.010000	0.051825
	3.015000	0.022814
	3.020000	-0.064216
	3.025000	-0.035206
	3.030000	0.051825
	3.035000	0.029261
	3.040000	-0.064216
	3.045000	-0.028759
	3.050000	0.055048
	3.055000	0.029261
	3.060000	-0.060993
	3.065000	-0.031983
	3.070000	0.051825
	3.075000	0.026038
	3.080000	-0.054546
	3.085000	-0.028759
	3.090000	0.051825
	3.095000	0.026038
	3.100000	-0.060993
	3.105000	-0.031983
	3.110000	0.055048
	3.115000	0.029261
	3.120000	-0.057770
	3.125000	-0.025536
	3.130000	0.058271
	3.135000	0.026038
	3.140000	-0.057770
	3.145000	-0.028759
	3.150000	0.061495
	3.155000	0.029261
	3.160000	-0.057770
	3.165000	-0.028759
	3.170000	0.064718
	3.175000	0.029261
	3.180000	-0.051323
	3.185000	-0.019089
	3.190000	0.058271
	3.195000	0.029261
	3.200000	-0.060993
	3.205000	-0.022313
	3.210000	0.064718
	3.215000	0.032484
	3.220000	-0.051323
	3.225000	-0.025536
	3.230000	0.064718
	3.235000	0.035708
	3.240000	-0.051323
	3.245000	-0.022313
	3.250000	0.067941
	3.255000	0.035708
	3.260000	-0.051323
	3.265000	-0.015866
	3.270000	0.067941
	3.275000	0.058271
	3.280000	-0.025536
	3.285000	0.022814
	3.290000	0.113068
	3.295000	0.084058
	3.300000	0.009921
	3.305000	0.058271
	3.310000	0.145302
	3.315000	0.122738
	3.320000	0.051825
	3.325000	0.087281
	3.330000	0.180759
	3.335000	0.154972
	3.340000	0.077611
	3.345000	0.122738
	3.350000	0.206546
	3.355000	0.180759
	3.360000	0.113068
	3.365000	0.148525
	3.370000	0.229109
	3.375000	0.203322
	3.380000	0.125962
	3.385000	0.161419
	3.390000	0.245226
	3.395000	0.219439
	3.400000	0.142079
	3.405000	0.171089
	3.410000	0.251673
	3.415000	0.222663
	3.420000	0.138855
	3.425000	0.174312
	3.430000	0.248449
	3.435000	0.219439
	3.440000	0.138855
	3.445000	0.171089
	3.450000	0.258119
	3.455000	0.222663
	3.460000	0.142079
	3.465000	0.174312
	3.470000	0.258119
	3.475000	0.222663
	3.480000	0.142079
	3.485000	0.171089
	3.490000	0.258119
	3.495000	0.219439
	3.500000	0.142079
	3.505000	0.171089
	3.510000	0.254896
	3.515000	0.222663
	3.520000	0.138855
	3.525000	0.171089
	3.530000	0.248449
	3.535000	0.219439
	3.540000	0.135632
	3.545000	0.171089
	3.550000	0.245226
	3.555000	0.209769
	3.560000	0.129185
	3.565000	0.171089
	3.570000	0.251673
	3.575000	0.209769
	3.580000	0.129185
	3.585000	0.164642
	3.590000	0.238779
	3.595000	0.212992
	3.600000	0.129185
	3.605000	0.158195
	3.610000	0.232333
	3.615000	0.196876
	3.620000	0.122738
	3.625000	0.151749
	3.630000	0.225886
	3.635000	0.193652
	3.640000	0.113068
	3.645000	0.148525
	3.650000	0.225886
	3.655000	0.183982
	3.660000	0.100175
	3.665000	0.135632
	3.670000	0.212992
	3.675000	0.171089
	3.680000	0.084058
	3.685000	0.113068
	3.690000	0.183982
	3.695000	0.142079
	3.700000	0.051825
	3.705000	0.087281
	3.710000	0.151749
	3.715000	0.109845
	3.720000	0.029261
	3.725000	0.051825
	3.730000	0.119515
	3.735000	0.077611
	3.740000	-0.009419
	3.745000	0.009921
	3.750000	0.096952
	3.755000	0.048601
	3.760000	-0.041653
	3.765000	-0.006196
	3.770000	0.061495
	3.775000	0.019591
	3.780000	-0.067440
	3.785000	-0.025536
	3.790000	0.045378
	3.795000	0.003474
	3.800000	-0.077110
	3.805000	-0.044876
	3.810000	0.038931
	3.815000	0.000251
	3.820000	-0.086780
	3.825000	-0.054546
	3.830000	0.032484
	3.835000	-0.012643
	3.840000	-0.093227
	3.845000	-0.054546
	3.850000	0.026038
	3.855000	-0.019089
	3.860000	-0.096450
	3.865000	-0.051323
	3.870000	0.026038
	3.875000	-0.012643
	3.880000	-0.093227
	3.885000	-0.054546
	3.890000	0.026038
	3.895000	-0.012643
	3.900000	-0.093227
	3.905000	-0.044876
	3.910000	0.026038
	3.915000	-0.012643
	3.920000	-0.090003
	3.925000	-0.051323
	3.930000	0.029261
	3.935000	-0.009419
	3.940000	-0.083557
	3.945000	-0.041653
	3.950000	0.026038
	3.955000	-0.012643
	3.960000	-0.080333
	3.965000	-0.044876
	3.970000	0.035708
	3.975000	-0.006196
	3.980000	-0.086780
	3.985000	-0.048100
	3.990000	0.035708
	3.995000	-0.002973
	4.000000	-0.080333
	4.005000	-0.038430
	4.010000	0.035708
	4.015000	-0.002973
	4.020000	-0.083557
	4.025000	-0.038430
	4.030000	0.045378
	4.035000	-0.002973
	4.040000	-0.077110
	4.045000	-0.031983
	4.050000	0.042154
	4.055000	0.000251
	4.060000	-0.073886
	4.065000	-0.035206
	4.070000	0.045378
	4.075000	0.006697
	4.080000	-0.077110
	4.085000	-0.035206
	4.090000	0.042154
	4.095000	0.003474
	4.100000	-0.080333
	4.105000	-0.028759
	4.110000	0.042154
	4.115000	0.000251
	4.120000	-0.073886
	4.125000	-0.025536
	4.130000	0.055048
	4.135000	0.003474
	4.140000	-0.073886
	4.145000	-0.031983
	4.150000	0.045378
	4.155000	0.009921
	4.160000	-0.070663
	4.165000	-0.031983
	4.170000	0.045378
	4.175000	0.009921
	4.180000	-0.070663
	4.185000	-0.025536
	4.190000	0.051825
	4.195000	0.013144
	4.200000	-0.073886
	4.205000	-0.025536
	4.210000	0.051825
	4.215000	0.009921
	4.220000	-0.070663
	4.225000	-0.028759
	4.230000	0.055048
	4.235000	0.003474
	4.240000	-0.067440
	4.245000	-0.019089
	4.250000	0.055048
	4.255000	0.013144
	4.260000	-0.064216
	4.265000	-0.022313
	4.270000	0.061495
	4.275000	0.013144
	4.280000	-0.057770
	4.285000	-0.015866
	4.290000	0.051825
	4.295000	0.019591
	4.300000	-0.064216
	4.305000	-0.012643
	4.310000	0.055048
	4.315000	0.013144
	4.320000	-0.064216
	4.325000	-0.012643
	4.330000	0.061495
	4.335000	0.009921
	4.340000	-0.060993
	4.345000	-0.015866
	4.350000	0.067941
	4.355000	0.013144
	4.360000	-0.057770
	4.365000	-0.015866
	4.370000	0.064718
	4.375000	0.019591
	4.380000	-0.064216
	4.385000	-0.006196
	4.390000	0.067941
	4.395000	0.016368
	4.400000	-0.064216
	4.405000	-0.006196
	4.410000	0.071165
	4.415000	0.016368
	4.420000	-0.060993
	4.425000	-0.009419
	4.430000	0.071165
	4.435000	0.019591
	4.440000	-0.051323
	4.445000	-0.006196
	4.450000	0.067941
	4.455000	0.022814
	4.460000	-0.054546
	4.465000	-0.002973
	4.470000	0.071165
	4.475000	0.019591
	4.480000	-0.054546
	4.485000	-0.002973
	4.490000	0.077611
	4.495000	0.026038
	4.500000	-0.048100
	4.505000	0.003474
	4.510000	0.071165
	4.515000	0.026038
	4.520000	-0.054546
	4.525000	-0.006196
	4.530000	0.077611
	4.535000	0.022814
	4.540000	-0.054546
	4.545000	-0.002973
	4.550000	0.077611
	4.555000	0.026038
	4.560000	-0.051323
	4.565000	0.003474
	4.570000	0.077611
	4.575000	0.022814
	4.580000	-0.051323
	4.585000	0.000251
	4.590000	0.074388
	4.595000	0.026038
	4.600000	-0.051323
	4.605000	0.003474
	4.610000	0.077611
	4.615000	0.026038
	4.620000	-0.054546
	4.625000	0.000251
	4.630000	0.071165
	4.635000	0.026038
	4.640000	-0.054546
	4.645000	-0.002973
	4.650000	0.080835
	4.655000	0.029261
	4.660000	-0.044876
	4.665000	0.000251
	4.670000	0.074388
	4.675000	0.022814
	4.680000	-0.044876
	4.685000	0.006697
	4.690000	0.071165
	4.695000	0.026038
	4.700000	-0.048100
	4.705000	0.003474
	4.710000	0.080835
	4.715000	0.029261
	4.720000	-0.048100
	4.725000	0.006697
	4.730000	0.080835
	4.735000	0.029261
	4.740000	-0.051323
	4.745000	0.009921
	4.750000	0.084058
	4.755000	0.035708
	4.760000	-0.041653
	4.765000	0.006697
	4.770000	0.084058
	4.775000	0.029261
	4.780000	-0.044876
	4.785000	0.009921
	4.790000	0.084058
	4.795000	0.029261
	4.800000	-0.044876
	4.805000	0.009921
	4.810000	0.077611
	4.815000	0.026038
	4.820000	-0.044876
	4.825000	0.013144
	4.830000	0.080835
	4.835000	0.035708
	4.840000	-0.041653
	4.845000	0.006697
	4.850000	0.090505
	4.855000	0.029261
	4.860000	-0.038430
	4.865000	0.013144
	4.870000	0.080835
	4.875000	0.032484
	4.880000	-0.044876
	4.885000	0.013144
	4.890000	0.090505
	4.895000	0.032484
	4.900000	-0.038430
	4.905000	0.016368
	4.910000	0.090505
	4.915000	0.032484
	4.920000	-0.038430
	4.925000	0.016368
	4.930000	0.090505
	4.935000	0.038931
	4.940000	-0.038430
	4.945000	0.019591
	4.950000	0.090505
	4.955000	0.029261
	4.960000	-0.038430
	4.965000	0.016368
	4.970000	0.090505
	4.975000	0.042154
	4.980000	-0.035206
	4.985000	0.016368
	4.990000	0.087281
	4.995000	0.035708
	5.000000	-0.031983
	5.005000	0.016368
	5.010000	0.093728
	5.015000	0.035708
	5.020000	-0.038430
	5.025000	0.022814
	5.030000	0.090505
	5.035000	0.032484
	5.040000	-0.038430
	5.045000	0.022814
	5.050000	0.096952
	5.055000	0.038931
	5.060000	-0.035206
	5.065000	0.026038
	5.070000	0.093728
	5.075000	0.038931
	5.080000	-0.038430
	5.085000	0.029261
	5.090000	0.096952
	5.095000	0.038931
	5.100000	-0.031983
	5.105000	0.029261
	5.110000	0.100175
	5.115000	0.035708
	5.120000	-0.038430
	5.125000	0.029261
	5.130000	0.096952
	5.135000	0.038931
	5.140000	-0.038430
	5.145000	0.026038
	5.150000	0.096952
	5.155000	0.038931
	5.160000	-0.035206
	5.165000	0.026038
	5.170000	0.096952
	5.175000	0.035708
	5.180000	-0.028759
	5.185000	0.026038
	5.190000	0.096952
	5.195000	0.042154
	5.200000	-0.035206
	5.205000	0.029261
	5.210000	0.100175
	5.215000	0.042154
	5.220000	-0.031983
	5.225000	0.032484
	5.230000	0.090505
	5.235000	0.048601
	5.240000	-0.025536
	5.245000	0.029261
	5.250000	0.103398
	5.255000	0.042154
	5.260000	-0.028759
	5.265000	0.032484
	5.270000	0.100175
	5.275000	0.042154
	5.280000	-0.031983
	5.285000	0.026038
	5.290000	0.096952
	5.295000	0.051825
	5.300000	-0.028759
	5.305000	0.035708
	5.310000	0.103398
	5.315000	0.038931
	5.320000	-0.025536
	5.325000	0.035708
	5.330000	0.103398
	5.335000	0.042154
	5.340000	-0.031983
	5.345000	0.032484
	5.350000	0.096952
	5.355000	0.048601
	5.360000	-0.028759
	5.365000	0.035708
	5.370000	0.106622
	5.375000	0.042154
	5.380000	-0.025536
	5.385000	0.035708
	5.390000	0.106622
	5.395000	0.045378
	5.400000	-0.022313
	5.405000	0.035708
	5.410000	0.106622
	5.415000	0.042154
	5.420000	-0.025536
	5.425000	0.042154
	5.430000	0.106622
	5.435000	0.045378
	5.440000	-0.019089
	5.445000	0.038931
	5.450000	0.109845
	5.455000	0.048601
	5.460000	-0.022313
	5.465000	0.045378
	5.470000	0.106622
	5.475000	0.048601
	5.480000	-0.022313
	5.485000	0.042154
	5.490000	0.116292
	5.495000	0.045378
	5.500000	-0.022313
	5.505000	0.045378
	5.510000	0.109845
	5.515000	0.048601
	5.520000	-0.019089
	5.525000	0.042154
	5.530000	0.113068
	5.535000	0.045378
	5.540000	-0.019089
	5.545000	0.042154
	5.550000	0.113068
	5.555000	0.051825
	5.560000	-0.015866
	5.565000	0.051825
	5.570000	0.113068
	5.575000	0.048601
	5.580000	-0.019089
	5.585000	0.048601
	5.590000	0.119515
	5.595000	0.055048
	5.600000	-0.015866
	5.605000	0.051825
	5.610000	0.122738
	5.615000	0.061495
	5.620000	-0.009419
	5.625000	0.055048
	5.630000	0.119515
	5.635000	0.051825
	5.640000	-0.006196
	5.645000	0.055048
	5.650000	0.116292
	5.655000	0.064718
	5.660000	-0.006196
	5.665000	0.055048
	5.670000	0.119515
	5.675000	0.058271
	5.680000	-0.006196
	5.685000	0.058271
	5.690000	0.122738
	5.695000	0.055048
	5.700000	-0.006196
	5.705000	0.055048
	5.710000	0.125962
	5.715000	0.055048
	5.720000	-0.012643
	5.725000	0.058271
	5.730000	0.122738
	5.735000	0.061495
	5.740000	-0.002973
	5.745000	0.064718
	5.750000	0.125962
	5.755000	0.071165
	5.760000	0.003474
	5.765000	0.071165
	5.770000	0.135632
	5.775000	0.080835
	5.780000	0.009921
	5.785000	0.087281
	5.790000	0.154972
	5.795000	0.093728
	5.800000	0.038931
	5.805000	0.103398
	5.810000	0.183982
	5.815000	0.113068
	5.820000	0.055048
	5.825000	0.125962
	5.830000	0.193652
	5.835000	0.142079
	5.840000	0.084058
	5.845000	0.145302
	5.850000	0.216216
	5.855000	0.164642
	5.860000	0.106622
	5.865000	0.171089
	5.870000	0.232333
	5.875000	0.180759
	5.880000	0.119515
	5.885000	0.190429
	5.890000	0.258119
	5.895000	0.193652
	5.900000	0.142079
	5.905000	0.209769
	5.910000	0.277460
	5.915000	0.206546
	5.920000	0.161419
	5.925000	0.219439
	5.930000	0.283906
	5.935000	0.222663
	5.940000	0.161419
	5.945000	0.229109
	5.950000	0.290353
	5.955000	0.219439
	5.960000	0.164642
	5.965000	0.225886
	5.970000	0.290353
	5.975000	0.219439
	5.980000	0.161419
	5.985000	0.222663
	5.990000	0.287130
	5.995000	0.222663
	6.000000	0.158195
	6.005000	0.216216
	6.010000	0.280683
	6.015000	0.216216
	6.020000	0.158195
	6.025000	0.216216
	6.030000	0.271013
	6.035000	0.203322
	6.040000	0.148525
	6.045000	0.206546
	6.050000	0.264566
	6.055000	0.200099
	6.060000	0.138855
	6.065000	0.206546
	6.070000	0.267790
	6.075000	0.200099
	6.080000	0.142079
	6.085000	0.203322
	6.090000	0.254896
	6.095000	0.193652
	6.100000	0.129185
	6.105000	0.200099
	6.110000	0.254896
	6.115000	0.187206
	6.120000	0.125962
	6.125000	0.196876
	6.130000	0.245226
	6.135000	0.187206
	6.140000	0.125962
	6.145000	0.183982
	6.150000	0.242003
	6.155000	0.174312
	6.160000	0.116292
	6.165000	0.183982
	6.170000	0.235556
	6.175000	0.161419
	6.180000	0.100175
	6.185000	0.161419
	6.190000	0.219439
	6.195000	0.145302
	6.200000	0.077611
	6.205000	0.135632
	6.210000	0.187206
	6.215000	0.116292
	6.220000	0.051825
	6.225000	0.116292
	6.230000	0.161419
	6.235000	0.093728
	6.240000	0.038931
	6.245000	0.093728
	6.250000	0.145302
	6.255000	0.084058
	6.260000	0.016368
	6.265000	0.074388
	6.270000	0.135632
	6.275000	0.064718
	6.280000	0.003474
	6.285000	0.071165
	6.290000	0.125962
	6.295000	0.055048
	6.300000	-0.006196
	6.305000	0.061495
	6.310000	0.119515
	6.315000	0.051825
	6.320000	-0.009419
	6.325000	0.061495
	6.330000	0.116292
	6.335000	0.048601
	6.340000	-0.009419
	6.345000	0.058271
	6.350000	0.109845
	6.355000	0.051825
	6.360000	-0.006196
	6.365000	0.055048
	6.370000	0.109845
	6.375000	0.048601
	6.380000	-0.012643
	6.385000	0.051825
	6.390000	0.106622
	6.395000	0.042154
	6.400000	-0.015866
	6.405000	0.051825
	6.410000	0.113068
	6.415000	0.045378
	6.420000	-0.022313
	6.425000	0.051825
	6.430000	0.113068
	6.435000	0.038931
	6.440000	-0.022313
	6.445000	0.051825
	6.450000	0.109845
	6.455000	0.038931
	6.460000	-0.019089
	6.465000	0.055048
	6.470000	0.109845
	6.475000	0.035708
	6.480000	-0.022313
	6.485000	0.055048
	6.490000	0.116292
	6.495000	0.038931
	6.500000	-0.019089
	6.505000	0.055048
	6.510000	0.103398
	6.515000	0.035708
	6.520000	-0.012643
	6.525000	0.048601
	6.530000	0.109845
	6.535000	0.038931
	6.540000	-0.019089
	6.545000	0.055048
	6.550000	0.113068
	6.555000	0.035708
	6.560000	-0.015866
	6.565000	0.051825
	6.570000	0.103398
	6.575000	0.035708
	6.580000	-0.015866
	6.585000	0.055048
	6.590000	0.113068
	6.595000	0.038931
	6.600000	-0.019089
	6.605000	0.058271
	6.610000	0.106622
	6.615000	0.042154
	6.620000	-0.019089
	6.625000	0.051825
	6.630000	0.106622
	6.635000	0.038931
	6.640000	-0.019089
	6.645000	0.055048
	6.650000	0.109845
	6.655000	0.038931
	6.660000	-0.015866
	6.665000	0.058271
	6.670000	0.113068
	6.675000	0.042154
	6.680000	-0.015866
	6.685000	0.048601
	6.690000	0.109845
	6.695000	0.038931
	6.700000	-0.019089
	6.705000	0.061495
	6.710000	0.109845
	6.715000	0.038931
	6.720000	-0.019089
	6.725000	0.055048
	6.730000	0.113068
	6.735000	0.042154
	6.740000	-0.012643
	6.745000	0.055048
	6.750000	0.109845
	6.755000	0.038931
	6.760000	-0.009419
	6.765000	0.061495
	6.770000	0.116292
	6.775000	0.038931
	6.780000	-0.019089
	6.785000	0.058271
	6.790000	0.116292
	6.795000	0.045378
	6.800000	-0.012643
	6.805000	0.058271
	6.810000	0.113068
	6.815000	0.038931
	6.820000	-0.006196
	6.825000	0.058271
	6.830000	0.113068
	6.835000	0.042154
	6.840000	-0.012643
	6.845000	0.064718
	6.850000	0.113068
	6.855000	0.045378
	6.860000	-0.012643
	6.865000	0.061495
	6.870000	0.109845
	6.875000	0.038931
	6.880000	-0.009419
	6.885000	0.061495
	6.890000	0.119515
	6.895000	0.042154
	6.900000	-0.006196
	6.905000	0.064718
	6.910000	0.113068
	6.915000	0.048601
	6.920000	-0.015866
	6.925000	0.058271
	6.930000	0.109845
	6.935000	0.038931
	6.940000	-0.012643
	6.945000	0.067941
	6.950000	0.113068
	6.955000	0.038931
	6.960000	-0.009419
	6.965000	0.071165
	6.970000	0.113068
	6.975000	0.045378
	6.980000	-0.009419
	6.985000	0.067941
	6.990000	0.116292
	6.995000	0.042154
	7.000000	-0.009419
	7.005000	0.064718
	7.010000	0.119515
	7.015000	0.042154
	7.020000	-0.012643
	7.025000	0.074388
	7.030000	0.116292
	7.035000	0.045378
	7.040000	-0.002973
	7.045000	0.071165
	7.050000	0.125962
	7.055000	0.048601
	7.060000	-0.002973
	7.065000	0.067941
	7.070000	0.125962
	7.075000	0.048601
	7.080000	-0.002973
	7.085000	0.064718
	7.090000	0.119515
	7.095000	0.035708
	7.100000	-0.006196
	7.105000	0.067941
	7.110000	0.113068
	7.115000	0.038931
	7.120000	-0.009419
	7.125000	0.064718
	7.130000	0.113068
	7.135000	0.038931
	7.140000	-0.009419
	7.145000	0.071165
	7.150000	0.113068
	7.155000	0.042154
	7.160000	-0.006196
	7.165000	0.071165
	7.170000	0.119515
	7.175000	0.045378
	7.180000	-0.006196
	7.185000	0.074388
	7.190000	0.122738
	7.195000	0.042154
	7.200000	-0.006196
	7.205000	0.074388
	7.210000	0.122738
	7.215000	0.045378
	7.220000	-0.006196
	7.225000	0.071165
	7.230000	0.125962
	7.235000	0.051825
	7.240000	-0.002973
	7.245000	0.071165
	7.250000	0.122738
	7.255000	0.045378
	7.260000	0.000251
	7.265000	0.077611
	7.270000	0.125962
	7.275000	0.048601
	7.280000	0.000251
	7.285000	0.077611
	7.290000	0.129185
	7.295000	0.048601
	7.300000	0.000251
	7.305000	0.077611
	7.310000	0.129185
	7.315000	0.051825
	7.320000	0.003474
	7.325000	0.084058
	7.330000	0.129185
	7.335000	0.051825
	7.340000	0.003474
	7.345000	0.087281
	7.350000	0.129185
	7.355000	0.058271
	7.360000	0.006697
	7.365000	0.087281
	7.370000	0.132408
	7.375000	0.051825
	7.380000	0.003474
	7.385000	0.084058
	7.390000	0.129185
	7.395000	0.055048
	7.400000	0.009921
	7.405000	0.087281
	7.410000	0.138855
	7.415000	0.055048
	7.420000	0.006697
	7.425000	0.090505
	7.430000	0.135632
	7.435000	0.055048
	7.440000	0.009921
	7.445000	0.087281
	7.450000	0.138855
	7.455000	0.058271
	7.460000	0.009921
	7.465000	0.093728
	7.470000	0.132408
	7.475000	0.058271
	7.480000	0.009921
	7.485000	0.090505
	7.490000	0.135632
	7.495000	0.048601
	7.500000	0.006697
	7.505000	0.090505
	7.510000	0.135632
	7.515000	0.064718
	7.520000	0.013144
	7.525000	0.087281
	7.530000	0.132408
	7.535000	0.058271
	7.540000	0.009921
	7.545000	0.090505
	7.550000	0.138855
	7.555000	0.055048
	7.560000	0.009921
	7.565000	0.084058
	7.570000	0.129185
	7.575000	0.045378
	7.580000	0.006697
	7.585000	0.080835
	7.590000	0.113068
	7.595000	0.045378
	7.600000	0.000251
	7.605000	0.080835
	7.610000	0.129185
	7.615000	0.045378
	7.620000	0.000251
	7.625000	0.084058
	7.630000	0.122738
	7.635000	0.042154
	7.640000	0.006697
	7.645000	0.084058
	7.650000	0.125962
	7.655000	0.045378
	7.660000	0.003474
	7.665000	0.080835
	7.670000	0.132408
	7.675000	0.048601
	7.680000	0.009921
	7.685000	0.090505
	7.690000	0.125962
	7.695000	0.051825
	7.700000	0.013144
	7.705000	0.090505
	7.710000	0.129185
	7.715000	0.048601
	7.720000	0.006697
	7.725000	0.087281
	7.730000	0.132408
	7.735000	0.051825
	7.740000	0.009921
	7.745000	0.090505
	7.750000	0.132408
	7.755000	0.051825
	7.760000	0.009921
	7.765000	0.084058
	7.770000	0.132408
	7.775000	0.055048
	7.780000	0.006697
	7.785000	0.090505
	7.790000	0.142079
	7.795000	0.051825
	7.800000	0.009921
	7.805000	0.087281
	7.810000	0.132408
	7.815000	0.051825
	7.820000	0.013144
	7.825000	0.090505
	7.830000	0.129185
	7.835000	0.051825
	7.840000	0.006697
	7.845000	0.093728
	7.850000	0.129185
	7.855000	0.058271
	7.860000	0.006697
	7.865000	0.090505
	7.870000	0.132408
	7.875000	0.051825
	7.880000	0.016368
	7.885000	0.090505
	7.890000	0.142079
	7.895000	0.055048
	7.900000	0.019591
	7.905000	0.096952
	7.910000	0.135632
	7.915000	0.061495
	7.920000	0.019591
	7.925000	0.096952
	7.930000	0.135632
	7.935000	0.055048
	7.940000	0.022814
	7.945000	0.100175
	7.950000	0.142079
	7.955000	0.055048
	7.960000	0.022814
	7.965000	0.096952
	7.970000	0.138855
	7.975000	0.058271
	7.980000	0.016368
	7.985000	0.096952
	7.990000	0.138855
	7.995000	0.058271
	8.000000	0.013144
	8.005000	0.100175
	8.010000	0.142079
	8.015000	0.051825
	8.020000	0.009921
	8.025000	0.096952
	8.030000	0.132408
	8.035000	0.051825
	8.040000	0.013144
	8.045000	0.096952
	8.050000	0.132408
	8.055000	0.048601
	8.060000	0.013144
	8.065000	0.096952
	8.070000	0.135632
	8.075000	0.045378
	8.080000	0.013144
	8.085000	0.100175
	8.090000	0.129185
	8.095000	0.051825
	8.100000	0.009921
	8.105000	0.093728
	8.110000	0.132408
	8.115000	0.048601
	8.120000	0.013144
	8.125000	0.090505
	8.130000	0.125962
	8.135000	0.051825
	8.140000	0.009921
	8.145000	0.096952
	8.150000	0.135632
	8.155000	0.048601
	8.160000	0.013144
	8.165000	0.096952
	8.170000	0.132408
	8.175000	0.055048
	8.180000	0.013144
	8.185000	0.096952
	8.190000	0.142079
	8.195000	0.051825
	8.200000	0.016368
	8.205000	0.096952
	8.210000	0.135632
	8.215000	0.051825
	8.220000	0.019591
	8.225000	0.103398
	8.230000	0.135632
	8.235000	0.058271
	8.240000	0.013144
	8.245000	0.106622
	8.250000	0.142079
	8.255000	0.055048
	8.260000	0.019591
	8.265000	0.103398
	8.270000	0.145302
	8.275000	0.058271
	8.280000	0.026038
	8.285000	0.113068
	8.290000	0.145302
	8.295000	0.071165
	8.300000	0.038931
	8.305000	0.129185
	8.310000	0.161419
	8.315000	0.077611
	8.320000	0.051825
	8.325000	0.142079
	8.330000	0.183982
	8.335000	0.106622
	8.340000	0.077611
	8.345000	0.171089
	8.350000	0.206546
	8.355000	0.132408
	8.360000	0.109845
	8.365000	0.200099
	8.370000	0.242003
	8.375000	0.158195
	8.380000	0.129185
	8.385000	0.216216
	8.390000	0.258119
	8.395000	0.177536
	8.400000	0.148525
	8.405000	0.235556
	8.410000	0.267790
	8.415000	0.193652
	8.420000	0.161419
	8.425000	0.251673
	8.430000	0.280683
	8.435000	0.206546
	8.440000	0.177536
	8.445000	0.261343
	8.450000	0.300023
	8.455000	0.216216
	8.460000	0.190429
	8.465000	0.267790
	8.470000	0.306470
	8.475000	0.229109
	8.480000	0.196876
	8.485000	0.287130
	8.490000	0.319363
	8.495000	0.232333
	8.500000	0.209769
	8.505000	0.287130
	8.510000	0.319363
	8.515000	0.232333
	8.520000	0.200099
	8.525000	0.283906
	8.530000	0.316140
	8.535000	0.235556
	8.540000	0.206546
	8.545000	0.280683
	8.550000	0.309693
	8.555000	0.229109
	8.560000	0.193652
	8.565000	0.277460
	8.570000	0.306470
	8.575000	0.232333
	8.580000	0.196876
	8.585000	0.274236
	8.590000	0.303247
	8.595000	0.219439
	8.600000	0.196876
	8.605000	0.274236
	8.610000	0.303247
	8.615000	0.219439
	8.620000	0.187206
	8.625000	0.271013
	8.630000	0.293576
	8.635000	0.216216
	8.640000	0.183982
	8.645000	0.261343
	8.650000	0.296800
	8.655000	0.209769
	8.660000	0.177536
	8.665000	0.258119
	8.670000	0.283906
	8.675000	0.203322
	8.680000	0.174312
	8.685000	0.251673
	8.690000	0.277460
	8.695000	0.193652
	8.700000	0.164642
	8.705000	0.235556
	8.710000	0.277460
	8.715000	0.187206
	8.720000	0.158195
	8.725000	0.235556
	8.730000	0.258119
	8.735000	0.167865
	8.740000	0.138855
	8.745000	0.212992
	8.750000	0.245226
	8.755000	0.154972
	8.760000	0.129185
	8.765000	0.203322
	8.770000	0.222663
	8.775000	0.129185
	8.780000	0.100175
	8.785000	0.180759
	8.790000	0.203322
	8.795000	0.119515
	8.800000	0.080835
	8.805000	0.158195
	8.810000	0.183982
	8.815000	0.100175
	8.820000	0.071165
	8.825000	0.151749
	8.830000	0.180759
	8.835000	0.093728
	8.840000	0.058271
	8.845000	0.138855
	8.850000	0.164642
	8.855000	0.080835
	8.860000	0.058271
	8.865000	0.132408
	8.870000	0.154972
	8.875000	0.071165
	8.880000	0.042154
	8.885000	0.119515
	8.890000	0.148525
	8.895000	0.064718
	8.900000	0.032484
	8.905000	0.109845
	8.910000	0.135632
	8.915000	0.051825
	8.920000	0.019591
	8.925000	0.103398
	8.930000	0.122738
	8.935000	0.038931
	8.940000	0.006697
	8.945000	0.093728
	8.950000	0.113068
	8.955000	0.026038
	8.960000	0.000251
	8.965000	0.080835
	8.970000	0.109845
	8.975000	0.026038
	8.980000	0.003474
	8.985000	0.084058
	8.990000	0.113068
	8.995000	0.022814
	9.000000	-0.006196
	9.005000	0.084058
	9.010000	0.100175
	9.015000	0.019591
	9.020000	-0.009419
	9.025000	0.077611
	9.030000	0.109845
	9.035000	0.019591
	9.040000	-0.002973
	9.045000	0.084058
	9.050000	0.113068
	9.055000	0.026038
	9.060000	0.003474
	9.065000	0.084058
	9.070000	0.113068
	9.075000	0.026038
	9.080000	0.000251
	9.085000	0.084058
	9.090000	0.116292
	9.095000	0.026038
	9.100000	0.003474
	9.105000	0.084058
	9.110000	0.113068
	9.115000	0.032484
	9.120000	0.013144
	9.125000	0.093728
	9.130000	0.116292
	9.135000	0.032484
	9.140000	0.009921
	9.145000	0.096952
	9.150000	0.116292
	9.155000	0.035708
	9.160000	0.006697
	9.165000	0.100175
	9.170000	0.119515
	9.175000	0.032484
	9.180000	0.013144
	9.185000	0.087281
	9.190000	0.119515
	9.195000	0.029261
	9.200000	0.009921
	9.205000	0.096952
	9.210000	0.116292
	9.215000	0.035708
	9.220000	0.016368
	9.225000	0.096952
	9.230000	0.116292
	9.235000	0.032484
	9.240000	0.009921
	9.245000	0.096952
	9.250000	0.116292
	9.255000	0.042154
	9.260000	0.009921
	9.265000	0.100175
	9.270000	0.122738
	9.275000	0.038931
	9.280000	0.016368
	9.285000	0.100175
	9.290000	0.119515
	9.295000	0.032484
	9.300000	0.009921
	9.305000	0.100175
	9.310000	0.122738
	9.315000	0.035708
	9.320000	0.009921
	9.325000	0.093728
	9.330000	0.122738
	9.335000	0.032484
	9.340000	0.013144
	9.345000	0.096952
	9.350000	0.122738
	9.355000	0.035708
	9.360000	0.022814
	9.365000	0.096952
	9.370000	0.122738
	9.375000	0.035708
	9.380000	0.016368
	9.385000	0.103398
	9.390000	0.125962
	9.395000	0.035708
	9.400000	0.009921
	9.405000	0.096952
	9.410000	0.129185
	9.415000	0.038931
	9.420000	0.019591
	9.425000	0.106622
	9.430000	0.132408
	9.435000	0.035708
	9.440000	0.016368
	9.445000	0.103398
	9.450000	0.125962
	9.455000	0.035708
	9.460000	0.019591
	9.465000	0.113068
	9.470000	0.129185
	9.475000	0.038931
	9.480000	0.013144
	9.485000	0.100175
	9.490000	0.129185
	9.495000	0.035708
	9.500000	0.016368
	9.505000	0.109845
	9.510000	0.125962
	9.515000	0.045378
	9.520000	0.019591
	9.525000	0.109845
	9.530000	0.129185
	9.535000	0.038931
	9.540000	0.019591
	9.545000	0.109845
	9.550000	0.125962
	9.555000	0.042154
	9.560000	0.016368
	9.565000	0.106622
	9.570000	0.129185
	9.575000	0.042154
	9.580000	0.026038
	9.585000	0.109845
	9.590000	0.132408
	9.595000	0.042154
	9.600000	0.022814
	9.605000	0.106622
	9.610000	0.132408
	9.615000	0.045378
	9.620000	0.022814
	9.625000	0.109845
	9.630000	0.129185
	9.635000	0.038931
	9.640000	0.019591
	9.645000	0.106622
	9.650000	0.132408
	9.655000	0.042154
	9.660000	0.022814
	9.665000	0.116292
	9.670000	0.125962
	9.675000	0.038931
	9.680000	0.022814
	9.685000	0.113068
	9.690000	0.132408
	9.695000	0.042154
	9.700000	0.022814
	9.705000	0.119515
	9.710000	0.129185
	9.715000	0.045378
	9.720000	0.026038
	9.725000	0.113068
	9.730000	0.135632
	9.735000	0.038931
	9.740000	0.026038
	9.745000	0.119515
	9.750000	0.132408
	9.755000	0.042154
	9.760000	0.022814
	9.765000	0.122738
	9.770000	0.132408
	9.775000	0.045378
	9.780000	0.026038
	9.785000	0.119515
	9.790000	0.138855
	9.795000	0.045378
	9.800000	0.032484
	9.805000	0.122738
	9.810000	0.135632
	9.815000	0.042154
	9.820000	0.029261
	9.825000	0.119515
	9.830000	0.138855
	9.835000	0.048601
	9.840000	0.029261
	9.845000	0.125962
	9.850000	0.138855
	9.855000	0.051825
	9.860000	0.035708
	9.865000	0.116292
	9.870000	0.135632
	9.875000	0.045378
	9.880000	0.029261
	9.885000	0.129185
	9.890000	0.138855
	9.895000	0.048601
	9.900000	0.035708
	9.905000	0.125962
	9.910000	0.135632
	9.915000	0.045378
	9.920000	0.035708
	9.925000	0.122738
	9.930000	0.142079
	9.935000	0.048601
	9.940000	0.032484
	9.945000	0.119515
	9.950000	0.142079
	9.955000	0.048601
	9.960000	0.035708
	9.965000	0.122738
	9.970000	0.138855
	9.975000	0.048601
	9.980000	0.038931
	9.985000	0.125962
	9.990000	0.138855
	9.995000	0.051825
	10.000000	0.035708
	10.005000	0.125962
	10.010000	0.148525
	10.015000	0.051825
	10.020000	0.035708
	10.025000	0.129185
	10.030000	0.132408
	10.035000	0.051825
	10.040000	0.035708
	10.045000	0.125962
	10.050000	0.138855
	10.055000	0.051825
	10.060000	0.035708
	10.065000	0.125962
	10.070000	0.138855
	10.075000	0.048601
	10.080000	0.035708
	10.085000	0.129185
	10.090000	0.138855
	10.095000	0.051825
	10.100000	0.038931
	10.105000	0.122738
	10.110000	0.138855
	10.115000	0.045378
	10.120000	0.038931
	10.125000	0.129185
	10.130000	0.142079
	10.135000	0.048601
	10.140000	0.035708
	10.145000	0.125962
	10.150000	0.138855
	10.155000	0.051825
	10.160000	0.042154
	10.165000	0.135632
	10.170000	0.135632
	10.175000	0.045378
	10.180000	0.042154
	10.185000	0.129185
	10.190000	0.138855
	10.195000	0.051825
	10.200000	0.045378
	10.205000	0.132408
	10.210000	0.142079
	10.215000	0.045378
	10.220000	0.045378
	10.225000	0.129185
	10.230000	0.142079
	10.235000	0.051825
	10.240000	0.038931
	10.245000	0.132408
	10.250000	0.138855
	10.255000	0.051825
	10.260000	0.035708
	10.265000	0.132408
	10.270000	0.145302
	10.275000	0.051825
	10.280000	0.045378
	10.285000	0.132408
	10.290000	0.145302
	10.295000	0.055048
	10.300000	0.042154
	10.305000	0.129185
	10.310000	0.145302
	10.315000	0.048601
	10.320000	0.042154
	10.325000	0.135632
	10.330000	0.142079
	10.335000	0.048601
	10.340000	0.048601
	10.345000	0.135632
	10.350000	0.135632
	10.355000	0.055048
	10.360000	0.048601
	10.365000	0.138855
	10.370000	0.145302
	10.375000	0.055048
	10.380000	0.038931
	10.385000	0.138855
	10.390000	0.142079
	10.395000	0.048601
	10.400000	0.051825
	10.405000	0.135632
	10.410000	0.151749
	10.415000	0.055048
	10.420000	0.045378
	10.425000	0.135632
	10.430000	0.148525
	10.435000	0.051825
	10.440000	0.045378
	10.445000	0.135632
	10.450000	0.142079
	10.455000	0.051825
	10.460000	0.048601
	10.465000	0.135632
	10.470000	0.148525
	10.475000	0.051825
	10.480000	0.055048
	10.485000	0.138855
	10.490000	0.151749
	10.495000	0.058271
	10.500000	0.051825
	10.505000	0.135632
	10.510000	0.148525
	10.515000	0.055048
	10.520000	0.038931
	10.525000	0.135632
	10.530000	0.145302
	10.535000	0.055048
	10.540000	0.045378
	10.545000	0.135632
	10.550000	0.142079
	10.555000	0.055048
	10.560000	0.045378
	10.565000	0.132408
	10.570000	0.142079
	10.575000	0.051825
	10.580000	0.051825
	10.585000	0.138855
	10.590000	0.142079
	10.595000	0.058271
	10.600000	0.048601
	10.605000	0.135632
	10.610000	0.145302
	10.615000	0.051825
	10.620000	0.045378
	10.625000	0.138855
	10.630000	0.145302
	10.635000	0.058271
	10.640000	0.045378
	10.645000	0.142079
	10.650000	0.142079
	10.655000	0.055048
	10.660000	0.051825
	10.665000	0.142079
	10.670000	0.145302
	10.675000	0.058271
	10.680000	0.051825
	10.685000	0.138855
	10.690000	0.142079
	10.695000	0.058271
	10.700000	0.055048
	10.705000	0.148525
	10.710000	0.154972
	10.715000	0.061495
	10.720000	0.055048
	10.725000	0.142079
	10.730000	0.151749
	10.735000	0.058271
	10.740000	0.048601
	10.745000	0.142079
	10.750000	0.151749
	10.755000	0.055048
	10.760000	0.051825
	10.765000	0.148525
	10.770000	0.148525
	10.775000	0.055048
	10.780000	0.055048
	10.785000	0.138855
	10.790000	0.151749
	10.795000	0.058271
	10.800000	0.051825
	10.805000	0.145302
	10.810000	0.145302
	10.815000	0.055048
	10.820000	0.051825
	10.825000	0.138855
	10.830000	0.148525
	10.835000	0.048601
	10.840000	0.055048
	10.845000	0.138855
	10.850000	0.142079
	10.855000	0.051825
	10.860000	0.055048
	10.865000	0.138855
	10.870000	0.148525
	10.875000	0.055048
	10.880000	0.058271
	10.885000	0.142079
	10.890000	0.145302
	10.895000	0.061495
	10.900000	0.055048
	10.905000	0.161419
	10.910000	0.164642
	10.915000	0.080835
	10.920000	0.084058
	10.925000	0.183982
	10.930000	0.193652
	10.935000	0.109845
	10.940000	0.116292
	10.945000	0.216216
	10.950000	0.229109
	10.955000	0.148525
	10.960000	0.154972
	10.965000	0.251673
	10.970000	0.258119
	10.975000	0.174312
	10.980000	0.183982
	10.985000	0.280683
	10.990000	0.296800
	10.995000	0.206546
	11.000000	0.212992
	11.005000	0.306470
	11.010000	0.309693
	11.015000	0.229109
	11.020000	0.235556
	11.025000	0.325810
	11.030000	0.325810
	11.035000	0.235556
	11.040000	0.245226
	11.045000	0.322587
	11.050000	0.325810
	11.055000	0.242003
	11.060000	0.238779
	11.065000	0.325810
	11.070000	0.316140
	11.075000	0.235556
	11.080000	0.235556
	11.085000	0.319363
	11.090000	0.316140
	11.095000	0.229109
	11.100000	0.225886
	11.105000	0.322587
	11.110000	0.316140
	11.115000	0.225886
	11.120000	0.222663
	11.125000	0.312917
	11.130000	0.309693
	11.135000	0.222663
	11.140000	0.219439
	11.145000	0.300023
	11.150000	0.296800
	11.155000	0.209769
	11.160000	0.206546
	11.165000	0.296800
	11.170000	0.290353
	11.175000	0.193652
	11.180000	0.196876
	11.185000	0.277460
	11.190000	0.280683
	11.195000	0.187206
	11.200000	0.190429
	11.205000	0.274236
	11.210000	0.274236
	11.215000	0.190429
	11.220000	0.177536
	11.225000	0.271013
	11.230000	0.274236
	11.235000	0.180759
	11.240000	0.180759
	11.245000	0.261343
	11.250000	0.258119
	11.255000	0.167865
	11.260000	0.171089
	11.265000	0.254896
	11.270000	0.251673
	11.275000	0.161419
	11.280000	0.161419
	11.285000	0.238779
	11.290000	0.242003
	11.295000	0.145302
	11.300000	0.142079
	11.305000	0.225886
	11.310000	0.222663
	11.315000	0.119515
	11.320000	0.116292
	11.325000	0.203322
	11.330000	0.200099
	11.335000	0.106622
	11.340000	0.100175
	11.345000	0.183982
	11.350000	0.171089
	11.355000	0.080835
	11.360000	0.080835
	11.365000	0.161419
	11.370000	0.161419
	11.375000	0.058271
	11.380000	0.061495
	11.385000	0.138855
	11.390000	0.132408
	11.395000	0.042154
	11.400000	0.045378
	11.405000	0.119515
	11.410000	0.122738
	11.415000	0.029261
	11.420000	0.032484
	11.425000	0.109845
	11.430000	0.113068
	11.435000	0.013144
	11.440000	0.016368
	11.445000	0.116292
	11.450000	0.109845
	11.455000	0.009921
	11.460000	0.019591
	11.465000	0.113068
	11.470000	0.106622
	11.475000	0.026038
	11.480000	0.032484
	11.485000	0.116292
	11.490000	0.113068
	11.495000	0.019591
	11.500000	0.029261
	11.505000	0.122738
	11.510000	0.119515
	11.515000	0.029261
	11.520000	0.038931
	11.525000	0.122738
	11.530000	0.119515
	11.535000	0.035708
	11.540000	0.038931
	11.545000	0.129185
	11.550000	0.122738
	11.555000	0.038931
	11.560000	0.042154
	11.565000	0.135632
	11.570000	0.129185
	11.575000	0.045378
	11.580000	0.045378
	11.585000	0.132408
	11.590000	0.142079
	11.595000	0.048601
	11.600000	0.048601
	11.605000	0.138855
	11.610000	0.135632
	11.615000	0.045378
	11.620000	0.051825
	11.625000	0.135632
	11.630000	0.138855
	11.635000	0.045378
	11.640000	0.051825
	11.645000	0.145302
	11.650000	0.135632
	11.655000	0.048601
	11.660000	0.051825
	11.665000	0.138855
	11.670000	0.138855
	11.675000	0.048601
	11.680000	0.051825
	11.685000	0.148525
	11.690000	0.138855
	11.695000	0.051825
	11.700000	0.055048
	11.705000	0.145302
	11.710000	0.148525
	11.715000	0.051825
	11.720000	0.064718
	11.725000	0.151749
	11.730000	0.142079
	11.735000	0.055048
	11.740000	0.055048
	11.745000	0.151749
	11.750000	0.142079
	11.755000	0.048601
	11.760000	0.058271
	11.765000	0.148525
	11.770000	0.142079
	11.775000	0.048601
	11.780000	0.064718
	11.785000	0.151749
	11.790000	0.148525
	11.795000	0.058271
	11.800000	0.055048
	11.805000	0.148525
	11.810000	0.138855
	11.815000	0.055048
	11.820000	0.067941
	11.825000	0.145302
	11.830000	0.145302
	11.835000	0.051825
	11.840000	0.058271
	11.845000	0.148525
	11.850000	0.145302
	11.855000	0.061495
	11.860000	0.058271
	11.865000	0.154972
	11.870000	0.145302
	11.875000	0.051825
	11.880000	0.067941
	11.885000	0.148525
	11.890000	0.145302
	11.895000	0.058271
	11.900000	0.067941
	11.905000	0.154972
	11.910000	0.145302
	11.915000	0.058271
	11.920000	0.064718
	11.925000	0.154972
	11.930000	0.145302
	11.935000	0.058271
	11.940000	0.067941
	11.945000	0.151749
	11.950000	0.151749
	11.955000	0.058271
	11.960000	0.058271
	11.965000	0.154972
	11.970000	0.148525
	11.975000	0.051825
	11.980000	0.061495
	11.985000	0.154972
	11.990000	0.145302
	11.995000	0.055048
	12.000000	0.064718
	12.005000	0.151749
	12.010000	0.142079
	12.015000	0.055048
	12.020000	0.067941
	12.025000	0.151749
	12.030000	0.145302
	12.035000	0.051825
	12.040000	0.064718
	12.045000	0.158195
	12.050000	0.142079
	12.055000	0.061495
	12.060000	0.067941
	12.065000	0.161419
	12.070000	0.151749
	12.075000	0.064718
	12.080000	0.074388
	12.085000	0.161419
	12.090000	0.158195
	12.095000	0.067941
	12.100000	0.080835
	12.105000	0.167865
	12.110000	0.154972
	12.115000	0.064718
	12.120000	0.067941
	12.125000	0.167865
	12.130000	0.154972
	12.135000	0.061495
	12.140000	0.071165
	12.145000	0.164642
	12.150000	0.154972
	12.155000	0.064718
	12.160000	0.071165
	12.165000	0.164642
	12.170000	0.154972
	12.175000	0.064718
	12.180000	0.071165
	12.185000	0.167865
	12.190000	0.154972
	12.195000	0.071165
	12.200000	0.074388
	12.205000	0.164642
	12.210000	0.154972
	12.215000	0.061495
	12.220000	0.077611
	12.225000	0.167865
	12.230000	0.154972
	12.235000	0.067941
	12.240000	0.077611
	12.245000	0.171089
	12.250000	0.158195
	12.255000	0.067941
	12.260000	0.077611
	12.265000	0.171089
	12.270000	0.161419
	12.275000	0.061495
	12.280000	0.080835
	12.285000	0.167865
	12.290000	0.158195
	12.295000	0.064718
	12.300000	0.080835
	12.305000	0.167865
	12.310000	0.154972
	12.315000	0.067941
	12.320000	0.084058
	12.325000	0.177536
	12.330000	0.161419
	12.335000	0.071165
	12.340000	0.087281
	12.345000	0.177536
	12.350000	0.167865
	12.355000	0.074388
	12.360000	0.090505
	12.365000	0.177536
	12.370000	0.164642
	12.375000	0.074388
	12.380000	0.090505
	12.385000	0.177536
	12.390000	0.171089
	12.395000	0.080835
	12.400000	0.090505
	12.405000	0.180759
	12.410000	0.174312
	12.415000	0.071165
	12.420000	0.093728
	12.425000	0.180759
	12.430000	0.167865
	12.435000	0.074388
	12.440000	0.090505
	12.445000	0.177536
	12.450000	0.167865
	12.455000	0.074388
	12.460000	0.096952
	12.465000	0.174312
	12.470000	0.158195
	12.475000	0.080835
	12.480000	0.087281
	12.485000	0.171089
	12.490000	0.167865
	12.495000	0.074388
	12.500000	0.087281
	12.505000	0.177536
	12.510000	0.167865
	12.515000	0.077611
	12.520000	0.087281
	12.525000	0.187206
	12.530000	0.167865
	12.535000	0.077611
	12.540000	0.093728
	12.545000	0.183982
	12.550000	0.167865
	12.555000	0.077611
	12.560000	0.087281
	12.565000	0.177536
	12.570000	0.164642
	12.575000	0.077611
	12.580000	0.096952
	12.585000	0.183982
	12.590000	0.164642
	12.595000	0.077611
	12.600000	0.090505
	12.605000	0.183982
	12.610000	0.167865
	12.615000	0.074388
	12.620000	0.090505
	12.625000	0.180759
	12.630000	0.167865
	12.635000	0.077611
	12.640000	0.087281
	12.645000	0.180759
	12.650000	0.171089
	12.655000	0.080835
	12.660000	0.096952
	12.665000	0.183982
	12.670000	0.167865
	12.675000	0.074388
	12.680000	0.093728
	12.685000	0.187206
	12.690000	0.167865
	12.695000	0.077611
	12.700000	0.093728
	12.705000	0.183982
	12.710000	0.167865
	12.715000	0.080835
	12.720000	0.090505
	12.725000	0.180759
	12.730000	0.174312
	12.735000	0.080835
	12.740000	0.090505
	12.745000	0.187206
	12.750000	0.167865
	12.755000	0.077611
	12.760000	0.087281
	12.765000	0.187206
	12.770000	0.164642
	12.775000	0.074388
	12.780000	0.087281
	12.785000	0.183982
	12.790000	0.164642
	12.795000	0.074388
	12.800000	0.087281
	12.805000	0.183982
	12.810000	0.167865
	12.815000	0.071165
	12.820000	0.087281
	12.825000	0.180759
	12.830000	0.164642
	12.835000	0.077611
	12.840000	0.093728
	12.845000	0.180759
	12.850000	0.167865
	12.855000	0.071165
	12.860000	0.090505
	12.865000	0.183982
	12.870000	0.164642
	12.875000	0.071165
	12.880000	0.093728
	12.885000	0.180759
	12.890000	0.161419
	12.895000	0.071165
	12.900000	0.087281
	12.905000	0.180759
	12.910000	0.161419
	12.915000	0.074388
	12.920000	0.090505
	12.925000	0.180759
	12.930000	0.164642
	12.935000	0.074388
	12.940000	0.084058
	12.945000	0.180759
	12.950000	0.167865
	12.955000	0.064718
	12.960000	0.090505
	12.965000	0.177536
	12.970000	0.154972
	12.975000	0.071165
	12.980000	0.084058
	12.985000	0.180759
	12.990000	0.158195
	12.995000	0.067941
	13.000000	0.087281
	13.005000	0.174312
	13.010000	0.154972
	13.015000	0.071165
	13.020000	0.080835
	13.025000	0.174312
	13.030000	0.161419
	13.035000	0.067941
	13.040000	0.090505
	13.045000	0.180759
	13.050000	0.154972
	13.055000	0.061495
	13.060000	0.084058
	13.065000	0.177536
	13.070000	0.154972
	13.075000	0.067941
	13.080000	0.084058
	13.085000	0.174312
	13.090000	0.158195
	13.095000	0.071165
	13.100000	0.093728
	13.105000	0.183982
	13.110000	0.154972
	13.115000	0.067941
	13.120000	0.093728
	13.125000	0.183982
	13.130000	0.158195
	13.135000	0.074388
	13.140000	0.087281
	13.145000	0.180759
	13.150000	0.158195
	13.155000	0.074388
	13.160000	0.093728
	13.165000	0.177536
	13.170000	0.161419
	13.175000	0.074388
	13.180000	0.090505
	13.185000	0.187206
	13.190000	0.161419
	13.195000	0.071165
	13.200000	0.096952
	13.205000	0.193652
	13.210000	0.180759
	13.215000	0.100175
	13.220000	0.116292
	13.225000	0.219439
	13.230000	0.206546
	13.235000	0.129185
	13.240000	0.158195
	13.245000	0.251673
	13.250000	0.238779
	13.255000	0.154972
	13.260000	0.183982
	13.265000	0.280683
	13.270000	0.271013
	13.275000	0.180759
	13.280000	0.209769
	13.285000	0.300023
	13.290000	0.283906
	13.295000	0.203322
	13.300000	0.235556
	13.305000	0.316140
	13.310000	0.300023
	13.315000	0.219439
	13.320000	0.242003
	13.325000	0.332257
	13.330000	0.309693
	13.335000	0.225886
	13.340000	0.245226
	13.345000	0.335480
	13.350000	0.309693
	13.355000	0.225886
	13.360000	0.248449
	13.365000	0.332257
	13.370000	0.316140
	13.375000	0.229109
	13.380000	0.245226
	13.385000	0.325810
	13.390000	0.309693
	13.395000	0.219439
	13.400000	0.245226
	13.405000	0.329033
	13.410000	0.303247
	13.415000	0.216216
	13.420000	0.245226
	13.425000	0.319363
	13.430000	0.300023
	13.435000	0.216216
	13.440000	0.238779
	13.445000	0.319363
	13.450000	0.296800
	13.455000	0.212992
	13.460000	0.229109
	13.465000	0.312917
	13.470000	0.290353
	13.475000	0.200099
	13.480000	0.225886
	13.485000	0.306470
	13.490000	0.283906
	13.495000	0.196876
	13.500000	0.212992
	13.505000	0.306470
	13.510000	0.274236
	13.515000	0.190429
	13.520000	0.206546
	13.525000	0.290353
	13.530000	0.267790
	13.535000	0.183982
	13.540000	0.200099
	13.545000	0.290353
	13.550000	0.267790
	13.555000	0.180759
	13.560000	0.200099
	13.565000	0.280683
	13.570000	0.254896
	13.575000	0.164642
	13.580000	0.190429
	13.585000	0.267790
	13.590000	0.245226
	13.595000	0.154972
	13.600000	0.167865
	13.605000	0.248449
	13.610000	0.222663
	13.615000	0.135632
	13.620000	0.151749
	13.625000	0.232333
	13.630000	0.203322
	13.635000	0.113068
	13.640000	0.132408
	13.645000	0.212992
	13.650000	0.183982
	13.655000	0.093728
	13.660000	0.119515
	13.665000	0.196876
	13.670000	0.161419
	13.675000	0.074388
	13.680000	0.103398
	13.685000	0.180759
	13.690000	0.154972
	13.695000	0.067941
	13.700000	0.090505
	13.705000	0.174312
	13.710000	0.148525
	13.715000	0.058271
	13.720000	0.077611
	13.725000	0.164642
	13.730000	0.138855
	13.735000	0.055048
	13.740000	0.077611
	13.745000	0.158195
	13.750000	0.132408
	13.755000	0.048601
	13.760000	0.074388
	13.765000	0.158195
	13.770000	0.129185
	13.775000	0.042154
	13.780000	0.064718
	13.785000	0.154972
	13.790000	0.125962
	13.795000	0.042154
	13.800000	0.071165
	13.805000	0.148525
	13.810000	0.129185
	13.815000	0.038931
	13.820000	0.071165
	13.825000	0.148525
	13.830000	0.125962
	13.835000	0.038931
	13.840000	0.071165
	13.845000	0.154972
	13.850000	0.132408
	13.855000	0.051825
	13.860000	0.071165
	13.865000	0.158195
	13.870000	0.125962
	13.875000	0.045378
	13.880000	0.071165
	13.885000	0.158195
	13.890000	0.135632
	13.895000	0.045378
	13.900000	0.067941
	13.905000	0.154972
	13.910000	0.125962
	13.915000	0.042154
	13.920000	0.071165
	13.925000	0.161419
	13.930000	0.129185
	13.935000	0.045378
	13.940000	0.064718
	13.945000	0.151749
	13.950000	0.129185
	13.955000	0.042154
	13.960000	0.074388
	13.965000	0.154972
	13.970000	0.132408
	13.975000	0.045378
	13.980000	0.071165
	13.985000	0.154972
	13.990000	0.132408
	13.995000	0.048601
	14.000000	0.071165
	14.005000	0.154972
	14.010000	0.135632
	14.015000	0.038931
	14.020000	0.067941
	14.025000	0.154972
	14.030000	0.129185
	14.035000	0.045378
	14.040000	0.071165
	14.045000	0.148525
	14.050000	0.125962
	14.055000	0.042154
	14.060000	0.064718
	14.065000	0.154972
	14.070000	0.122738
	14.075000	0.042154
	14.080000	0.064718
	14.085000	0.158195
	14.090000	0.125962
	14.095000	0.042154
	14.100000	0.071165
	14.105000	0.151749
	14.110000	0.132408
	14.115000	0.042154
	14.120000	0.067941
	14.125000	0.158195
	14.130000	0.132408
	14.135000	0.042154
	14.140000	0.071165
	14.145000	0.151749
	14.150000	0.122738
	14.155000	0.042154
	14.160000	0.064718
	14.165000	0.158195
	14.170000	0.129185
	14.175000	0.045378
	14.180000	0.074388
	14.185000	0.154972
	14.190000	0.125962
	14.195000	0.045378
	14.200000	0.067941
	14.205000	0.161419
	14.210000	0.129185
	14.215000	0.045378
	14.220000	0.067941
	14.225000	0.158195
	14.230000	0.132408
	14.235000	0.045378
	14.240000	0.071165
	14.245000	0.154972
	14.250000	0.129185
	14.255000	0.042154
	14.260000	0.074388
	14.265000	0.154972
	14.270000	0.135632
	14.275000	0.038931
	14.280000	0.074388
	14.285000	0.161419
	14.290000	0.125962
	14.295000	0.042154
	14.300000	0.067941
	14.305000	0.154972
	14.310000	0.122738
	14.315000	0.045378
	14.320000	0.071165
	14.325000	0.158195
	14.330000	0.129185
	14.335000	0.038931
	14.340000	0.071165
	14.345000	0.154972
	14.350000	0.129185
	14.355000	0.045378
	14.360000	0.074388
	14.365000	0.154972
	14.370000	0.132408
	14.375000	0.048601
	14.380000	0.074388
	14.385000	0.154972
	14.390000	0.129185
	14.395000	0.042154
	14.400000	0.080835
	14.405000	0.164642
	14.410000	0.135632
	14.415000	0.042154
	14.420000	0.077611
	14.425000	0.161419
	14.430000	0.135632
	14.435000	0.045378
	14.440000	0.074388
	14.445000	0.154972
	14.450000	0.132408
	14.455000	0.048601
	14.460000	0.077611
	14.465000	0.164642
	14.470000	0.132408
	14.475000	0.045378
	14.480000	0.077611
	14.485000	0.161419
	14.490000	0.135632
	14.495000	0.051825
	14.500000	0.077611
	14.505000	0.161419
	14.510000	0.132408
	14.515000	0.048601
	14.520000	0.084058
	14.525000	0.158195
	14.530000	0.129185
	14.535000	0.045378
	14.540000	0.084058
	14.545000	0.161419
	14.550000	0.129185
	14.555000	0.045378
	14.560000	0.080835
	14.565000	0.167865
	14.570000	0.135632
	14.575000	0.051825
	14.580000	0.077611
	14.585000	0.161419
	14.590000	0.132408
	14.595000	0.048601
	14.600000	0.084058
	14.605000	0.171089
	14.610000	0.132408
	14.615000	0.051825
	14.620000	0.084058
	14.625000	0.167865
	14.630000	0.135632
	14.635000	0.051825
	14.640000	0.080835
	14.645000	0.164642
	14.650000	0.125962
	14.655000	0.051825
	14.660000	0.084058
	14.665000	0.161419
	14.670000	0.135632
	14.675000	0.051825
	14.680000	0.080835
	14.685000	0.164642
	14.690000	0.132408
	14.695000	0.045378
	14.700000	0.080835
	14.705000	0.171089
	14.710000	0.135632
	14.715000	0.048601
	14.720000	0.087281
	14.725000	0.161419
	14.730000	0.129185
	14.735000	0.045378
	14.740000	0.080835
	14.745000	0.161419
	14.750000	0.138855
	14.755000	0.045378
	14.760000	0.080835
	14.765000	0.164642
	14.770000	0.129185
	14.775000	0.051825
	14.780000	0.080835
	14.785000	0.167865
	14.790000	0.125962
	14.795000	0.051825
	14.800000	0.077611
	14.805000	0.164642
	14.810000	0.132408
	14.815000	0.045378
	14.820000	0.084058
	14.825000	0.167865
	14.830000	0.135632
	14.835000	0.048601
	14.840000	0.087281
	14.845000	0.171089
	14.850000	0.135632
	14.855000	0.051825
	14.860000	0.093728
	14.865000	0.171089
	14.870000	0.142079
	14.875000	0.055048
	14.880000	0.093728
	14.885000	0.171089
	14.890000	0.142079
	14.895000	0.051825
	14.900000	0.090505
	14.905000	0.177536
	14.910000	0.142079
	14.915000	0.055048
	14.920000	0.090505
	14.925000	0.177536
	14.930000	0.142079
	14.935000	0.055048
	14.940000	0.093728
	14.945000	0.180759
	14.950000	0.148525
	14.955000	0.058271
	14.960000	0.093728
	14.965000	0.180759
	14.970000	0.145302
	14.975000	0.061495
	14.980000	0.096952
	14.985000	0.177536
	14.990000	0.138855
	14.995000	0.061495
	15.000000	0.093728
	15.005000	0.180759
	15.010000	0.145302
	15.015000	0.061495
	15.020000	0.093728
	15.025000	0.180759
	15.030000	0.142079
	15.035000	0.058271
	15.040000	0.093728
	15.045000	0.183982
	15.050000	0.148525
	15.055000	0.064718
	15.060000	0.103398
	15.065000	0.183982
	15.070000	0.148525
	15.075000	0.067941
	15.080000	0.100175
	15.085000	0.187206
	15.090000	0.148525
	15.095000	0.067941
	15.100000	0.100175
	15.105000	0.187206
	15.110000	0.154972
	15.115000	0.074388
	15.120000	0.103398
	15.125000	0.196876
	15.130000	0.154972
	15.135000	0.071165
	15.140000	0.109845
	15.145000	0.193652
	15.150000	0.154972
	15.155000	0.071165
	15.160000	0.100175
	15.165000	0.190429
	15.170000	0.151749
	15.175000	0.071165
	15.180000	0.109845
	15.185000	0.190429
	15.190000	0.154972
	15.195000	0.074388
	15.200000	0.103398
	15.205000	0.193652
	15.210000	0.161419
	15.215000	0.067941
	15.220000	0.106622
	15.225000	0.193652
	15.230000	0.154972
	15.235000	0.067941
	15.240000	0.109845
	15.245000	0.190429
	15.250000	0.154972
	15.255000	0.064718
	15.260000	0.109845
	15.265000	0.196876
	15.270000	0.158195
	15.275000	0.074388
	15.280000	0.109845
	15.285000	0.190429
	15.290000	0.154972
	15.295000	0.074388
	15.300000	0.113068
	15.305000	0.183982
	15.310000	0.148525
	15.315000	0.071165
	15.320000	0.113068
	15.325000	0.190429
	15.330000	0.151749
	15.335000	0.071165
	15.340000	0.109845
	15.345000	0.193652
	15.350000	0.151749
	15.355000	0.071165
	15.360000	0.103398
	15.365000	0.190429
	15.370000	0.154972
	15.375000	0.071165
	15.380000	0.109845
	15.385000	0.190429
	15.390000	0.158195
	15.395000	0.071165
	15.400000	0.109845
	15.405000	0.200099
	15.410000	0.158195
	15.415000	0.074388
	15.420000	0.116292
	15.425000	0.203322
	15.430000	0.161419
	15.435000	0.084058
	15.440000	0.122738
	15.445000	0.216216
	15.450000	0.177536
	15.455000	0.096952
	15.460000	0.138855
	15.465000	0.229109
	15.470000	0.193652
	15.475000	0.119515
	15.480000	0.161419
	15.485000	0.242003
	15.490000	0.212992
	15.495000	0.142079
	15.500000	0.187206
	15.505000	0.271013
	15.510000	0.242003
	15.515000	0.161419
	15.520000	0.209769
	15.525000	0.293576
	15.530000	0.264566
	15.535000	0.196876
	15.540000	0.235556
	15.545000	0.319363
	15.550000	0.293576
	15.555000	0.219439
	15.560000	0.258119
	15.565000	0.345150
	15.570000	0.312917
	15.575000	0.238779
	15.580000	0.277460
	15.585000	0.354820
	15.590000	0.322587
	15.595000	0.245226
	15.600000	0.280683
	15.605000	0.364490
	15.610000	0.322587
	15.615000	0.242003
	15.620000	0.280683
	15.625000	0.358044
	15.630000	0.319363
	15.635000	0.245226
	15.640000	0.274236
	15.645000	0.358044
	15.650000	0.319363
	15.655000	0.232333
	15.660000	0.277460
	15.665000	0.345150
	15.670000	0.309693
	15.675000	0.235556
	15.680000	0.274236
	15.685000	0.341927
	15.690000	0.306470
	15.695000	0.225886
	15.700000	0.261343
	15.705000	0.338703
	15.710000	0.300023
	15.715000	0.219439
	15.720000	0.251673
	15.725000	0.325810
	15.730000	0.296800
	15.735000	0.209769
	15.740000	0.248449
	15.745000	0.325810
	15.750000	0.287130
	15.755000	0.200099
	15.760000	0.238779
	15.765000	0.316140
	15.770000	0.283906
	15.775000	0.203322
	15.780000	0.242003
	15.785000	0.312917
	15.790000	0.277460
	15.795000	0.193652
	15.800000	0.235556
	15.805000	0.309693
	15.810000	0.264566
	15.815000	0.193652
	15.820000	0.225886
	15.825000	0.296800
	15.830000	0.261343
	15.835000	0.183982
	15.840000	0.219439
	15.845000	0.287130
	15.850000	0.254896
	15.855000	0.167865
	15.860000	0.209769
	15.865000	0.283906
	15.870000	0.245226
	15.875000	0.154972
	15.880000	0.196876
	15.885000	0.271013
	15.890000	0.222663
	15.895000	0.145302
	15.900000	0.177536
	15.905000	0.251673
	15.910000	0.212992
	15.915000	0.132408
	15.920000	0.164642
	15.925000	0.245226
	15.930000	0.200099
	15.935000	0.109845
	15.940000	0.151749
	15.945000	0.229109
	15.950000	0.177536
	15.955000	0.100175
	15.960000	0.135632
	15.965000	0.212992
	15.970000	0.177536
	15.975000	0.087281
	15.980000	0.129185
	15.985000	0.212992
	15.990000	0.167865
	15.995000	0.084058
	16.000000	0.122738
	16.005000	0.200099
	16.010000	0.158195
	16.015000	0.074388
	16.020000	0.116292
	16.025000	0.193652
	16.030000	0.151749
	16.035000	0.071165
	16.040000	0.106622
	16.045000	0.190429
	16.050000	0.148525
	16.055000	0.061495
	16.060000	0.106622
	16.065000	0.187206
	16.070000	0.138855
	16.075000	0.061495
	16.080000	0.093728
	16.085000	0.177536
	16.090000	0.135632
	16.095000	0.051825
	16.100000	0.100175
	16.105000	0.164642
	16.110000	0.132408
	16.115000	0.055048
	16.120000	0.093728
	16.125000	0.167865
	16.130000	0.132408
	16.135000	0.051825
	16.140000	0.100175
	16.145000	0.167865
	16.150000	0.135632
	16.155000	0.048601
	16.160000	0.096952
	16.165000	0.174312
	16.170000	0.138855
	16.175000	0.058271
	16.180000	0.096952
	16.185000	0.180759
	16.190000	0.135632
	16.195000	0.051825
	16.200000	0.096952
	16.205000	0.177536
	16.210000	0.135632
	16.215000	0.055048
	16.220000	0.096952
	16.225000	0.171089
	16.230000	0.135632
	16.235000	0.055048
	16.240000	0.096952
	16.245000	0.171089
	16.250000	0.132408
	16.255000	0.051825
	16.260000	0.096952
	16.265000	0.174312
	16.270000	0.129185
	16.275000	0.055048
	16.280000	0.096952
	16.285000	0.171089
	16.290000	0.132408
	16.295000	0.051825
	16.300000	0.100175
	16.305000	0.171089
	16.310000	0.129185
	16.315000	0.048601
	16.320000	0.093728
	16.325000	0.171089
	16.330000	0.129185
	16.335000	0.061495
	16.340000	0.093728
	16.345000	0.174312
	16.350000	0.132408
	16.355000	0.051825
	16.360000	0.100175
	16.365000	0.177536
	16.370000	0.135632
	16.375000	0.055048
	16.380000	0.093728
	16.385000	0.177536
	16.390000	0.129185
	16.395000	0.051825
	16.400000	0.096952
	16.405000	0.177536
	16.410000	0.132408
	16.415000	0.051825
	16.420000	0.093728
	16.425000	0.174312
	16.430000	0.132408
	16.435000	0.048601
	16.440000	0.090505
	16.445000	0.167865
	16.450000	0.125962
	16.455000	0.048601
	16.460000	0.090505
	16.465000	0.174312
	16.470000	0.129185
	16.475000	0.051825
	16.480000	0.093728
	16.485000	0.174312
	16.490000	0.125962
	16.495000	0.048601
	16.500000	0.093728
	16.505000	0.171089
	16.510000	0.125962
	16.515000	0.051825
	16.520000	0.093728
	16.525000	0.171089
	16.530000	0.122738
	16.535000	0.048601
	16.540000	0.093728
	16.545000	0.167865
	16.550000	0.129185
	16.555000	0.042154
	16.560000	0.090505
	16.565000	0.177536
	16.570000	0.129185
	16.575000	0.048601
	16.580000	0.093728
	16.585000	0.174312
	16.590000	0.122738
	16.595000	0.045378
	16.600000	0.087281
	16.605000	0.171089
	16.610000	0.129185
	16.615000	0.045378
	16.620000	0.093728
	16.625000	0.167865
	16.630000	0.129185
	16.635000	0.048601
	16.640000	0.090505
	16.645000	0.180759
	16.650000	0.122738
	16.655000	0.048601
	16.660000	0.093728
	16.665000	0.174312
	16.670000	0.125962
	16.675000	0.051825
	16.680000	0.090505
	16.685000	0.171089
	16.690000	0.125962
	16.695000	0.048601
	16.700000	0.090505
	16.705000	0.171089
	16.710000	0.129185
	16.715000	0.048601
	16.720000	0.093728
	16.725000	0.180759
	16.730000	0.129185
	16.735000	0.051825
	16.740000	0.096952
	16.745000	0.171089
	16.750000	0.129185
	16.755000	0.055048
	16.760000	0.096952
	16.765000	0.177536
	16.770000	0.125962
	16.775000	0.051825
	16.780000	0.096952
	16.785000	0.174312
	16.790000	0.129185
	16.795000	0.055048
	16.800000	0.100175
	16.805000	0.177536
	16.810000	0.129185
	16.815000	0.051825
	16.820000	0.103398
	16.825000	0.177536
	16.830000	0.129185
	16.835000	0.051825
	16.840000	0.096952
	16.845000	0.187206
	16.850000	0.135632
	16.855000	0.051825
	16.860000	0.100175
	16.865000	0.183982
	16.870000	0.138855
	16.875000	0.058271
	16.880000	0.103398
	16.885000	0.187206
	16.890000	0.135632
	16.895000	0.051825
	16.900000	0.106622
	16.905000	0.180759
	16.910000	0.129185
	16.915000	0.058271
	16.920000	0.106622
	16.925000	0.183982
	16.930000	0.135632
	16.935000	0.058271
	16.940000	0.113068
	16.945000	0.180759
	16.950000	0.129185
	16.955000	0.051825
	16.960000	0.100175
	16.965000	0.180759
	16.970000	0.135632
	16.975000	0.058271
	16.980000	0.100175
	16.985000	0.183982
	16.990000	0.129185
	16.995000	0.061495
	17.000000	0.103398
	17.005000	0.187206
	17.010000	0.132408
	17.015000	0.058271
	17.020000	0.113068
	17.025000	0.177536
	17.030000	0.135632
	17.035000	0.055048
	17.040000	0.106622
	17.045000	0.183982
	17.050000	0.132408
	17.055000	0.064718
	17.060000	0.109845
	17.065000	0.183982
	17.070000	0.138855
	17.075000	0.058271
	17.080000	0.109845
	17.085000	0.183982
	17.090000	0.138855
	17.095000	0.058271
	17.100000	0.113068
	17.105000	0.187206
	17.110000	0.138855
	17.115000	0.061495
	17.120000	0.109845
	17.125000	0.183982
	17.130000	0.132408
	17.135000	0.058271
	17.140000	0.113068
	17.145000	0.187206
	17.150000	0.138855
	17.155000	0.058271
	17.160000	0.106622
	17.165000	0.187206
	17.170000	0.142079
	17.175000	0.061495
	17.180000	0.113068
	17.185000	0.190429
	17.190000	0.138855
	17.195000	0.058271
	17.200000	0.109845
	17.205000	0.193652
	17.210000	0.135632
	17.215000	0.055048
	17.220000	0.106622
	17.225000	0.187206
	17.230000	0.142079
	17.235000	0.058271
	17.240000	0.103398
	17.245000	0.187206
	17.250000	0.132408
	17.255000	0.061495
	17.260000	0.109845
	17.265000	0.187206
	17.270000	0.138855
	17.275000	0.055048
	17.280000	0.113068
	17.285000	0.187206
	17.290000	0.142079
	17.295000	0.058271
	17.300000	0.113068
	17.305000	0.187206
	17.310000	0.135632
	17.315000	0.061495
	17.320000	0.109845
	17.325000	0.190429
	17.330000	0.135632
	17.335000	0.058271
	17.340000	0.116292
	17.345000	0.190429
	17.350000	0.142079
	17.355000	0.064718
	17.360000	0.109845
	17.365000	0.193652
	17.370000	0.138855
	17.375000	0.064718
	17.380000	0.119515
	17.385000	0.196876
	17.390000	0.138855
	17.395000	0.064718
	17.400000	0.119515
	17.405000	0.200099
	17.410000	0.142079
	17.415000	0.061495
	17.420000	0.113068
	17.425000	0.193652
	17.430000	0.138855
	17.435000	0.067941
	17.440000	0.116292
	17.445000	0.187206
	17.450000	0.142079
	17.455000	0.061495
	17.460000	0.116292
	17.465000	0.193652
	17.470000	0.148525
	17.475000	0.067941
	17.480000	0.119515
	17.485000	0.193652
	17.490000	0.142079
	17.495000	0.064718
	17.500000	0.116292
	17.505000	0.193652
	17.510000	0.148525
	17.515000	0.064718
	17.520000	0.116292
	17.525000	0.196876
	17.530000	0.148525
	17.535000	0.067941
	17.540000	0.119515
	17.545000	0.193652
	17.550000	0.148525
	17.555000	0.071165
	17.560000	0.119515
	17.565000	0.200099
	17.570000	0.142079
	17.575000	0.071165
	17.580000	0.122738
	17.585000	0.193652
	17.590000	0.148525
	17.595000	0.071165
	17.600000	0.119515
	17.605000	0.200099
	17.610000	0.145302
	17.615000	0.067941
	17.620000	0.122738
	17.625000	0.193652
	17.630000	0.142079
	17.635000	0.071165
	17.640000	0.122738
	17.645000	0.200099
	17.650000	0.148525
	17.655000	0.067941
	17.660000	0.116292
	17.665000	0.190429
	17.670000	0.145302
	17.675000	0.067941
	17.680000	0.119515
	17.685000	0.196876
	17.690000	0.142079
	17.695000	0.074388
	17.700000	0.119515
	17.705000	0.193652
	17.710000	0.145302
	17.715000	0.061495
	17.720000	0.122738
	17.725000	0.200099
	17.730000	0.145302
	17.735000	0.067941
	17.740000	0.122738
	17.745000	0.190429
	17.750000	0.142079
	17.755000	0.071165
	17.760000	0.122738
	17.765000	0.200099
	17.770000	0.142079
	17.775000	0.067941
	17.780000	0.119515
	17.785000	0.196876
	17.790000	0.138855
	17.795000	0.064718
	17.800000	0.122738
	17.805000	0.196876
	17.810000	0.145302
	17.815000	0.067941
	17.820000	0.119515
	17.825000	0.196876
	17.830000	0.138855
	17.835000	0.064718
	17.840000	0.122738
	17.845000	0.200099
	17.850000	0.142079
	17.855000	0.067941
	17.860000	0.125962
	17.865000	0.196876
	17.870000	0.145302
	17.875000	0.071165
	17.880000	0.122738
	17.885000	0.200099
	17.890000	0.145302
	17.895000	0.077611
	17.900000	0.129185
	17.905000	0.212992
	17.910000	0.164642
	17.915000	0.090505
	17.920000	0.154972
	17.925000	0.229109
	17.930000	0.190429
	17.935000	0.113068
	17.940000	0.177536
	17.945000	0.258119
	17.950000	0.212992
	17.955000	0.145302
	17.960000	0.212992
	17.965000	0.287130
	17.970000	0.245226
	17.975000	0.177536
	17.980000	0.242003
	17.985000	0.316140
	17.990000	0.274236
	17.995000	0.216216
	18.000000	0.267790
	18.005000	0.351597
	18.010000	0.306470
	18.015000	0.245226
	18.020000	0.300023
	18.025000	0.370937
	18.030000	0.329033
	18.035000	0.254896
	18.040000	0.306470
	18.045000	0.377384
	18.050000	0.335480
	18.055000	0.261343
	18.060000	0.312917
	18.065000	0.387054
	18.070000	0.335480
	18.075000	0.261343
	18.080000	0.316140
	18.085000	0.380607
	18.090000	0.332257
	18.095000	0.261343
	18.100000	0.312917
	18.105000	0.383830
	18.110000	0.335480
	18.115000	0.258119
	18.120000	0.312917
	18.125000	0.383830
	18.130000	0.332257
	18.135000	0.261343
	18.140000	0.312917
	18.145000	0.380607
	18.150000	0.329033
	18.155000	0.264566
	18.160000	0.306470
	18.165000	0.380607
	18.170000	0.319363
	18.175000	0.258119
	18.180000	0.306470
	18.185000	0.374160
	18.190000	0.319363
	18.195000	0.248449
	18.200000	0.300023
	18.205000	0.377384
	18.210000	0.312917
	18.215000	0.245226
	18.220000	0.293576
	18.225000	0.361267
	18.230000	0.309693
	18.235000	0.242003
	18.240000	0.283906
	18.245000	0.354820
	18.250000	0.303247
	18.255000	0.229109
	18.260000	0.290353
	18.265000	0.341927
	18.270000	0.293576
	18.275000	0.225886
	18.280000	0.271013
	18.285000	0.332257
	18.290000	0.277460
	18.295000	0.209769
	18.300000	0.251673
	18.305000	0.319363
	18.310000	0.264566
	18.315000	0.187206
	18.320000	0.238779
	18.325000	0.290353
	18.330000	0.238779
	18.335000	0.164642
	18.340000	0.216216
	18.345000	0.271013
	18.350000	0.212992
	18.355000	0.135632
	18.360000	0.177536
	18.365000	0.245226
	18.370000	0.183982
	18.375000	0.109845
	18.380000	0.154972
	18.385000	0.219439
	18.390000	0.154972
	18.395000	0.084058
	18.400000	0.125962
	18.405000	0.190429
	18.410000	0.135632
	18.415000	0.051825
	18.420000	0.106622
	18.425000	0.167865
	18.430000	0.113068
	18.435000	0.042154
	18.440000	0.096952
	18.445000	0.158195
	18.450000	0.103398
	18.455000	0.038931
	18.460000	0.080835
	18.465000	0.158195
	18.470000	0.096952
	18.475000	0.029261
	18.480000	0.087281
	18.485000	0.161419
	18.490000	0.103398
	18.495000	0.029261
	18.500000	0.084058
	18.505000	0.158195
	18.510000	0.106622
	18.515000	0.032484
	18.520000	0.084058
	18.525000	0.161419
	18.530000	0.109845
	18.535000	0.032484
	18.540000	0.096952
	18.545000	0.167865
	18.550000	0.113068
	18.555000	0.038931
	18.560000	0.096952
	18.565000	0.167865
	18.570000	0.106622
	18.575000	0.045378
	18.580000	0.100175
	18.585000	0.167865
	18.590000	0.113068
	18.595000	0.042154
	18.600000	0.100175
	18.605000	0.167865
	18.610000	0.116292
	18.615000	0.045378
	18.620000	0.096952
	18.625000	0.177536
	18.630000	0.109845
	18.635000	0.045378
	18.640000	0.100175
	18.645000	0.167865
	18.650000	0.116292
	18.655000	0.042154
	18.660000	0.100175
	18.665000	0.171089
	18.670000	0.116292
	18.675000	0.048601
	18.680000	0.096952
	18.685000	0.171089
	18.690000	0.113068
	18.695000	0.048601
	18.700000	0.103398
	18.705000	0.167865
	18.710000	0.116292
	18.715000	0.051825
	18.720000	0.109845
	18.725000	0.167865
	18.730000	0.116292
	18.735000	0.051825
	18.740000	0.103398
	18.745000	0.174312
	18.750000	0.119515
	18.755000	0.048601
	18.760000	0.106622
	18.765000	0.177536
	18.770000	0.116292
	18.775000	0.045378
	18.780000	0.106622
	18.785000	0.177536
	18.790000	0.125962
	18.795000	0.051825
	18.800000	0.106622
	18.805000	0.174312
	18.810000	0.119515
	18.815000	0.051825
	18.820000	0.103398
	18.825000	0.180759
	18.830000	0.122738
	18.835000	0.048601
	18.840000	0.106622
	18.845000	0.174312
	18.850000	0.113068
	18.855000	0.055048
	18.860000	0.106622
	18.865000	0.174312
	18.870000	0.113068
	18.875000	0.051825
	18.880000	0.106622
	18.885000	0.171089
	18.890000	0.119515
	18.895000	0.051825
	18.900000	0.103398
	18.905000	0.171089
	18.910000	0.119515
	18.915000	0.051825
	18.920000	0.109845
	18.925000	0.171089
	18.930000	0.116292
	18.935000	0.051825
	18.940000	0.109845
	18.945000	0.187206
	18.950000	0.122738
	18.955000	0.055048
	18.960000	0.103398
	18.965000	0.177536
	18.970000	0.122738
	18.975000	0.048601
	18.980000	0.109845
	18.985000	0.177536
	18.990000	0.125962
	18.995000	0.051825
	19.000000	0.109845
	19.005000	0.180759
	19.010000	0.119515
	19.015000	0.051825
	19.020000	0.106622
	19.025000	0.180759
	19.030000	0.116292
	19.035000	0.051825
	19.040000	0.106622
	19.045000	0.177536
	19.050000	0.116292
	19.055000	0.051825
	19.060000	0.109845
	19.065000	0.177536
	19.070000	0.116292
	19.075000	0.051825
	19.080000	0.113068
	19.085000	0.180759
	19.090000	0.122738
	19.095000	0.051825
	19.100000	0.109845
	19.105000	0.174312
	19.110000	0.119515
	19.115000	0.055048
	19.120000	0.113068
	19.125000	0.183982
	19.130000	0.125962
	19.135000	0.051825
	19.140000	0.109845
	19.145000	0.183982
	19.150000	0.125962
	19.155000	0.058271
	19.160000	0.113068
	19.165000	0.177536
	19.170000	0.119515
	19.175000	0.055048
	19.180000	0.113068
	19.185000	0.177536
	19.190000	0.125962
	19.195000	0.051825
	19.200000	0.113068
	19.205000	0.177536
	19.210000	0.122738
	19.215000	0.055048
	19.220000	0.106622
	19.225000	0.180759
	19.230000	0.122738
	19.235000	0.051825
	19.240000	0.109845
	19.245000	0.180759
	19.250000	0.125962
	19.255000	0.051825
	19.260000	0.113068
	19.265000	0.183982
	19.270000	0.125962
	19.275000	0.051825
	19.280000	0.109845
	19.285000	0.187206
	19.290000	0.129185
	19.295000	0.061495
	19.300000	0.119515
	19.305000	0.180759
	19.310000	0.129185
	19.315000	0.055048
	19.320000	0.116292
	19.325000	0.183982
	19.330000	0.119515
	19.335000	0.061495
	19.340000	0.119515
	19.345000	0.183982
	19.350000	0.129185
	19.355000	0.055048
	19.360000	0.119515
	19.365000	0.183982
	19.370000	0.125962
	19.375000	0.055048
	19.380000	0.116292
	19.385000	0.183982
	19.390000	0.125962
	19.395000	0.055048
	19.400000	0.116292
	19.405000	0.183982
	19.410000	0.125962
	19.415000	0.064718
	19.420000	0.119515
	19.425000	0.183982
	19.430000	0.129185
	19.435000	0.058271
	19.440000	0.119515
	19.445000	0.187206
	19.450000	0.125962
	19.455000	0.058271
	19.460000	0.116292
	19.465000	0.183982
	19.470000	0.125962
	19.475000	0.058271
	19.480000	0.119515
	19.485000	0.193652
	19.490000	0.129185
	19.495000	0.061495
	19.500000	0.113068
	19.505000	0.180759
	19.510000	0.125962
	19.515000	0.064718
	19.520000	0.116292
	19.525000	0.183982
	19.530000	0.122738
	19.535000	0.055048
	19.540000	0.116292
	19.545000	0.190429
	19.550000	0.125962
	19.555000	0.058271
	19.560000	0.113068
	19.565000	0.180759
	19.570000	0.125962
	19.575000	0.058271
	19.580000	0.122738
	19.585000	0.187206
	19.590000	0.129185
	19.595000	0.058271
	19.600000	0.119515
	19.605000	0.187206
	19.610000	0.125962
	19.615000	0.058271
	19.620000	0.119515
	19.625000	0.190429
	19.630000	0.129185
	19.635000	0.061495
	19.640000	0.116292
	19.645000	0.190429
	19.650000	0.125962
	19.655000	0.061495
	19.660000	0.119515
	19.665000	0.193652
	19.670000	0.129185
	19.675000	0.058271
	19.680000	0.119515
	19.685000	0.193652
	19.690000	0.125962
	19.695000	0.064718
	19.700000	0.122738
	19.705000	0.190429
	19.710000	0.122738
	19.715000	0.055048
	19.720000	0.116292
	19.725000	0.196876
	19.730000	0.125962
	19.735000	0.058271
	19.740000	0.122738
	19.745000	0.187206
	19.750000	0.129185
	19.755000	0.055048
	19.760000	0.119515
	19.765000	0.187206
	19.770000	0.129185
	19.775000	0.064718
	19.780000	0.125962
	19.785000	0.193652
	19.790000	0.125962
	19.795000	0.064718
	19.800000	0.125962
	19.805000	0.193652
	19.810000	0.125962
	19.815000	0.061495
	19.820000	0.122738
	19.825000	0.190429
	19.830000	0.129185
	19.835000	0.061495
	19.840000	0.122738
	19.845000	0.193652
	19.850000	0.132408
	19.855000	0.064718
	19.860000	0.122738
	19.865000	0.193652
	19.870000	0.129185
	19.875000	0.064718
	19.880000	0.122738
	19.885000	0.193652
	19.890000	0.125962
	19.895000	0.067941
	19.900000	0.125962
	19.905000	0.196876
	19.910000	0.132408
	19.915000	0.061495
	19.920000	0.125962
	19.925000	0.190429
	19.930000	0.135632
	19.935000	0.061495
	19.940000	0.122738
	19.945000	0.193652
	19.950000	0.135632
	19.955000	0.067941
	19.960000	0.129185
	19.965000	0.196876
	19.970000	0.132408
	19.975000	0.067941
	19.980000	0.132408
	19.985000	0.196876
	19.990000	0.129185
	19.995000	0.064718
	20.000000	0.129185
	20.005000	0.196876
	20.010000	0.132408
	20.015000	0.067941
	20.020000	0.129185
	20.025000	0.190429
	20.030000	0.132408
	20.035000	0.064718
	20.040000	0.125962
	20.045000	0.193652
	20.050000	0.129185
	20.055000	0.064718
	20.060000	0.129185
	20.065000	0.200099
	20.070000	0.132408
	20.075000	0.067941
	20.080000	0.129185
	20.085000	0.193652
	20.090000	0.138855
	20.095000	0.067941
	20.100000	0.135632
	20.105000	0.193652
	20.110000	0.132408
	20.115000	0.067941
	20.120000	0.122738
	20.125000	0.200099
	20.130000	0.138855
	20.135000	0.067941
	20.140000	0.129185
	20.145000	0.193652
	20.150000	0.138855
	20.155000	0.067941
	20.160000	0.132408
	20.165000	0.196876
	20.170000	0.138855
	20.175000	0.067941
	20.180000	0.132408
	20.185000	0.200099
	20.190000	0.135632
	20.195000	0.071165
	20.200000	0.135632
	20.205000	0.200099
	20.210000	0.132408
	20.215000	0.071165
	20.220000	0.132408
	20.225000	0.206546
	20.230000	0.135632
	20.235000	0.067941
	20.240000	0.135632
	20.245000	0.193652
	20.250000	0.135632
	20.255000	0.067941
	20.260000	0.132408
	20.265000	0.193652
	20.270000	0.138855
	20.275000	0.067941
	20.280000	0.132408
	20.285000	0.193652
	20.290000	0.129185
	20.295000	0.064718
	20.300000	0.132408
	20.305000	0.193652
	20.310000	0.129185
	20.315000	0.061495
	20.320000	0.129185
	20.325000	0.193652
	20.330000	0.135632
	20.335000	0.071165
	20.340000	0.132408
	20.345000	0.193652
	20.350000	0.129185
	20.355000	0.067941
	20.360000	0.132408
	20.365000	0.196876
	20.370000	0.135632
	20.375000	0.071165
	20.380000	0.132408
	20.385000	0.200099
	20.390000	0.132408
	20.395000	0.067941
	20.400000	0.135632
	20.405000	0.200099
	20.410000	0.132408
	20.415000	0.074388
	20.420000	0.135632
	20.425000	0.200099
	20.430000	0.145302
	20.435000	0.077611
	20.440000	0.151749
	20.445000	0.219439
	20.450000	0.161419
	20.455000	0.100175
	20.460000	0.177536
	20.465000	0.238779
	20.470000	0.180759
	20.475000	0.119515
	20.480000	0.196876
	20.485000	0.261343
	20.490000	0.209769
	20.495000	0.142079
	20.500000	0.212992
	20.505000	0.287130
	20.510000	0.229109
	20.515000	0.167865
	20.520000	0.238779
	20.525000	0.303247
	20.530000	0.248449
	20.535000	0.190429
	20.540000	0.258119
	20.545000	0.335480
	20.550000	0.274236
	20.555000	0.209769
	20.560000	0.274236
	20.565000	0.348374
	20.570000	0.293576
	20.575000	0.232333
	20.580000	0.290353
	20.585000	0.364490
	20.590000	0.303247
	20.595000	0.242003
	20.600000	0.303247
	20.605000	0.370937
	20.610000	0.306470
	20.615000	0.245226
	20.620000	0.303247
	20.625000	0.370937
	20.630000	0.309693
	20.635000	0.238779
	20.640000	0.303247
	20.645000	0.364490
	20.650000	0.303247
	20.655000	0.242003
	20.660000	0.300023
	20.665000	0.364490
	20.670000	0.296800
	20.675000	0.238779
	20.680000	0.306470
	20.685000	0.361267
	20.690000	0.306470
	20.695000	0.238779
	20.700000	0.303247
	20.705000	0.351597
	20.710000	0.293576
	20.715000	0.232333
	20.720000	0.293576
	20.725000	0.351597
	20.730000	0.287130
	20.735000	0.219439
	20.740000	0.283906
	20.745000	0.345150
	20.750000	0.274236
	20.755000	0.216216
	20.760000	0.274236
	20.765000	0.332257
	20.770000	0.264566
	20.775000	0.206546
	20.780000	0.261343
	20.785000	0.325810
	20.790000	0.251673
	20.795000	0.193652
	20.800000	0.251673
	20.805000	0.312917
	20.810000	0.238779
	20.815000	0.174312
	20.820000	0.232333
	20.825000	0.293576
	20.830000	0.222663
	20.835000	0.158195
	20.840000	0.219439
	20.845000	0.267790
	20.850000	0.206546
	20.855000	0.132408
	20.860000	0.196876
	20.865000	0.258119
	20.870000	0.187206
	20.875000	0.122738
	20.880000	0.183982
	20.885000	0.235556
	20.890000	0.174312
	20.895000	0.100175
	20.900000	0.164642
	20.905000	0.225886
	20.910000	0.158195
	20.915000	0.093728
	20.920000	0.148525
	20.925000	0.209769
	20.930000	0.142079
	20.935000	0.077611
	20.940000	0.135632
	20.945000	0.193652
	20.950000	0.125962
	20.955000	0.061495
	20.960000	0.129185
	20.965000	0.187206
	20.970000	0.122738
	20.975000	0.058271
	20.980000	0.116292
	20.985000	0.174312
	20.990000	0.109845
	20.995000	0.051825
	21.000000	0.113068
	21.005000	0.174312
	21.010000	0.103398
	21.015000	0.048601
	21.020000	0.113068
	21.025000	0.174312
	21.030000	0.106622
	21.035000	0.048601
	21.040000	0.109845
	21.045000	0.174312
	21.050000	0.113068
	21.055000	0.051825
	21.060000	0.116292
	21.065000	0.174312
	21.070000	0.119515
	21.075000	0.055048
	21.080000	0.116292
	21.085000	0.183982
	21.090000	0.116292
	21.095000	0.058271
	21.100000	0.125962
	21.105000	0.187206
	21.110000	0.122738
	21.115000	0.064718
	21.120000	0.125962
	21.125000	0.187206
	21.130000	0.119515
	21.135000	0.061495
	21.140000	0.132408
	21.145000	0.190429
	21.150000	0.122738
	21.155000	0.061495
	21.160000	0.132408
	21.165000	0.187206
	21.170000	0.125962
	21.175000	0.061495
	21.180000	0.125962
	21.185000	0.190429
	21.190000	0.125962
	21.195000	0.061495
	21.200000	0.122738
	21.205000	0.190429
	21.210000	0.122738
	21.215000	0.067941
	21.220000	0.125962
	21.225000	0.183982
	21.230000	0.119515
	21.235000	0.058271
	21.240000	0.125962
	21.245000	0.190429
	21.250000	0.125962
	21.255000	0.061495
	21.260000	0.119515
	21.265000	0.183982
	21.270000	0.119515
	21.275000	0.061495
	21.280000	0.119515
	21.285000	0.187206
	21.290000	0.113068
	21.295000	0.064718
	21.300000	0.122738
	21.305000	0.190429
	21.310000	0.113068
	21.315000	0.055048
	21.320000	0.119515
	21.325000	0.183982
	21.330000	0.109845
	21.335000	0.051825
	21.340000	0.119515
	21.345000	0.180759
	21.350000	0.119515
	21.355000	0.058271
	21.360000	0.119515
	21.365000	0.183982
	21.370000	0.116292
	21.375000	0.055048
	21.380000	0.116292
	21.385000	0.180759
	21.390000	0.119515
	21.395000	0.055048
	21.400000	0.122738
	21.405000	0.183982
	21.410000	0.109845
	21.415000	0.058271
	21.420000	0.129185
	21.425000	0.183982
	21.430000	0.119515
	21.435000	0.058271
	21.440000	0.129185
	21.445000	0.183982
	21.450000	0.119515
	21.455000	0.058271
	21.460000	0.129185
	21.465000	0.183982
	21.470000	0.116292
	21.475000	0.064718
	21.480000	0.122738
	21.485000	0.193652
	21.490000	0.116292
	21.495000	0.058271
	21.500000	0.119515
	21.505000	0.183982
	21.510000	0.122738
	21.515000	0.055048
	21.520000	0.122738
	21.525000	0.183982
	21.530000	0.116292
	21.535000	0.055048
	21.540000	0.125962
	21.545000	0.190429
	21.550000	0.116292
	21.555000	0.055048
	21.560000	0.122738
	21.565000	0.183982
	21.570000	0.109845
	21.575000	0.058271
	21.580000	0.119515
	21.585000	0.187206
	21.590000	0.116292
	21.595000	0.051825
	21.600000	0.129185
	21.605000	0.190429
	21.610000	0.113068
	21.615000	0.055048
	21.620000	0.122738
	21.625000	0.180759
	21.630000	0.109845
	21.635000	0.048601
	21.640000	0.122738
	21.645000	0.180759
	21.650000	0.116292
	21.655000	0.055048
	21.660000	0.122738
	21.665000	0.183982
	21.670000	0.113068
	21.675000	0.048601
	21.680000	0.119515
	21.685000	0.183982
	21.690000	0.113068
	21.695000	0.051825
	21.700000	0.119515
	21.705000	0.177536
	21.710000	0.113068
	21.715000	0.055048
	21.720000	0.116292
	21.725000	0.183982
	21.730000	0.109845
	21.735000	0.058271
	21.740000	0.122738
	21.745000	0.183982
	21.750000	0.113068
	21.755000	0.051825
	21.760000	0.125962
	21.765000	0.180759
	21.770000	0.109845
	21.775000	0.051825
	21.780000	0.116292
	21.785000	0.183982
	21.790000	0.113068
	21.795000	0.051825
	21.800000	0.119515
	21.805000	0.180759
	21.810000	0.113068
	21.815000	0.051825
	21.820000	0.119515
	21.825000	0.180759
	21.830000	0.116292
	21.835000	0.048601
	21.840000	0.122738
	21.845000	0.177536
	21.850000	0.116292
	21.855000	0.055048
	21.860000	0.125962
	21.865000	0.180759
	21.870000	0.113068
	21.875000	0.051825
	21.880000	0.125962
	21.885000	0.183982
	21.890000	0.109845
	21.895000	0.058271
	21.900000	0.125962
	21.905000	0.180759
	21.910000	0.116292
	21.915000	0.058271
	21.920000	0.132408
	21.925000	0.180759
	21.930000	0.109845
	21.935000	0.051825
	21.940000	0.125962
	21.945000	0.187206
	21.950000	0.116292
	21.955000	0.058271
	21.960000	0.125962
	21.965000	0.183982
	21.970000	0.116292
	21.975000	0.058271
	21.980000	0.125962
	21.985000	0.183982
	21.990000	0.116292
	21.995000	0.058271
	22.000000	0.132408
	22.005000	0.183982
	22.010000	0.109845
	22.015000	0.061495
	22.020000	0.129185
	22.025000	0.187206
	22.030000	0.116292
	22.035000	0.061495
	22.040000	0.122738
	22.045000	0.187206
	22.050000	0.113068
	22.055000	0.058271
	22.060000	0.132408
	22.065000	0.187206
	22.070000	0.109845
	22.075000	0.061495
	22.080000	0.125962
	22.085000	0.180759
	22.090000	0.116292
	22.095000	0.058271
	22.100000	0.129185
	22.105000	0.193652
	22.110000	0.116292
	22.115000	0.061495
	22.120000	0.132408
	22.125000	0.190429
	22.130000	0.116292
	22.135000	0.061495
	22.140000	0.132408
	22.145000	0.190429
	22.150000	0.119515
	22.155000	0.064718
	22.160000	0.132408
	22.165000	0.193652
	22.170000	0.125962
	22.175000	0.061495
	22.180000	0.142079
	22.185000	0.196876
	22.190000	0.122738
	22.195000	0.064718
	22.200000	0.135632
	22.205000	0.193652
	22.210000	0.122738
	22.215000	0.055048
	22.220000	0.138855
	22.225000	0.193652
	22.230000	0.125962
	22.235000	0.067941
	22.240000	0.138855
	22.245000	0.193652
	22.250000	0.125962
	22.255000	0.064718
	22.260000	0.132408
	22.265000	0.193652
	22.270000	0.119515
	22.275000	0.067941
	22.280000	0.132408
	22.285000	0.193652
	22.290000	0.125962
	22.295000	0.067941
	22.300000	0.135632
	22.305000	0.193652
	22.310000	0.113068
	22.315000	0.061495
	22.320000	0.132408
	22.325000	0.190429
	22.330000	0.119515
	22.335000	0.061495
	22.340000	0.138855
	22.345000	0.196876
	22.350000	0.122738
	22.355000	0.067941
	22.360000	0.135632
	22.365000	0.196876
	22.370000	0.125962
	22.375000	0.064718
	22.380000	0.138855
	22.385000	0.193652
	22.390000	0.125962
	22.395000	0.067941
	22.400000	0.135632
	22.405000	0.190429
	22.410000	0.116292
	22.415000	0.067941
	22.420000	0.135632
	22.425000	0.196876
	22.430000	0.119515
	22.435000	0.064718
	22.440000	0.138855
	22.445000	0.187206
	22.450000	0.119515
	22.455000	0.061495
	22.460000	0.135632
	22.465000	0.187206
	22.470000	0.122738
	22.475000	0.055048
	22.480000	0.132408
	22.485000	0.187206
	22.490000	0.113068
	22.495000	0.055048
	22.500000	0.129185
	22.505000	0.183982
	22.510000	0.116292
	22.515000	0.051825
	22.520000	0.129185
	22.525000	0.187206
	22.530000	0.113068
	22.535000	0.051825
	22.540000	0.129185
	22.545000	0.187206
	22.550000	0.116292
	22.555000	0.061495
	22.560000	0.129185
	22.565000	0.193652
	22.570000	0.109845
	22.575000	0.058271
	22.580000	0.129185
	22.585000	0.183982
	22.590000	0.116292
	22.595000	0.061495
	22.600000	0.129185
	22.605000	0.190429
	22.610000	0.116292
	22.615000	0.061495
	22.620000	0.132408
	22.625000	0.183982
	22.630000	0.119515
	22.635000	0.058271
	22.640000	0.132408
	22.645000	0.183982
	22.650000	0.119515
	22.655000	0.058271
	22.660000	0.138855
	22.665000	0.193652
	22.670000	0.122738
	22.675000	0.061495
	22.680000	0.132408
	22.685000	0.187206
	22.690000	0.116292
	22.695000	0.064718
	22.700000	0.132408
	22.705000	0.183982
	22.710000	0.116292
	22.715000	0.061495
	22.720000	0.135632
	22.725000	0.187206
	22.730000	0.119515
	22.735000	0.064718
	22.740000	0.132408
	22.745000	0.190429
	22.750000	0.122738
	22.755000	0.058271
	22.760000	0.132408
	22.765000	0.190429
	22.770000	0.116292
	22.775000	0.071165
	22.780000	0.135632
	22.785000	0.193652
	22.790000	0.116292
	22.795000	0.055048
	22.800000	0.135632
	22.805000	0.187206
	22.810000	0.109845
	22.815000	0.058271
	22.820000	0.132408
	22.825000	0.190429
	22.830000	0.116292
	22.835000	0.067941
	22.840000	0.135632
	22.845000	0.183982
	22.850000	0.113068
	22.855000	0.064718
	22.860000	0.135632
	22.865000	0.190429
	22.870000	0.119515
	22.875000	0.067941
	22.880000	0.135632
	22.885000	0.193652
	22.890000	0.119515
	22.895000	0.067941
	22.900000	0.138855
	22.905000	0.196876
	22.910000	0.122738
	22.915000	0.071165
	22.920000	0.135632
	22.925000	0.200099
	22.930000	0.125962
	22.935000	0.064718
	22.940000	0.142079
	22.945000	0.203322
	22.950000	0.132408
	22.955000	0.080835
	22.960000	0.158195
	22.965000	0.209769
	22.970000	0.148525
	22.975000	0.093728
	22.980000	0.177536
	22.985000	0.235556
	22.990000	0.167865
	22.995000	0.116292
	23.000000	0.193652
	23.005000	0.251673
	23.010000	0.187206
	23.015000	0.138855
	23.020000	0.219439
	23.025000	0.280683
	23.030000	0.216216
	23.035000	0.164642
	23.040000	0.245226
	23.045000	0.300023
	23.050000	0.235556
	23.055000	0.190429
	23.060000	0.258119
	23.065000	0.322587
	23.070000	0.251673
	23.075000	0.196876
	23.080000	0.274236
	23.085000	0.329033
	23.090000	0.261343
	23.095000	0.209769
	23.100000	0.280683
	23.105000	0.335480
	23.110000	0.261343
	23.115000	0.209769
	23.120000	0.280683
	23.125000	0.335480
	23.130000	0.264566
	23.135000	0.212992
	23.140000	0.280683
	23.145000	0.332257
	23.150000	0.261343
	23.155000	0.206546
	23.160000	0.277460
	23.165000	0.329033
	23.170000	0.258119
	23.175000	0.203322
	23.180000	0.280683
	23.185000	0.329033
	23.190000	0.251673
	23.195000	0.203322
	23.200000	0.271013
	23.205000	0.322587
	23.210000	0.248449
	23.215000	0.196876
	23.220000	0.267790
	23.225000	0.322587
	23.230000	0.248449
	23.235000	0.190429
	23.240000	0.264566
	23.245000	0.309693
	23.250000	0.235556
	23.255000	0.180759
	23.260000	0.248449
	23.265000	0.303247
	23.270000	0.229109
	23.275000	0.171089
	23.280000	0.238779
	23.285000	0.290353
	23.290000	0.209769
	23.295000	0.158195
	23.300000	0.216216
	23.305000	0.267790
	23.310000	0.193652
	23.315000	0.135632
	23.320000	0.200099
	23.325000	0.248449
	23.330000	0.167865
	23.335000	0.109845
	23.340000	0.174312
	23.345000	0.225886
	23.350000	0.145302
	23.355000	0.090505
	23.360000	0.154972
	23.365000	0.209769
	23.370000	0.122738
	23.375000	0.074388
	23.380000	0.138855
	23.385000	0.193652
	23.390000	0.106622
	23.395000	0.058271
	23.400000	0.125962
	23.405000	0.177536
	23.410000	0.100175
	23.415000	0.048601
	23.420000	0.116292
	23.425000	0.171089
	23.430000	0.090505
	23.435000	0.038931
	23.440000	0.106622
	23.445000	0.161419
	23.450000	0.084058
	23.455000	0.035708
	23.460000	0.109845
	23.465000	0.154972
	23.470000	0.084058
	23.475000	0.029261
	23.480000	0.100175
	23.485000	0.148525
	23.490000	0.080835
	23.495000	0.032484
	23.500000	0.106622
	23.505000	0.151749
	23.510000	0.090505
	23.515000	0.035708
	23.520000	0.103398
	23.525000	0.161419
	23.530000	0.090505
	23.535000	0.038931
	23.540000	0.119515
	23.545000	0.171089
	23.550000	0.100175
	23.555000	0.045378
	23.560000	0.122738
	23.565000	0.174312
	23.570000	0.106622
	23.575000	0.058271
	23.580000	0.125962
	23.585000	0.183982
	23.590000	0.113068
	23.595000	0.058271
	23.600000	0.132408
	23.605000	0.183982
	23.610000	0.113068
	23.615000	0.061495
	23.620000	0.132408
	23.625000	0.187206
	23.630000	0.116292
	23.635000	0.064718
	23.640000	0.135632
	23.645000	0.190429
	23.650000	0.116292
	23.655000	0.071165
	23.660000	0.138855
	23.665000	0.193652
	23.670000	0.113068
	23.675000	0.061495
	23.680000	0.138855
	23.685000	0.193652
	23.690000	0.116292
	23.695000	0.061495
	23.700000	0.138855
	23.705000	0.187206
	23.710000	0.113068
	23.715000	0.067941
	23.720000	0.138855
	23.725000	0.193652
	23.730000	0.116292
	23.735000	0.064718
	23.740000	0.135632
	23.745000	0.187206
	23.750000	0.113068
	23.755000	0.058271
	23.760000	0.142079
	23.765000	0.187206
	23.770000	0.109845
	23.775000	0.058271
	23.780000	0.125962
	23.785000	0.177536
	23.790000	0.106622
	23.795000	0.051825
	23.800000	0.122738
	23.805000	0.177536
	23.810000	0.106622
	23.815000	0.051825
	23.820000	0.125962
	23.825000	0.180759
	23.830000	0.100175
	23.835000	0.051825
	23.840000	0.122738
	23.845000	0.177536
	23.850000	0.103398
	23.855000	0.048601
	23.860000	0.122738
	23.865000	0.174312
	23.870000	0.100175
	23.875000	0.048601
	23.880000	0.122738
	23.885000	0.174312
	23.890000	0.100175
	23.895000	0.042154
	23.900000	0.116292
	23.905000	0.171089
	23.910000	0.100175
	23.915000	0.042154
	23.920000	0.122738
	23.925000	0.167865
	23.930000	0.096952
	23.935000	0.048601
	23.940000	0.119515
	23.945000	0.174312
	23.950000	0.096952
	23.955000	0.051825
	23.960000	0.122738
	23.965000	0.171089
	23.970000	0.100175
	23.975000	0.045378
	23.980000	0.122738
	23.985000	0.174312
	23.990000	0.100175
	23.995000	0.051825
	24.000000	0.122738
	24.005000	0.177536
	24.010000	0.096952
	24.015000	0.051825
	24.020000	0.129185
	24.025000	0.174312
	24.030000	0.103398
	24.035000	0.055048
	24.040000	0.125962
	24.045000	0.180759
	24.050000	0.106622
	24.055000	0.061495
	24.060000	0.138855
	24.065000	0.190429
	24.070000	0.116292
	24.075000	0.067941
	24.080000	0.145302
	24.085000	0.196876
	24.090000	0.119515
	24.095000	0.067941
	24.100000	0.145302
	24.105000	0.193652
	24.110000	0.122738
	24.115000	0.071165
	24.120000	0.151749
	24.125000	0.203322
	24.130000	0.129185
	24.135000	0.074388
	24.140000	0.154972
	24.145000	0.206546
	24.150000	0.129185
	24.155000	0.077611
	24.160000	0.151749
	24.165000	0.200099
	24.170000	0.132408
	24.175000	0.084058
	24.180000	0.158195
	24.185000	0.206546
	24.190000	0.125962
	24.195000	0.084058
	24.200000	0.161419
	24.205000	0.203322
	24.210000	0.125962
	24.215000	0.084058
	24.220000	0.158195
	24.225000	0.216216
	24.230000	0.132408
	24.235000	0.080835
	24.240000	0.158195
	24.245000	0.203322
	24.250000	0.132408
	24.255000	0.080835
	24.260000	0.158195
	24.265000	0.212992
	24.270000	0.132408
	24.275000	0.074388
	24.280000	0.158195
	24.285000	0.209769
	24.290000	0.125962
	24.295000	0.077611
	24.300000	0.151749
	24.305000	0.206546
	24.310000	0.129185
	24.315000	0.077611
	24.320000	0.148525
	24.325000	0.200099
	24.330000	0.129185
	24.335000	0.074388
	24.340000	0.154972
	24.345000	0.203322
	24.350000	0.125962
	24.355000	0.074388
	24.360000	0.161419
	24.365000	0.203322
	24.370000	0.125962
	24.375000	0.084058
	24.380000	0.161419
	24.385000	0.203322
	24.390000	0.129185
	24.395000	0.077611
	24.400000	0.154972
	24.405000	0.206546
	24.410000	0.129185
	24.415000	0.074388
	24.420000	0.158195
	24.425000	0.206546
	24.430000	0.129185
	24.435000	0.080835
	24.440000	0.158195
	24.445000	0.209769
	24.450000	0.129185
	24.455000	0.077611
	24.460000	0.158195
	24.465000	0.209769
	24.470000	0.129185
	24.475000	0.084058
	24.480000	0.158195
	24.485000	0.209769
	24.490000	0.135632
	24.495000	0.084058
	24.500000	0.161419
	24.505000	0.209769
	24.510000	0.125962
	24.515000	0.084058
	24.520000	0.161419
	24.525000	0.212992
	24.530000	0.132408
	24.535000	0.084058
	24.540000	0.164642
	24.545000	0.212992
	24.550000	0.135632
	24.555000	0.080835
	24.560000	0.167865
	24.565000	0.216216
	24.570000	0.138855
	24.575000	0.087281
	24.580000	0.167865
	24.585000	0.216216
	24.590000	0.138855
	24.595000	0.087281
	24.600000	0.174312
	24.605000	0.216216
	24.610000	0.138855
	24.615000	0.090505
	24.620000	0.167865
	24.625000	0.219439
	24.630000	0.142079
	24.635000	0.096952
	24.640000	0.171089
	24.645000	0.219439
	24.650000	0.142079
	24.655000	0.096952
	24.660000	0.171089
	24.665000	0.219439
	24.670000	0.145302
	24.675000	0.096952
	24.680000	0.174312
	24.685000	0.225886
	24.690000	0.148525
	24.695000	0.090505
	24.700000	0.174312
	24.705000	0.225886
	24.710000	0.142079
	24.715000	0.093728
	24.720000	0.174312
	24.725000	0.225886
	24.730000	0.142079
	24.735000	0.096952
	24.740000	0.174312
	24.745000	0.219439
	24.750000	0.145302
	24.755000	0.090505
	24.760000	0.164642
	24.765000	0.212992
	24.770000	0.142079
	24.775000	0.096952
	24.780000	0.167865
	24.785000	0.219439
	24.790000	0.145302
	24.795000	0.096952
	24.800000	0.174312
	24.805000	0.225886
	24.810000	0.138855
	24.815000	0.093728
	24.820000	0.171089
	24.825000	0.212992
	24.830000	0.145302
	24.835000	0.093728
	24.840000	0.171089
	24.845000	0.216216
	24.850000	0.138855
	24.855000	0.090505
	24.860000	0.174312
	24.865000	0.216216
	24.870000	0.138855
	24.875000	0.093728
	24.880000	0.171089
	24.885000	0.219439
	24.890000	0.145302
	24.895000	0.093728
	24.900000	0.171089
	24.905000	0.219439
	24.910000	0.142079
	24.915000	0.093728
	24.920000	0.171089
	24.925000	0.219439
	24.930000	0.135632
	24.935000	0.093728
	24.940000	0.171089
	24.945000	0.216216
	24.950000	0.138855
	24.955000	0.087281
	24.960000	0.164642
	24.965000	0.212992
	24.970000	0.132408
	24.975000	0.093728
	24.980000	0.171089
	24.985000	0.219439
	24.990000	0.142079
	24.995000	0.090505
	25.000000	0.164642
	25.005000	0.219439
	25.010000	0.135632
	25.015000	0.090505
	25.020000	0.164642
	25.025000	0.216216
	25.030000	0.135632
	25.035000	0.087281
	25.040000	0.167865
	25.045000	0.219439
	25.050000	0.135632
	25.055000	0.090505
	25.060000	0.171089
	25.065000	0.206546
	25.070000	0.135632
	25.075000	0.093728
	25.080000	0.174312
	25.085000	0.212992
	25.090000	0.135632
	25.095000	0.090505
	25.100000	0.174312
	25.105000	0.216216
	25.110000	0.132408
	25.115000	0.087281
	25.120000	0.167865
	25.125000	0.212992
	25.130000	0.135632
	25.135000	0.093728
	25.140000	0.164642
	25.145000	0.219439
	25.150000	0.138855
	25.155000	0.090505
	25.160000	0.167865
	25.165000	0.216216
	25.170000	0.135632
	25.175000	0.087281
	25.180000	0.167865
	25.185000	0.209769
	25.190000	0.135632
	25.195000	0.087281
	25.200000	0.171089
	25.205000	0.219439
	25.210000	0.142079
	25.215000	0.090505
	25.220000	0.167865
	25.225000	0.219439
	25.230000	0.132408
	25.235000	0.093728
	25.240000	0.167865
	25.245000	0.212992
	25.250000	0.135632
	25.255000	0.090505
	25.260000	0.174312
	25.265000	0.216216
	25.270000	0.135632
	25.275000	0.090505
	25.280000	0.171089
	25.285000	0.212992
	25.290000	0.135632
	25.295000	0.096952
	25.300000	0.171089
	25.305000	0.212992
	25.310000	0.135632
	25.315000	0.100175
	25.320000	0.174312
	25.325000	0.219439
	25.330000	0.145302
	25.335000	0.093728
	25.340000	0.177536
	25.345000	0.225886
	25.350000	0.142079
	25.355000	0.103398
	25.360000	0.180759
	25.365000	0.235556
	25.370000	0.158195
	25.375000	0.113068
	25.380000	0.206546
	25.385000	0.251673
	25.390000	0.183982
	25.395000	0.135632
	25.400000	0.219439
	25.405000	0.267790
	25.410000	0.196876
	25.415000	0.158195
	25.420000	0.232333
	25.425000	0.280683
	25.430000	0.212992
	25.435000	0.177536
	25.440000	0.251673
	25.445000	0.303247
	25.450000	0.222663
	25.455000	0.187206
	25.460000	0.271013
	25.465000	0.316140
	25.470000	0.238779
	25.475000	0.206546
	25.480000	0.283906
	25.485000	0.335480
	25.490000	0.258119
	25.495000	0.209769
	25.500000	0.300023
	25.505000	0.335480
	25.510000	0.267790
	25.515000	0.222663
	25.520000	0.296800
	25.525000	0.345150
	25.530000	0.267790
	25.535000	0.222663
	25.540000	0.293576
	25.545000	0.345150
	25.550000	0.271013
	25.555000	0.232333
	25.560000	0.296800
	25.565000	0.348374
	25.570000	0.271013
	25.575000	0.229109
	25.580000	0.303247
	25.585000	0.345150
	25.590000	0.274236
	25.595000	0.229109
	25.600000	0.300023
	25.605000	0.348374
	25.610000	0.277460
	25.615000	0.225886
	25.620000	0.306470
	25.625000	0.354820
	25.630000	0.274236
	25.635000	0.229109
	25.640000	0.306470
	25.645000	0.351597
	25.650000	0.277460
	25.655000	0.235556
	25.660000	0.296800
	25.665000	0.348374
	25.670000	0.264566
	25.675000	0.222663
	25.680000	0.300023
	25.685000	0.338703
	25.690000	0.261343
	25.695000	0.216216
	25.700000	0.300023
	25.705000	0.325810
	25.710000	0.254896
	25.715000	0.206546
	25.720000	0.280683
	25.725000	0.322587
	25.730000	0.245226
	25.735000	0.203322
	25.740000	0.271013
	25.745000	0.309693
	25.750000	0.229109
	25.755000	0.183982
	25.760000	0.261343
	25.765000	0.296800
	25.770000	0.216216
	25.775000	0.167865
	25.780000	0.235556
	25.785000	0.274236
	25.790000	0.193652
	25.795000	0.148525
	25.800000	0.222663
	25.805000	0.264566
	25.810000	0.177536
	25.815000	0.125962
	25.820000	0.206546
	25.825000	0.245226
	25.830000	0.158195
	25.835000	0.122738
	25.840000	0.200099
	25.845000	0.232333
	25.850000	0.154972
	25.855000	0.103398
	25.860000	0.180759
	25.865000	0.229109
	25.870000	0.148525
	25.875000	0.100175
	25.880000	0.171089
	25.885000	0.212992
	25.890000	0.129185
	25.895000	0.093728
	25.900000	0.161419
	25.905000	0.209769
	25.910000	0.129185
	25.915000	0.077611
	25.920000	0.151749
	25.925000	0.193652
	25.930000	0.109845
	25.935000	0.061495
	25.940000	0.142079
	25.945000	0.190429
	25.950000	0.106622
	25.955000	0.061495
	25.960000	0.135632
	25.965000	0.180759
	25.970000	0.103398
	25.975000	0.058271
	25.980000	0.135632
	25.985000	0.187206
	25.990000	0.100175
	25.995000	0.064718
	26.000000	0.135632
	26.005000	0.180759
	26.010000	0.100175
	26.015000	0.067941
	26.020000	0.142079
	26.025000	0.190429
	26.030000	0.109845
	26.035000	0.064718
	26.040000	0.148525
	26.045000	0.187206
	26.050000	0.106622
	26.055000	0.071165
	26.060000	0.151749
	26.065000	0.193652
	26.070000	0.109845
	26.075000	0.067941
	26.080000	0.151749
	26.085000	0.193652
	26.090000	0.113068
	26.095000	0.074388
	26.100000	0.151749
	26.105000	0.193652
	26.110000	0.113068
	26.115000	0.071165
	26.120000	0.154972
	26.125000	0.200099
	26.130000	0.119515
	26.135000	0.080835
	26.140000	0.158195
	26.145000	0.200099
	26.150000	0.122738
	26.155000	0.074388
	26.160000	0.161419
	26.165000	0.203322
	26.170000	0.122738
	26.175000	0.074388
	26.180000	0.151749
	26.185000	0.196876
	26.190000	0.119515
	26.195000	0.080835
	26.200000	0.148525
	26.205000	0.196876
	26.210000	0.119515
	26.215000	0.071165
	26.220000	0.158195
	26.225000	0.203322
	26.230000	0.113068
	26.235000	0.074388
	26.240000	0.151749
	26.245000	0.193652
	26.250000	0.119515
	26.255000	0.071165
	26.260000	0.154972
	26.265000	0.196876
	26.270000	0.109845
	26.275000	0.074388
	26.280000	0.154972
	26.285000	0.190429
	26.290000	0.119515
	26.295000	0.071165
	26.300000	0.151749
	26.305000	0.190429
	26.310000	0.113068
	26.315000	0.071165
	26.320000	0.151749
	26.325000	0.190429
	26.330000	0.116292
	26.335000	0.071165
	26.340000	0.154972
	26.345000	0.193652
	26.350000	0.109845
	26.355000	0.071165
	26.360000	0.154972
	26.365000	0.193652
	26.370000	0.113068
	26.375000	0.071165
	26.380000	0.148525
	26.385000	0.196876
	26.390000	0.109845
	26.395000	0.074388
	26.400000	0.158195
	26.405000	0.196876
	26.410000	0.119515
	26.415000	0.071165
	26.420000	0.158195
	26.425000	0.196876
	26.430000	0.113068
	26.435000	0.077611
	26.440000	0.161419
	26.445000	0.193652
	26.450000	0.119515
	26.455000	0.074388
	26.460000	0.158195
	26.465000	0.200099
	26.470000	0.116292
	26.475000	0.074388
	26.480000	0.161419
	26.485000	0.193652
	26.490000	0.119515
	26.495000	0.071165
	26.500000	0.154972
	26.505000	0.196876
	26.510000	0.122738
	26.515000	0.071165
	26.520000	0.154972
	26.525000	0.196876
	26.530000	0.113068
	26.535000	0.071165
	26.540000	0.158195
	26.545000	0.196876
	26.550000	0.116292
	26.555000	0.071165
	26.560000	0.151749
	26.565000	0.203322
	26.570000	0.119515
	26.575000	0.077611
	26.580000	0.154972
	26.585000	0.203322
	26.590000	0.113068
	26.595000	0.080835
	26.600000	0.161419
	26.605000	0.203322
	26.610000	0.119515
	26.615000	0.074388
	26.620000	0.154972
	26.625000	0.200099
	26.630000	0.113068
	26.635000	0.077611
	26.640000	0.164642
	26.645000	0.200099
	26.650000	0.113068
	26.655000	0.074388
	26.660000	0.158195
	26.665000	0.203322
	26.670000	0.116292
	26.675000	0.074388
	26.680000	0.158195
	26.685000	0.203322
	26.690000	0.119515
	26.695000	0.074388
	26.700000	0.158195
	26.705000	0.203322
	26.710000	0.119515
	26.715000	0.080835
	26.720000	0.164642
	26.725000	0.200099
	26.730000	0.116292
	26.735000	0.077611
	26.740000	0.161419
	26.745000	0.209769
	26.750000	0.122738
	26.755000	0.077611
	26.760000	0.167865
	26.765000	0.203322
	26.770000	0.122738
	26.775000	0.080835
	26.780000	0.164642
	26.785000	0.200099
	26.790000	0.125962
	26.795000	0.080835
	26.800000	0.158195
	26.805000	0.209769
	26.810000	0.122738
	26.815000	0.084058
	26.820000	0.161419
	26.825000	0.206546
	26.830000	0.116292
	26.835000	0.084058
	26.840000	0.167865
	26.845000	0.203322
	26.850000	0.125962
	26.855000	0.087281
	26.860000	0.171089
	26.865000	0.209769
	26.870000	0.116292
	26.875000	0.084058
	26.880000	0.164642
	26.885000	0.203322
	26.890000	0.125962
	26.895000	0.080835
	26.900000	0.164642
	26.905000	0.203322
	26.910000	0.122738
	26.915000	0.087281
	26.920000	0.164642
	26.925000	0.200099
	26.930000	0.125962
	26.935000	0.084058
	26.940000	0.164642
	26.945000	0.206546
	26.950000	0.122738
	26.955000	0.077611
	26.960000	0.167865
	26.965000	0.200099
	26.970000	0.116292
	26.975000	0.080835
	26.980000	0.164642
	26.985000	0.200099
	26.990000	0.122738
	26.995000	0.080835
	27.000000	0.161419
	27.005000	0.203322
	27.010000	0.122738
	27.015000	0.080835
	27.020000	0.161419
	27.025000	0.196876
	27.030000	0.119515
	27.035000	0.080835
	27.040000	0.158195
	27.045000	0.203322
	27.050000	0.119515
	27.055000	0.074388
	27.060000	0.158195
	27.065000	0.206546
	27.070000	0.125962
	27.075000	0.087281
	27.080000	0.164642
	27.085000	0.200099
	27.090000	0.119515
	27.095000	0.077611
	27.100000	0.164642
	27.105000	0.206546
	27.110000	0.119515
	27.115000	0.087281
	27.120000	0.161419
	27.125000	0.196876
	27.130000	0.122738
	27.135000	0.080835
	27.140000	0.158195
	27.145000	0.200099
	27.150000	0.129185
	27.155000	0.080835
	27.160000	0.158195
	27.165000	0.200099
	27.170000	0.116292
	27.175000	0.087281
	27.180000	0.164642
	27.185000	0.203322
	27.190000	0.119515
	27.195000	0.074388
	27.200000	0.164642
	27.205000	0.206546
	27.210000	0.125962
	27.215000	0.087281
	27.220000	0.164642
	27.225000	0.206546
	27.230000	0.119515
	27.235000	0.084058
	27.240000	0.164642
	27.245000	0.206546
	27.250000	0.113068
	27.255000	0.080835
	27.260000	0.167865
	27.265000	0.206546
	27.270000	0.129185
	27.275000	0.077611
	27.280000	0.167865
	27.285000	0.206546
	27.290000	0.125962
	27.295000	0.084058
	27.300000	0.167865
	27.305000	0.209769
	27.310000	0.122738
	27.315000	0.087281
	27.320000	0.164642
	27.325000	0.206546
	27.330000	0.129185
	27.335000	0.084058
	27.340000	0.164642
	27.345000	0.212992
	27.350000	0.122738
	27.355000	0.084058
	27.360000	0.171089
	27.365000	0.212992
	27.370000	0.125962
	27.375000	0.084058
	27.380000	0.171089
	27.385000	0.212992
	27.390000	0.129185
	27.395000	0.090505
	27.400000	0.171089
	27.405000	0.206546
	27.410000	0.129185
	27.415000	0.087281
	27.420000	0.164642
	27.425000	0.212992
	27.430000	0.119515
	27.435000	0.090505
	27.440000	0.167865
	27.445000	0.203322
	27.450000	0.122738
	27.455000	0.080835
	27.460000	0.158195
	27.465000	0.203322
	27.470000	0.122738
	27.475000	0.080835
	27.480000	0.161419
	27.485000	0.200099
	27.490000	0.109845
	27.495000	0.084058
	27.500000	0.158195
	27.505000	0.200099
	27.510000	0.113068
	27.515000	0.071165
	27.520000	0.151749
	27.525000	0.190429
	27.530000	0.109845
	27.535000	0.061495
	27.540000	0.142079
	27.545000	0.180759
	27.550000	0.103398
	27.555000	0.064718
	27.560000	0.145302
	27.565000	0.190429
	27.570000	0.103398
	27.575000	0.055048
	27.580000	0.142079
	27.585000	0.180759
	27.590000	0.100175
	27.595000	0.058271
	27.600000	0.135632
	27.605000	0.177536
	27.610000	0.090505
	27.615000	0.055048
	27.620000	0.135632
	27.625000	0.180759
	27.630000	0.087281
	27.635000	0.055048
	27.640000	0.135632
	27.645000	0.180759
	27.650000	0.093728
	27.655000	0.048601
	27.660000	0.132408
	27.665000	0.171089
	27.670000	0.087281
	27.675000	0.058271
	27.680000	0.132408
	27.685000	0.174312
	27.690000	0.084058
	27.695000	0.058271
	27.700000	0.135632
	27.705000	0.177536
	27.710000	0.100175
	27.715000	0.048601
	27.720000	0.138855
	27.725000	0.177536
	27.730000	0.087281
	27.735000	0.055048
	27.740000	0.129185
	27.745000	0.174312
	27.750000	0.093728
	27.755000	0.058271
	27.760000	0.142079
	27.765000	0.174312
	27.770000	0.090505
	27.775000	0.055048
	27.780000	0.138855
	27.785000	0.180759
	27.790000	0.093728
	27.795000	0.055048
	27.800000	0.135632
	27.805000	0.177536
	27.810000	0.096952
	27.815000	0.058271
	27.820000	0.142079
	27.825000	0.177536
	27.830000	0.093728
	27.835000	0.055048
	27.840000	0.138855
	27.845000	0.180759
	27.850000	0.096952
	27.855000	0.058271
	27.860000	0.138855
	27.865000	0.171089
	27.870000	0.096952
	27.875000	0.055048
	27.880000	0.142079
	27.885000	0.180759
	27.890000	0.096952
	27.895000	0.055048
	27.900000	0.135632
	27.905000	0.177536
	27.910000	0.093728
	27.915000	0.058271
	27.920000	0.142079
	27.925000	0.183982
	27.930000	0.103398
	27.935000	0.064718
	27.940000	0.148525
	27.945000	0.196876
	27.950000	0.109845
	27.955000	0.074388
	27.960000	0.161419
	27.965000	0.206546
	27.970000	0.119515
	27.975000	0.087281
	27.980000	0.171089
	27.985000	0.212992
	27.990000	0.138855
	27.995000	0.100175
	28.000000	0.187206
	28.005000	0.225886
	28.010000	0.142079
	28.015000	0.116292
	28.020000	0.203322
	28.025000	0.245226
	28.030000	0.161419
	28.035000	0.132408
	28.040000	0.212992
	28.045000	0.258119
	28.050000	0.177536
	28.055000	0.145302
	28.060000	0.229109
	28.065000	0.271013
	28.070000	0.193652
	28.075000	0.158195
	28.080000	0.242003
	28.085000	0.287130
	28.090000	0.212992
	28.095000	0.171089
	28.100000	0.258119
	28.105000	0.300023
	28.110000	0.216216
	28.115000	0.187206
	28.120000	0.261343
	28.125000	0.309693
	28.130000	0.232333
	28.135000	0.196876
	28.140000	0.277460
	28.145000	0.316140
	28.150000	0.232333
	28.155000	0.196876
	28.160000	0.283906
	28.165000	0.322587
	28.170000	0.245226
	28.175000	0.209769
	28.180000	0.283906
	28.185000	0.325810
	28.190000	0.245226
	28.195000	0.206546
	28.200000	0.277460
	28.205000	0.329033
	28.210000	0.235556
	28.215000	0.206546
	28.220000	0.290353
	28.225000	0.322587
	28.230000	0.242003
	28.235000	0.209769
	28.240000	0.287130
	28.245000	0.322587
	28.250000	0.245226
	28.255000	0.200099
	28.260000	0.277460
	28.265000	0.316140
	28.270000	0.238779
	28.275000	0.196876
	28.280000	0.280683
	28.285000	0.309693
	28.290000	0.232333
	28.295000	0.200099
	28.300000	0.267790
	28.305000	0.306470
	28.310000	0.222663
	28.315000	0.187206
	28.320000	0.264566
	28.325000	0.296800
	28.330000	0.212992
	28.335000	0.177536
	28.340000	0.254896
	28.345000	0.283906
	28.350000	0.203322
	28.355000	0.161419
	28.360000	0.245226
	28.365000	0.277460
	28.370000	0.196876
	28.375000	0.158195
	28.380000	0.235556
	28.385000	0.264566
	28.390000	0.190429
	28.395000	0.154972
	28.400000	0.229109
	28.405000	0.254896
	28.410000	0.174312
	28.415000	0.135632
	28.420000	0.212992
	28.425000	0.238779
	28.430000	0.161419
	28.435000	0.119515
	28.440000	0.193652
	28.445000	0.229109
	28.450000	0.138855
	28.455000	0.103398
	28.460000	0.180759
	28.465000	0.209769
	28.470000	0.135632
	28.475000	0.087281
	28.480000	0.174312
	28.485000	0.200099
	28.490000	0.116292
	28.495000	0.080835
	28.500000	0.161419
	28.505000	0.190429
	28.510000	0.103398
	28.515000	0.064718
	28.520000	0.145302
	28.525000	0.183982
	28.530000	0.096952
	28.535000	0.055048
	28.540000	0.135632
	28.545000	0.171089
	28.550000	0.084058
	28.555000	0.051825
	28.560000	0.125962
	28.565000	0.167865
	28.570000	0.074388
	28.575000	0.045378
	28.580000	0.125962
	28.585000	0.161419
	28.590000	0.080835
	28.595000	0.045378
	28.600000	0.129185
	28.605000	0.167865
	28.610000	0.084058
	28.615000	0.055048
	28.620000	0.132408
	28.625000	0.164642
	28.630000	0.084058
	28.635000	0.051825
	28.640000	0.132408
	28.645000	0.174312
	28.650000	0.093728
	28.655000	0.061495
	28.660000	0.145302
	28.665000	0.183982
	28.670000	0.093728
	28.675000	0.058271
	28.680000	0.138855
	28.685000	0.177536
	28.690000	0.096952
	28.695000	0.058271
	28.700000	0.142079
	28.705000	0.183982
	28.710000	0.100175
	28.715000	0.064718
	28.720000	0.148525
	28.725000	0.187206
	28.730000	0.103398
	28.735000	0.064718
	28.740000	0.154972
	28.745000	0.187206
	28.750000	0.103398
	28.755000	0.071165
	28.760000	0.154972
	28.765000	0.193652
	28.770000	0.109845
	28.775000	0.067941
	28.780000	0.154972
	28.785000	0.190429
	28.790000	0.109845
	28.795000	0.071165
	28.800000	0.154972
	28.805000	0.196876
	28.810000	0.106622
	28.815000	0.077611
	28.820000	0.151749
	28.825000	0.187206
	28.830000	0.113068
	28.835000	0.071165
	28.840000	0.154972
	28.845000	0.187206
	28.850000	0.109845
	28.855000	0.077611
	28.860000	0.151749
	28.865000	0.187206
	28.870000	0.109845
	28.875000	0.071165
	28.880000	0.158195
	28.885000	0.190429
	28.890000	0.106622
	28.895000	0.074388
	28.900000	0.154972
	28.905000	0.190429
	28.910000	0.116292
	28.915000	0.074388
	28.920000	0.158195
	28.925000	0.190429
	28.930000	0.113068
	28.935000	0.067941
	28.940000	0.154972
	28.945000	0.193652
	28.950000	0.113068
	28.955000	0.071165
	28.960000	0.154972
	28.965000	0.190429
	28.970000	0.116292
	28.975000	0.077611
	28.980000	0.158195
	28.985000	0.196876
	28.990000	0.113068
	28.995000	0.071165
	29.000000	0.154972
	29.005000	0.196876
	29.010000	0.109845
	29.015000	0.077611
	29.020000	0.161419
	29.025000	0.196876
	29.030000	0.106622
	29.035000	0.077611
	29.040000	0.154972
	29.045000	0.190429
	29.050000	0.113068
	29.055000	0.077611
	29.060000	0.161419
	29.065000	0.196876
	29.070000	0.116292
	29.075000	0.074388
	29.080000	0.154972
	29.085000	0.193652
	29.090000	0.109845
	29.095000	0.077611
	29.100000	0.158195
	29.105000	0.206546
	29.110000	0.113068
	29.115000	0.080835
	29.120000	0.164642
	29.125000	0.200099
	29.130000	0.116292
	29.135000	0.080835
	29.140000	0.158195
	29.145000	0.203322
	29.150000	0.119515
	29.155000	0.087281
	29.160000	0.158195
	29.165000	0.196876
	29.170000	0.116292
	29.175000	0.077611
	29.180000	0.161419
	29.185000	0.200099
	29.190000	0.119515
	29.195000	0.080835
	29.200000	0.164642
	29.205000	0.200099
	29.210000	0.119515
	29.215000	0.077611
	29.220000	0.167865
	29.225000	0.212992
	29.230000	0.113068
	29.235000	0.087281
	29.240000	0.167865
	29.245000	0.209769
	29.250000	0.122738
	29.255000	0.084058
	29.260000	0.164642
	29.265000	0.209769
	29.270000	0.122738
	29.275000	0.080835
	29.280000	0.171089
	29.285000	0.206546
	29.290000	0.113068
	29.295000	0.084058
	29.300000	0.174312
	29.305000	0.212992
	29.310000	0.125962
	29.315000	0.087281
	29.320000	0.164642
	29.325000	0.206546
	29.330000	0.122738
	29.335000	0.087281
	29.340000	0.174312
	29.345000	0.209769
	29.350000	0.119515
	29.355000	0.087281
	29.360000	0.167865
	29.365000	0.203322
	29.370000	0.122738
	29.375000	0.087281
	29.380000	0.164642
	29.385000	0.203322
	29.390000	0.122738
	29.395000	0.090505
	29.400000	0.167865
	29.405000	0.209769
	29.410000	0.125962
	29.415000	0.090505
	29.420000	0.174312
	29.425000	0.216216
	29.430000	0.132408
	29.435000	0.087281
	29.440000	0.174312
	29.445000	0.209769
	29.450000	0.129185
	29.455000	0.087281
	29.460000	0.174312
	29.465000	0.209769
	29.470000	0.129185
	29.475000	0.090505
	29.480000	0.177536
	29.485000	0.212992
	29.490000	0.129185
	29.495000	0.090505
	29.500000	0.174312
	29.505000	0.212992
	29.510000	0.125962
	29.515000	0.087281
	29.520000	0.180759
	29.525000	0.209769
	29.530000	0.132408
	29.535000	0.093728
	29.540000	0.174312
	29.545000	0.212992
	29.550000	0.122738
	29.555000	0.093728
	29.560000	0.177536
	29.565000	0.216216
	29.570000	0.129185
	29.575000	0.090505
	29.580000	0.177536
	29.585000	0.212992
	29.590000	0.132408
	29.595000	0.093728
	29.600000	0.180759
	29.605000	0.209769
	29.610000	0.129185
	29.615000	0.096952
	29.620000	0.177536
	29.625000	0.212992
	29.630000	0.132408
	29.635000	0.093728
	29.640000	0.174312
	29.645000	0.216216
	29.650000	0.132408
	29.655000	0.096952
	29.660000	0.177536
	29.665000	0.222663
	29.670000	0.132408
	29.675000	0.093728
	29.680000	0.180759
	29.685000	0.209769
	29.690000	0.135632
	29.695000	0.093728
	29.700000	0.180759
	29.705000	0.212992
	29.710000	0.129185
	29.715000	0.093728
	29.720000	0.183982
	29.725000	0.212992
	29.730000	0.129185
	29.735000	0.100175
	29.740000	0.174312
	29.745000	0.216216
	29.750000	0.132408
	29.755000	0.100175
	29.760000	0.183982
	29.765000	0.222663
	29.770000	0.135632
	29.775000	0.096952
	29.780000	0.180759
	29.785000	0.216216
	29.790000	0.125962
	29.795000	0.100175
	29.800000	0.177536
	29.805000	0.219439
	29.810000	0.135632
	29.815000	0.093728
	29.820000	0.180759
	29.825000	0.222663
	29.830000	0.132408
	29.835000	0.100175
	29.840000	0.180759
	29.845000	0.216216
	29.850000	0.132408
	29.855000	0.096952
	29.860000	0.177536
	29.865000	0.219439
	29.870000	0.135632
	29.875000	0.096952
	29.880000	0.180759
	29.885000	0.219439
	29.890000	0.138855
	29.895000	0.100175
	29.900000	0.180759
	29.905000	0.225886
	29.910000	0.138855
	29.915000	0.103398
	29.920000	0.183982
	29.925000	0.216216
	29.930000	0.138855
	29.935000	0.103398
	29.940000	0.183982
	29.945000	0.222663
	29.950000	0.135632
	29.955000	0.100175
	29.960000	0.187206
	29.965000	0.222663
	29.970000	0.135632
	29.975000	0.103398
	29.980000	0.183982
	29.985000	0.222663
	29.990000	0.132408
	29.995000	0.096952
	30.000000	0.193652
	30.005000	0.222663
	30.010000	0.132408
	30.015000	0.096952
	30.020000	0.183982
	30.025000	0.216216
	30.030000	0.135632
	30.035000	0.093728
	30.040000	0.183982
	30.045000	0.222663
	30.050000	0.138855
	30.055000	0.096952
	30.060000	0.183982
	30.065000	0.219439
	30.070000	0.135632
	30.075000	0.100175
	30.080000	0.183982
	30.085000	0.219439
	30.090000	0.135632
	30.095000	0.103398
	30.100000	0.180759
	30.105000	0.219439
	30.110000	0.138855
	30.115000	0.100175
	30.120000	0.183982
	30.125000	0.222663
	30.130000	0.138855
	30.135000	0.100175
	30.140000	0.180759
	30.145000	0.222663
	30.150000	0.129185
	30.155000	0.100175
	30.160000	0.180759
	30.165000	0.219439
	30.170000	0.135632
	30.175000	0.100175
	30.180000	0.187206
	30.185000	0.222663
	30.190000	0.132408
	30.195000	0.100175
	30.200000	0.183982
	30.205000	0.216216
	30.210000	0.135632
	30.215000	0.096952
	30.220000	0.183982
	30.225000	0.219439
	30.230000	0.138855
	30.235000	0.103398
	30.240000	0.183982
	30.245000	0.219439
	30.250000	0.145302
	30.255000	0.100175
	30.260000	0.190429
	30.265000	0.225886
	30.270000	0.145302
	30.275000	0.103398
	30.280000	0.187206
	30.285000	0.225886
	30.290000	0.135632
	30.295000	0.100175
	30.300000	0.187206
	30.305000	0.225886
	30.310000	0.142079
	30.315000	0.103398
	30.320000	0.187206
	30.325000	0.229109
	30.330000	0.138855
	30.335000	0.109845
	30.340000	0.193652
	30.345000	0.225886
	30.350000	0.138855
	30.355000	0.100175
	30.360000	0.187206
	30.365000	0.229109
	30.370000	0.142079
	30.375000	0.103398
	30.380000	0.180759
	30.385000	0.229109
	30.390000	0.142079
	30.395000	0.103398
	30.400000	0.190429
	30.405000	0.222663
	30.410000	0.142079
	30.415000	0.100175
	30.420000	0.183982
	30.425000	0.232333
	30.430000	0.138855
	30.435000	0.100175
	30.440000	0.187206
	30.445000	0.219439
	30.450000	0.142079
	30.455000	0.103398
	30.460000	0.190429
	30.465000	0.216216
	30.470000	0.132408
	30.475000	0.096952
	30.480000	0.187206
	30.485000	0.216216
	30.490000	0.135632
	30.495000	0.100175
	30.500000	0.187206
	30.505000	0.219439
	30.510000	0.135632
	30.515000	0.093728
	30.520000	0.183982
	30.525000	0.222663
	30.530000	0.142079
	30.535000	0.103398
	30.540000	0.183982
	30.545000	0.219439
	30.550000	0.135632
	30.555000	0.100175
	30.560000	0.183982
	30.565000	0.222663
	30.570000	0.145302
	30.575000	0.109845
	30.580000	0.196876
	30.585000	0.238779
	30.590000	0.164642
	30.595000	0.129185
	30.600000	0.212992
	30.605000	0.254896
	30.610000	0.180759
	30.615000	0.151749
	30.620000	0.238779
	30.625000	0.280683
	30.630000	0.203322
	30.635000	0.177536
	30.640000	0.254896
	30.645000	0.300023
	30.650000	0.222663
	30.655000	0.193652
	30.660000	0.277460
	30.665000	0.312917
	30.670000	0.238779
	30.675000	0.209769
	30.680000	0.293576
	30.685000	0.335480
	30.690000	0.258119
	30.695000	0.222663
	30.700000	0.306470
	30.705000	0.348374
	30.710000	0.271013
	30.715000	0.235556
	30.720000	0.316140
	30.725000	0.351597
	30.730000	0.271013
	30.735000	0.245226
	30.740000	0.322587
	30.745000	0.358044
	30.750000	0.277460
	30.755000	0.245226
	30.760000	0.322587
	30.765000	0.358044
	30.770000	0.274236
	30.775000	0.232333
	30.780000	0.316140
	30.785000	0.354820
	30.790000	0.267790
	30.795000	0.235556
	30.800000	0.309693
	30.805000	0.341927
	30.810000	0.258119
	30.815000	0.235556
	30.820000	0.296800
	30.825000	0.335480
	30.830000	0.258119
	30.835000	0.222663
	30.840000	0.303247
	30.845000	0.332257
	30.850000	0.258119
	30.855000	0.216216
	30.860000	0.293576
	30.865000	0.332257
	30.870000	0.248449
	30.875000	0.212992
	30.880000	0.293576
	30.885000	0.325810
	30.890000	0.245226
	30.895000	0.212992
	30.900000	0.283906
	30.905000	0.312917
	30.910000	0.232333
	30.915000	0.203322
	30.920000	0.274236
	30.925000	0.312917
	30.930000	0.222663
	30.935000	0.190429
	30.940000	0.264566
	30.945000	0.293576
	30.950000	0.209769
	30.955000	0.171089
	30.960000	0.251673
	30.965000	0.280683
	30.970000	0.196876
	30.975000	0.154972
	30.980000	0.238779
	30.985000	0.261343
	30.990000	0.180759
	30.995000	0.145302
	31.000000	0.216216
	31.005000	0.254896
	31.010000	0.174312
	31.015000	0.132408
	31.020000	0.212992
	31.025000	0.245226
	31.030000	0.161419
	31.035000	0.119515
	31.040000	0.196876
	31.045000	0.235556
	31.050000	0.151749
	31.055000	0.113068
	31.060000	0.193652
	31.065000	0.229109
	31.070000	0.148525
	31.075000	0.100175
	31.080000	0.187206
	31.085000	0.222663
	31.090000	0.138855
	31.095000	0.096952
	31.100000	0.180759
	31.105000	0.209769
	31.110000	0.132408
	31.115000	0.093728
	31.120000	0.171089
	31.125000	0.209769
	31.130000	0.122738
	31.135000	0.087281
	31.140000	0.158195
	31.145000	0.196876
	31.150000	0.122738
	31.155000	0.080835
	31.160000	0.154972
	31.165000	0.200099
	31.170000	0.116292
	31.175000	0.077611
	31.180000	0.158195
	31.185000	0.196876
	31.190000	0.119515
	31.195000	0.077611
	31.200000	0.158195
	31.205000	0.200099
	31.210000	0.119515
	31.215000	0.077611
	31.220000	0.164642
	31.225000	0.190429
	31.230000	0.113068
	31.235000	0.077611
	31.240000	0.161419
	31.245000	0.196876
	31.250000	0.122738
	31.255000	0.084058
	31.260000	0.161419
	31.265000	0.196876
	31.270000	0.116292
	31.275000	0.077611
	31.280000	0.164642
	31.285000	0.203322
	31.290000	0.122738
	31.295000	0.090505
	31.300000	0.161419
	31.305000	0.203322
	31.310000	0.116292
	31.315000	0.087281
	31.320000	0.167865
	31.325000	0.203322
	31.330000	0.122738
	31.335000	0.087281
	31.340000	0.171089
	31.345000	0.209769
	31.350000	0.122738
	31.355000	0.084058
	31.360000	0.171089
	31.365000	0.206546
	31.370000	0.119515
	31.375000	0.084058
	31.380000	0.174312
	31.385000	0.209769
	31.390000	0.125962
	31.395000	0.087281
	31.400000	0.171089
	31.405000	0.203322
	31.410000	0.125962
	31.415000	0.090505
	31.420000	0.167865
	31.425000	0.206546
	31.430000	0.125962
	31.435000	0.084058
	31.440000	0.171089
	31.445000	0.206546
	31.450000	0.122738
	31.455000	0.080835
	31.460000	0.167865
	31.465000	0.209769
	31.470000	0.119515
	31.475000	0.087281
	31.480000	0.164642
	31.485000	0.209769
	31.490000	0.116292
	31.495000	0.084058
	31.500000	0.164642
	31.505000	0.206546
	31.510000	0.113068
	31.515000	0.084058
	31.520000	0.167865
	31.525000	0.206546
	31.530000	0.119515
	31.535000	0.087281
	31.540000	0.167865
	31.545000	0.206546
	31.550000	0.113068
	31.555000	0.080835
	31.560000	0.164642
	31.565000	0.203322
	31.570000	0.122738
	31.575000	0.084058
	31.580000	0.164642
	31.585000	0.200099
	31.590000	0.119515
	31.595000	0.080835
	31.600000	0.167865
	31.605000	0.200099
	31.610000	0.122738
	31.615000	0.084058
	31.620000	0.167865
	31.625000	0.203322
	31.630000	0.122738
	31.635000	0.084058
	31.640000	0.164642
	31.645000	0.206546
	31.650000	0.125962
	31.655000	0.090505
	31.660000	0.161419
	31.665000	0.203322
	31.670000	0.119515
	31.675000	0.080835
	31.680000	0.174312
	31.685000	0.209769
	31.690000	0.119515
	31.695000	0.084058
	31.700000	0.171089
	31.705000	0.200099
	31.710000	0.122738
	31.715000	0.084058
	31.720000	0.161419
	31.725000	0.200099
	31.730000	0.116292
	31.735000	0.087281
	31.740000	0.167865
	31.745000	0.203322
	31.750000	0.119515
	31.755000	0.080835
	31.760000	0.164642
	31.765000	0.206546
	31.770000	0.125962
	31.775000	0.087281
	31.780000	0.171089
	31.785000	0.209769
	31.790000	0.119515
	31.795000	0.080835
	31.800000	0.164642
	31.805000	0.206546
	31.810000	0.125962
	31.815000	0.087281
	31.820000	0.167865
	31.825000	0.206546
	31.830000	0.125962
	31.835000	0.087281
	31.840000	0.174312
	31.845000	0.203322
	31.850000	0.122738
	31.855000	0.087281
	31.860000	0.171089
	31.865000	0.209769
	31.870000	0.129185
	31.875000	0.087281
	31.880000	0.167865
	31.885000	0.209769
	31.890000	0.122738
	31.895000	0.090505
	31.900000	0.171089
	31.905000	0.216216
	31.910000	0.129185
	31.915000	0.084058
	31.920000	0.167865
	31.925000	0.206546
	31.930000	0.122738
	31.935000	0.084058
	31.940000	0.167865
	31.945000	0.206546
	31.950000	0.122738
	31.955000	0.084058
	31.960000	0.164642
	31.965000	0.212992
	31.970000	0.119515
	31.975000	0.084058
	31.980000	0.171089
	31.985000	0.203322
	31.990000	0.122738
	31.995000	0.087281
	32.000000	0.171089
	32.005000	0.206546
	32.010000	0.122738
	32.015000	0.090505
	32.020000	0.161419
	32.025000	0.206546
	32.030000	0.129185
	32.035000	0.093728
	32.040000	0.171089
	32.045000	0.209769
	32.050000	0.129185
	32.055000	0.093728
	32.060000	0.174312
	32.065000	0.209769
	32.070000	0.122738
	32.075000	0.093728
	32.080000	0.171089
	32.085000	0.212992
	32.090000	0.129185
	32.095000	0.087281
	32.100000	0.174312
	32.105000	0.206546
	32.110000	0.125962
	32.115000	0.087281
	32.120000	0.167865
	32.125000	0.209769
	32.130000	0.125962
	32.135000	0.087281
	32.140000	0.171089
	32.145000	0.212992
	32.150000	0.122738
	32.155000	0.084058
	32.160000	0.177536
	32.165000	0.212992
	32.170000	0.125962
	32.175000	0.084058
	32.180000	0.177536
	32.185000	0.212992
	32.190000	0.125962
	32.195000	0.090505
	32.200000	0.174312
	32.205000	0.209769
	32.210000	0.135632
	32.215000	0.087281
	32.220000	0.174312
	32.225000	0.212992
	32.230000	0.132408
	32.235000	0.087281
	32.240000	0.171089
	32.245000	0.216216
	32.250000	0.129185
	32.255000	0.090505
	32.260000	0.167865
	32.265000	0.209769
	32.270000	0.129185
	32.275000	0.093728
	32.280000	0.171089
	32.285000	0.212992
	32.290000	0.122738
	32.295000	0.093728
	32.300000	0.171089
	32.305000	0.216216
	32.310000	0.132408
	32.315000	0.093728
	32.320000	0.174312
	32.325000	0.212992
	32.330000	0.125962
	32.335000	0.090505
	32.340000	0.171089
	32.345000	0.209769
	32.350000	0.129185
	32.355000	0.084058
	32.360000	0.171089
	32.365000	0.212992
	32.370000	0.135632
	32.375000	0.087281
	32.380000	0.167865
	32.385000	0.216216
	32.390000	0.132408
	32.395000	0.090505
	32.400000	0.171089
	32.405000	0.216216
	32.410000	0.129185
	32.415000	0.090505
	32.420000	0.174312
	32.425000	0.209769
	32.430000	0.125962
	32.435000	0.093728
	32.440000	0.174312
	32.445000	0.212992
	32.450000	0.125962
	32.455000	0.096952
	32.460000	0.171089
	32.465000	0.216216
	32.470000	0.125962
	32.475000	0.090505
	32.480000	0.167865
	32.485000	0.212992
	32.490000	0.135632
	32.495000	0.090505
	32.500000	0.174312
	32.505000	0.212992
	32.510000	0.135632
	32.515000	0.093728
	32.520000	0.180759
	32.525000	0.212992
	32.530000	0.135632
	32.535000	0.100175
	32.540000	0.180759
	32.545000	0.209769
	32.550000	0.132408
	32.555000	0.096952
	32.560000	0.177536
	32.565000	0.219439
	32.570000	0.129185
	32.575000	0.090505
	32.580000	0.180759
	32.585000	0.212992
	32.590000	0.132408
	32.595000	0.093728
	32.600000	0.180759
	32.605000	0.216216
	32.610000	0.138855
	32.615000	0.093728
	32.620000	0.177536
	32.625000	0.219439
	32.630000	0.132408
	32.635000	0.093728
	32.640000	0.177536
	32.645000	0.219439
	32.650000	0.135632
	32.655000	0.096952
	32.660000	0.180759
	32.665000	0.219439
	32.670000	0.132408
	32.675000	0.093728
	32.680000	0.180759
	32.685000	0.216216
	32.690000	0.142079
	32.695000	0.100175
	32.700000	0.183982
	32.705000	0.219439
	32.710000	0.142079
	32.715000	0.093728
	32.720000	0.174312
	32.725000	0.222663
	32.730000	0.138855
	32.735000	0.100175
	32.740000	0.180759
	32.745000	0.222663
	32.750000	0.135632
	32.755000	0.090505
	32.760000	0.180759
	32.765000	0.216216
	32.770000	0.135632
	32.775000	0.096952
	32.780000	0.187206
	32.785000	0.219439
	32.790000	0.132408
	32.795000	0.096952
	32.800000	0.183982
	32.805000	0.219439
	32.810000	0.138855
	32.815000	0.100175
	32.820000	0.180759
	32.825000	0.222663
	32.830000	0.138855
	32.835000	0.100175
	32.840000	0.180759
	32.845000	0.222663
	32.850000	0.142079
	32.855000	0.096952
	32.860000	0.180759
	32.865000	0.219439
	32.870000	0.138855
	32.875000	0.096952
	32.880000	0.177536
	32.885000	0.222663
	32.890000	0.138855
	32.895000	0.103398
	32.900000	0.183982
	32.905000	0.216216
	32.910000	0.138855
	32.915000	0.096952
	32.920000	0.180759
	32.925000	0.219439
	32.930000	0.138855
	32.935000	0.096952
	32.940000	0.183982
	32.945000	0.222663
	32.950000	0.138855
	32.955000	0.103398
	32.960000	0.177536
	32.965000	0.225886
	32.970000	0.142079
	32.975000	0.100175
	32.980000	0.177536
	32.985000	0.222663
	32.990000	0.142079
	32.995000	0.100175
	33.000000	0.183982
	33.005000	0.222663
	33.010000	0.145302
	33.015000	0.096952
	33.020000	0.187206
	33.025000	0.216216
	33.030000	0.145302
	33.035000	0.100175
	33.040000	0.183982
	33.045000	0.222663
	33.050000	0.138855
	33.055000	0.103398
	33.060000	0.183982
	33.065000	0.222663
	33.070000	0.135632
	33.075000	0.103398
	33.080000	0.180759
	33.085000	0.216216
	33.090000	0.135632
	33.095000	0.100175
	33.100000	0.180759
	33.105000	0.222663
	33.110000	0.138855
	33.115000	0.103398
	33.120000	0.171089
	33.125000	0.229109
	33.130000	0.142079
	33.135000	0.103398
	33.140000	0.180759
	33.145000	0.222663
	33.150000	0.142079
	33.155000	0.100175
	33.160000	0.180759
	33.165000	0.212992
	33.170000	0.142079
	33.175000	0.100175
	33.180000	0.177536
	33.185000	0.222663
	33.190000	0.142079
	33.195000	0.103398
	33.200000	0.177536
	33.205000	0.222663
	33.210000	0.138855
	33.215000	0.096952
	33.220000	0.177536
	33.225000	0.222663
	33.230000	0.145302
	33.235000	0.096952
	33.240000	0.177536
	33.245000	0.222663
	33.250000	0.138855
	33.255000	0.100175
	33.260000	0.174312
	33.265000	0.216216
	33.270000	0.138855
	33.275000	0.096952
	33.280000	0.177536
	33.285000	0.219439
	33.290000	0.142079
	33.295000	0.096952
	33.300000	0.180759
	33.305000	0.216216
	33.310000	0.138855
	33.315000	0.093728
	33.320000	0.177536
	33.325000	0.222663
	33.330000	0.142079
	33.335000	0.100175
	33.340000	0.180759
	33.345000	0.222663
	33.350000	0.145302
	33.355000	0.100175
	33.360000	0.183982
	33.365000	0.222663
	33.370000	0.148525
	33.375000	0.103398
	33.380000	0.187206
	33.385000	0.225886
	33.390000	0.142079
	33.395000	0.100175
	33.400000	0.177536
	33.405000	0.222663
	33.410000	0.145302
	33.415000	0.103398
	33.420000	0.183982
	33.425000	0.222663
	33.430000	0.142079
	33.435000	0.093728
	33.440000	0.177536
	33.445000	0.222663
	33.450000	0.135632
	33.455000	0.096952
	33.460000	0.174312
	33.465000	0.225886
	33.470000	0.142079
	33.475000	0.093728
	33.480000	0.183982
	33.485000	0.222663
	33.490000	0.138855
	33.495000	0.100175
	33.500000	0.171089
	33.505000	0.225886
	33.510000	0.142079
	33.515000	0.096952
	33.520000	0.177536
	33.525000	0.222663
	33.530000	0.142079
	33.535000	0.096952
	33.540000	0.171089
	33.545000	0.219439
	33.550000	0.142079
	33.555000	0.096952
	33.560000	0.177536
	33.565000	0.222663
	33.570000	0.145302
	33.575000	0.100175
	33.580000	0.177536
	33.585000	0.219439
	33.590000	0.145302
	33.595000	0.100175
	33.600000	0.183982
	33.605000	0.219439
	33.610000	0.145302
	33.615000	0.106622
	33.620000	0.187206
	33.625000	0.232333
	33.630000	0.158195
	33.635000	0.116292
	33.640000	0.200099
	33.645000	0.238779
	33.650000	0.167865
	33.655000	0.129185
	33.660000	0.212992
	33.665000	0.261343
	33.670000	0.183982
	33.675000	0.148525
	33.680000	0.225886
	33.685000	0.280683
	33.690000	0.203322
	33.695000	0.167865
	33.700000	0.248449
	33.705000	0.290353
	33.710000	0.222663
	33.715000	0.180759
	33.720000	0.267790
	33.725000	0.309693
	33.730000	0.235556
	33.735000	0.196876
	33.740000	0.280683
	33.745000	0.329033
	33.750000	0.258119
	33.755000	0.219439
	33.760000	0.300023
	33.765000	0.338703
	33.770000	0.274236
	33.775000	0.235556
	33.780000	0.316140
	33.785000	0.354820
	33.790000	0.287130
	33.795000	0.245226
	33.800000	0.325810
	33.805000	0.367714
	33.810000	0.296800
	33.815000	0.254896
	33.820000	0.329033
	33.825000	0.377384
	33.830000	0.296800
	33.835000	0.258119
	33.840000	0.325810
	33.845000	0.374160
	33.850000	0.296800
	33.855000	0.248449
	33.860000	0.322587
	33.865000	0.374160
	33.870000	0.300023
	33.875000	0.245226
	33.880000	0.325810
	33.885000	0.367714
	33.890000	0.287130
	33.895000	0.242003
	33.900000	0.316140
	33.905000	0.354820
	33.910000	0.283906
	33.915000	0.242003
	33.920000	0.309693
	33.925000	0.354820
	33.930000	0.280683
	33.935000	0.235556
	33.940000	0.306470
	33.945000	0.348374
	33.950000	0.271013
	33.955000	0.222663
	33.960000	0.303247
	33.965000	0.335480
	33.970000	0.258119
	33.975000	0.219439
	33.980000	0.287130
	33.985000	0.329033
	33.990000	0.251673
	33.995000	0.206546
	34.000000	0.277460
	34.005000	0.312917
	34.010000	0.225886
	34.015000	0.183982
	34.020000	0.258119
	34.025000	0.293576
	34.030000	0.212992
	34.035000	0.161419
	34.040000	0.242003
	34.045000	0.277460
	34.050000	0.196876
	34.055000	0.145302
	34.060000	0.222663
	34.065000	0.258119
	34.070000	0.180759
	34.075000	0.135632
	34.080000	0.203322
	34.085000	0.242003
	34.090000	0.167865
	34.095000	0.113068
	34.100000	0.190429
	34.105000	0.229109
	34.110000	0.142079
	34.115000	0.096952
	34.120000	0.174312
	34.125000	0.212992
	34.130000	0.138855
	34.135000	0.087281
	34.140000	0.161419
	34.145000	0.200099
	34.150000	0.125962
	34.155000	0.080835
	34.160000	0.151749
	34.165000	0.193652
	34.170000	0.122738
	34.175000	0.077611
	34.180000	0.151749
	34.185000	0.196876
	34.190000	0.119515
	34.195000	0.071165
	34.200000	0.151749
	34.205000	0.193652
	34.210000	0.116292
	34.215000	0.077611
	34.220000	0.148525
	34.225000	0.196876
	34.230000	0.119515
	34.235000	0.080835
	34.240000	0.151749
	34.245000	0.200099
	34.250000	0.125962
	34.255000	0.077611
	34.260000	0.154972
	34.265000	0.200099
	34.270000	0.122738
	34.275000	0.077611
	34.280000	0.151749
	34.285000	0.203322
	34.290000	0.129185
	34.295000	0.080835
	34.300000	0.154972
	34.305000	0.206546
	34.310000	0.125962
	34.315000	0.087281
	34.320000	0.158195
	34.325000	0.206546
	34.330000	0.129185
	34.335000	0.090505
	34.340000	0.161419
	34.345000	0.206546
	34.350000	0.135632
	34.355000	0.093728
	34.360000	0.161419
	34.365000	0.212992
	34.370000	0.135632
	34.375000	0.084058
	34.380000	0.161419
	34.385000	0.209769
	34.390000	0.135632
	34.395000	0.087281
	34.400000	0.161419
	34.405000	0.206546
	34.410000	0.129185
	34.415000	0.084058
	34.420000	0.164642
	34.425000	0.212992
	34.430000	0.132408
	34.435000	0.080835
	34.440000	0.161419
	34.445000	0.200099
	34.450000	0.132408
	34.455000	0.084058
	34.460000	0.161419
	34.465000	0.209769
	34.470000	0.125962
	34.475000	0.087281
	34.480000	0.158195
	34.485000	0.209769
	34.490000	0.132408
	34.495000	0.077611
	34.500000	0.161419
	34.505000	0.200099
	34.510000	0.129185
	34.515000	0.080835
	34.520000	0.161419
	34.525000	0.203322
	34.530000	0.135632
	34.535000	0.077611
	34.540000	0.158195
	34.545000	0.206546
	34.550000	0.125962
	34.555000	0.077611
	34.560000	0.154972
	34.565000	0.200099
	34.570000	0.125962
	34.575000	0.077611
	34.580000	0.151749
	34.585000	0.206546
	34.590000	0.122738
	34.595000	0.071165
	34.600000	0.154972
	34.605000	0.206546
	34.610000	0.129185
	34.615000	0.077611
	34.620000	0.151749
	34.625000	0.203322
	34.630000	0.129185
	34.635000	0.080835
	34.640000	0.154972
	34.645000	0.200099
	34.650000	0.125962
	34.655000	0.077611
	34.660000	0.154972
	34.665000	0.206546
	34.670000	0.122738
	34.675000	0.077611
	34.680000	0.161419
	34.685000	0.206546
	34.690000	0.125962
	34.695000	0.077611
	34.700000	0.154972
	34.705000	0.206546
	34.710000	0.135632
	34.715000	0.077611
	34.720000	0.158195
	34.725000	0.203322
	34.730000	0.132408
	34.735000	0.077611
	34.740000	0.151749
	34.745000	0.203322
	34.750000	0.129185
	34.755000	0.077611
	34.760000	0.158195
	34.765000	0.206546
	34.770000	0.132408
	34.775000	0.080835
	34.780000	0.161419
	34.785000	0.212992
	34.790000	0.132408
	34.795000	0.084058
	34.800000	0.161419
	34.805000	0.206546
	34.810000	0.132408
	34.815000	0.084058
	34.820000	0.164642
	34.825000	0.212992
	34.830000	0.132408
	34.835000	0.084058
	34.840000	0.158195
	34.845000	0.209769
	34.850000	0.132408
	34.855000	0.087281
	34.860000	0.158195
	34.865000	0.216216
	34.870000	0.135632
	34.875000	0.084058
	34.880000	0.167865
	34.885000	0.212992
	34.890000	0.142079
	34.895000	0.087281
	34.900000	0.164642
	34.905000	0.219439
	34.910000	0.138855
	34.915000	0.087281
	34.920000	0.161419
	34.925000	0.219439
	34.930000	0.142079
	34.935000	0.084058
	34.940000	0.164642
	34.945000	0.216216
	34.950000	0.145302
	34.955000	0.093728
	34.960000	0.158195
	34.965000	0.216216
	34.970000	0.138855
	34.975000	0.090505
	34.980000	0.161419
	34.985000	0.212992
	34.990000	0.142079
	34.995000	0.090505
	35.000000	0.164642
	35.005000	0.212992
	35.010000	0.132408
	35.015000	0.090505
	35.020000	0.161419
	35.025000	0.216216
	35.030000	0.148525
	35.035000	0.090505
	35.040000	0.164642
	35.045000	0.212992
	35.050000	0.145302
	35.055000	0.087281
	35.060000	0.161419
	35.065000	0.216216
	35.070000	0.138855
	35.075000	0.096952
	35.080000	0.161419
	35.085000	0.216216
	35.090000	0.142079
	35.095000	0.096952
	35.100000	0.167865
	35.105000	0.219439
	35.110000	0.142079
	35.115000	0.096952
	35.120000	0.167865
	35.125000	0.222663
	35.130000	0.138855
	35.135000	0.096952
	35.140000	0.167865
	35.145000	0.219439
	35.150000	0.148525
	35.155000	0.093728
	35.160000	0.167865
	35.165000	0.219439
	35.170000	0.148525
	35.175000	0.093728
	35.180000	0.174312
	35.185000	0.222663
	35.190000	0.148525
	35.195000	0.093728
	35.200000	0.171089
	35.205000	0.222663
	35.210000	0.148525
	35.215000	0.100175
	35.220000	0.167865
	35.225000	0.219439
	35.230000	0.151749
	35.235000	0.093728
	35.240000	0.174312
	35.245000	0.219439
	35.250000	0.148525
	35.255000	0.096952
	35.260000	0.174312
	35.265000	0.222663
	35.270000	0.145302
	35.275000	0.093728
	35.280000	0.174312
	35.285000	0.229109
	35.290000	0.142079
	35.295000	0.090505
	35.300000	0.167865
	35.305000	0.232333
	35.310000	0.151749
	35.315000	0.096952
	35.320000	0.171089
	35.325000	0.225886
	35.330000	0.154972
	35.335000	0.100175
	35.340000	0.167865
	35.345000	0.225886
	35.350000	0.151749
	35.355000	0.100175
	35.360000	0.167865
	35.365000	0.222663
	35.370000	0.151749
	35.375000	0.090505
	35.380000	0.171089
	35.385000	0.222663
	35.390000	0.145302
	35.395000	0.096952
	35.400000	0.167865
	35.405000	0.222663
	35.410000	0.151749
	35.415000	0.103398
	35.420000	0.171089
	35.425000	0.222663
	35.430000	0.151749
	35.435000	0.096952
	35.440000	0.174312
	35.445000	0.225886
	35.450000	0.154972
	35.455000	0.100175
	35.460000	0.167865
	35.465000	0.222663
	35.470000	0.158195
	35.475000	0.096952
	35.480000	0.171089
	35.485000	0.225886
	35.490000	0.154972
	35.495000	0.103398
	35.500000	0.167865
	35.505000	0.222663
	35.510000	0.158195
	35.515000	0.096952
	35.520000	0.174312
	35.525000	0.222663
	35.530000	0.154972
	35.535000	0.093728
	35.540000	0.177536
	35.545000	0.229109
	35.550000	0.145302
	35.555000	0.103398
	35.560000	0.177536
	35.565000	0.225886
	35.570000	0.151749
	35.575000	0.096952
	35.580000	0.177536
	35.585000	0.232333
	35.590000	0.148525
	35.595000	0.106622
	35.600000	0.177536
	35.605000	0.232333
	35.610000	0.154972
	35.615000	0.103398
	35.620000	0.180759
	35.625000	0.232333
	35.630000	0.158195
	35.635000	0.103398
	35.640000	0.183982
	35.645000	0.238779
	35.650000	0.158195
	35.655000	0.103398
	35.660000	0.177536
	35.665000	0.232333
	35.670000	0.161419
	35.675000	0.103398
	35.680000	0.183982
	35.685000	0.235556
	35.690000	0.161419
	35.695000	0.109845
	35.700000	0.177536
	35.705000	0.238779
	35.710000	0.161419
	35.715000	0.113068
	35.720000	0.183982
	35.725000	0.235556
	35.730000	0.164642
	35.735000	0.106622
	35.740000	0.174312
	35.745000	0.235556
	35.750000	0.161419
	35.755000	0.106622
	35.760000	0.180759
	35.765000	0.242003
	35.770000	0.161419
	35.775000	0.103398
	35.780000	0.180759
	35.785000	0.238779
	35.790000	0.161419
	35.795000	0.106622
	35.800000	0.177536
	35.805000	0.238779
	35.810000	0.164642
	35.815000	0.106622
	35.820000	0.174312
	35.825000	0.235556
	35.830000	0.167865
	35.835000	0.103398
	35.840000	0.177536
	35.845000	0.229109
	35.850000	0.158195
	35.855000	0.109845
	35.860000	0.177536
	35.865000	0.238779
	35.870000	0.161419
	35.875000	0.109845
	35.880000	0.174312
	35.885000	0.235556
	35.890000	0.164642
	35.895000	0.103398
	35.900000	0.183982
	35.905000	0.238779
	35.910000	0.171089
	35.915000	0.109845
	35.920000	0.183982
	35.925000	0.242003
	35.930000	0.154972
	35.935000	0.109845
	35.940000	0.183982
	35.945000	0.232333
	35.950000	0.161419
	35.955000	0.109845
	35.960000	0.183982
	35.965000	0.238779
	35.970000	0.161419
	35.975000	0.106622
	35.980000	0.183982
	35.985000	0.238779
	35.990000	0.167865
	35.995000	0.113068
	36.000000	0.183982
	36.005000	0.238779
	36.010000	0.167865
	36.015000	0.113068
	36.020000	0.183982
	36.025000	0.242003
	36.030000	0.167865
	36.035000	0.109845
	36.040000	0.183982
	36.045000	0.232333
	36.050000	0.161419
	36.055000	0.109845
	36.060000	0.183982
	36.065000	0.235556
	36.070000	0.167865
	36.075000	0.109845
	36.080000	0.177536
	36.085000	0.235556
	36.090000	0.164642
	36.095000	0.100175
	36.100000	0.177536
	36.105000	0.229109
	36.110000	0.161419
	36.115000	0.106622
	36.120000	0.171089
	36.125000	0.232333
	36.130000	0.154972
	36.135000	0.096952
	36.140000	0.164642
	36.145000	0.232333
	36.150000	0.154972
	36.155000	0.096952
	36.160000	0.171089
	36.165000	0.225886
	36.170000	0.158195
	36.175000	0.096952
	36.180000	0.174312
	36.185000	0.232333
	36.190000	0.161419
	36.195000	0.106622
	36.200000	0.177536
	36.205000	0.232333
	36.210000	0.174312
	36.215000	0.109845
	36.220000	0.180759
	36.225000	0.242003
	36.230000	0.180759
	36.235000	0.125962
	36.240000	0.200099
	36.245000	0.264566
	36.250000	0.200099
	36.255000	0.145302
	36.260000	0.216216
	36.265000	0.280683
	36.270000	0.216216
	36.275000	0.161419
	36.280000	0.238779
	36.285000	0.296800
	36.290000	0.238779
	36.295000	0.187206
	36.300000	0.261343
	36.305000	0.316140
	36.310000	0.258119
	36.315000	0.209769
	36.320000	0.287130
	36.325000	0.348374
	36.330000	0.283906
	36.335000	0.238779
	36.340000	0.306470
	36.345000	0.361267
	36.350000	0.300023
	36.355000	0.245226
	36.360000	0.312917
	36.365000	0.367714
	36.370000	0.303247
	36.375000	0.248449
	36.380000	0.316140
	36.385000	0.367714
	36.390000	0.309693
	36.395000	0.251673
	36.400000	0.316140
	36.405000	0.377384
	36.410000	0.309693
	36.415000	0.248449
	36.420000	0.316140
	36.425000	0.374160
	36.430000	0.306470
	36.435000	0.245226
	36.440000	0.316140
	36.445000	0.374160
	36.450000	0.306470
	36.455000	0.248449
	36.460000	0.319363
	36.465000	0.367714
	36.470000	0.306470
	36.475000	0.242003
	36.480000	0.312917
	36.485000	0.361267
	36.490000	0.296800
	36.495000	0.238779
	36.500000	0.300023
	36.505000	0.354820
	36.510000	0.290353
	36.515000	0.225886
	36.520000	0.300023
	36.525000	0.351597
	36.530000	0.277460
	36.535000	0.222663
	36.540000	0.290353
	36.545000	0.341927
	36.550000	0.271013
	36.555000	0.222663
	36.560000	0.287130
	36.565000	0.335480
	36.570000	0.271013
	36.575000	0.216216
	36.580000	0.277460
	36.585000	0.329033
	36.590000	0.264566
	36.595000	0.200099
	36.600000	0.261343
	36.605000	0.316140
	36.610000	0.245226
	36.615000	0.190429
	36.620000	0.245226
	36.625000	0.303247
	36.630000	0.232333
	36.635000	0.161419
	36.640000	0.222663
	36.645000	0.274236
	36.650000	0.200099
	36.655000	0.142079
	36.660000	0.200099
	36.665000	0.245226
	36.670000	0.174312
	36.675000	0.106622
	36.680000	0.174312
	36.685000	0.225886
	36.690000	0.158195
	36.695000	0.096952
	36.700000	0.161419
	36.705000	0.212992
	36.710000	0.138855
	36.715000	0.084058
	36.720000	0.145302
	36.725000	0.203322
	36.730000	0.129185
	36.735000	0.071165
	36.740000	0.138855
	36.745000	0.200099
	36.750000	0.125962
	36.755000	0.067941
	36.760000	0.142079
	36.765000	0.203322
	36.770000	0.132408
	36.775000	0.071165
	36.780000	0.148525
	36.785000	0.200099
	36.790000	0.132408
	36.795000	0.080835
	36.800000	0.145302
	36.805000	0.206546
	36.810000	0.142079
	36.815000	0.080835
	36.820000	0.154972
	36.825000	0.209769
	36.830000	0.145302
	36.835000	0.084058
	36.840000	0.151749
	36.845000	0.212992
	36.850000	0.151749
	36.855000	0.084058
	36.860000	0.158195
	36.865000	0.219439
	36.870000	0.151749
	36.875000	0.096952
	36.880000	0.158195
	36.885000	0.219439
	36.890000	0.158195
	36.895000	0.096952
	36.900000	0.158195
	36.905000	0.216216
	36.910000	0.154972
	36.915000	0.096952
	36.920000	0.161419
	36.925000	0.222663
	36.930000	0.154972
	36.935000	0.103398
	36.940000	0.164642
	36.945000	0.222663
	36.950000	0.151749
	36.955000	0.100175
	36.960000	0.161419
	36.965000	0.222663
	36.970000	0.164642
	36.975000	0.103398
	36.980000	0.161419
	36.985000	0.222663
	36.990000	0.154972
	36.995000	0.096952
	37.000000	0.161419
	37.005000	0.222663
	37.010000	0.158195
	37.015000	0.096952
	37.020000	0.158195
	37.025000	0.219439
	37.030000	0.154972
	37.035000	0.090505
	37.040000	0.158195
	37.045000	0.222663
	37.050000	0.154972
	37.055000	0.093728
	37.060000	0.161419
	37.065000	0.216216
	37.070000	0.151749
	37.075000	0.093728
	37.080000	0.161419
	37.085000	0.216216
	37.090000	0.154972
	37.095000	0.090505
	37.100000	0.158195
	37.105000	0.222663
	37.110000	0.154972
	37.115000	0.093728
	37.120000	0.158195
	37.125000	0.222663
	37.130000	0.151749
	37.135000	0.093728
	37.140000	0.158195
	37.145000	0.219439
	37.150000	0.148525
	37.155000	0.090505
	37.160000	0.161419
	37.165000	0.222663
	37.170000	0.161419
	37.175000	0.090505
	37.180000	0.158195
	37.185000	0.219439
	37.190000	0.158195
	37.195000	0.090505
	37.200000	0.161419
	37.205000	0.219439
	37.210000	0.158195
	37.215000	0.090505
	37.220000	0.158195
	37.225000	0.222663
	37.230000	0.148525
	37.235000	0.096952
	37.240000	0.161419
	37.245000	0.222663
	37.250000	0.161419
	37.255000	0.090505
	37.260000	0.164642
	37.265000	0.222663
	37.270000	0.154972
	37.275000	0.096952
	37.280000	0.164642
	37.285000	0.222663
	37.290000	0.161419
	37.295000	0.103398
	37.300000	0.167865
	37.305000	0.225886
	37.310000	0.164642
	37.315000	0.103398
	37.320000	0.167865
	37.325000	0.232333
	37.330000	0.167865
	37.335000	0.096952
	37.340000	0.171089
	37.345000	0.229109
	37.350000	0.167865
	37.355000	0.103398
	37.360000	0.164642
	37.365000	0.229109
	37.370000	0.161419
	37.375000	0.103398
	37.380000	0.167865
	37.385000	0.225886
	37.390000	0.167865
	37.395000	0.103398
	37.400000	0.164642
	37.405000	0.235556
	37.410000	0.171089
	37.415000	0.103398
	37.420000	0.164642
	37.425000	0.232333
	37.430000	0.164642
	37.435000	0.103398
	37.440000	0.171089
	37.445000	0.225886
	37.450000	0.164642
	37.455000	0.103398
	37.460000	0.167865
	37.465000	0.235556
	37.470000	0.167865
	37.475000	0.096952
	37.480000	0.171089
	37.485000	0.235556
	37.490000	0.167865
	37.495000	0.103398
	37.500000	0.167865
	37.505000	0.235556
	37.510000	0.164642
	37.515000	0.103398
	37.520000	0.180759
	37.525000	0.232333
	37.530000	0.167865
	37.535000	0.103398
	37.540000	0.167865
	37.545000	0.238779
	37.550000	0.167865
	37.555000	0.103398
	37.560000	0.167865
	37.565000	0.238779
	37.570000	0.174312
	37.575000	0.103398
	37.580000	0.167865
	37.585000	0.238779
	37.590000	0.171089
	37.595000	0.113068
	37.600000	0.167865
	37.605000	0.235556
	37.610000	0.171089
	37.615000	0.113068
	37.620000	0.171089
	37.625000	0.245226
	37.630000	0.171089
	37.635000	0.109845
	37.640000	0.177536
	37.645000	0.242003
	37.650000	0.177536
	37.655000	0.109845
	37.660000	0.177536
	37.665000	0.242003
	37.670000	0.177536
	37.675000	0.116292
	37.680000	0.174312
	37.685000	0.242003
	37.690000	0.177536
	37.695000	0.109845
	37.700000	0.180759
	37.705000	0.242003
	37.710000	0.174312
	37.715000	0.116292
	37.720000	0.177536
	37.725000	0.238779
	37.730000	0.177536
	37.735000	0.106622
	37.740000	0.180759
	37.745000	0.242003
	37.750000	0.177536
	37.755000	0.109845
	37.760000	0.177536
